Software Version:	3.9.2.0
Unit SN:	10000200
Spectrometer SN:	6960
Date:	3/14/2024 1:33:10 PM
Data Line Index:	25
Spectral Points:	2048
Integration time (ms):	125
Averages:	20
Delay (ms):	30000
Sequence Number:	1
Processing:	dark subtract
Laser Power (mW):	300
Laser Current (mA):	824
Laser Diode Temp (C):	25
Laser Case Temp (C):	28.6
System Temp (C):	28.6
Spectrometer Temp (C):	26.4
CCD Temp (C):	0.008
Secondary Temp (C):	20.007
Heatsink Temp (C):	24.504
CCDPCB Temp (C):	38.063
SecondaryPCB Temp (C):	35.64

Wavelength	RamanShift	Raw Counts	Dark Subtracted
787.061	30.1047	467.3	56.35
787.2016	32.3739	470.75	62
787.3422	34.6426	473.05	64.1
787.4828	36.9109	480.05	68.25
787.6235	39.1787	489.3	74.75
787.7642	41.4461	501.25	81.05
787.9049	43.7131	512.9	89.1
788.0456	45.9796	517.4	90.85
788.1863	48.2456	533.85	103.1
788.3271	50.5112	539.05	104.05
788.4679	52.7764	549.05	111.6
788.6087	55.0411	560.3	116.8
788.7496	57.3054	574	127.8
788.8904	59.5692	586.55	136.7
789.0313	61.8326	597.25	144.8
789.1722	64.0955	612.7	153.95
789.3132	66.3579	632.75	169.25
789.4541	68.6199	653.65	186.8
789.5951	70.8815	696.25	228.6
789.7361	73.1426	774.2	302.7
789.8771	75.4032	999.65	522.15
790.0181	77.6634	1545.6	1061.95
790.1592	79.9231	2862.15	2373.15
790.3003	82.1824	5741.95	5241.85
790.4414	84.4412	11013.95	10495.1
790.5825	86.6995	18372.25	17827.75
790.7237	88.9574	25615.05	25046.5
790.8648	91.2148	30719.7	30131.95
791.006	93.4717	33101.95	32504.45
791.1472	95.7282	33595.7	32996.3
791.2885	97.9842	33440.2	32835.85
791.4297	100.2398	32776.05	32169.15
791.571	102.4949	32032.75	31420.6
791.7123	104.7495	31143.3	30525.75
791.8536	107.0036	30213	29599.45
791.9949	109.2573	29445.1	28830.35
792.1363	111.5105	28695.3	28081.15
792.2777	113.7632	28016.45	27399.2
792.4191	116.0154	27467.9	26840.15
792.5605	118.2672	27056.15	26434.45
792.7019	120.5185	26644.25	26021.3
792.8434	122.7693	26325.9	25698.2
792.9849	125.0197	26117.75	25493.95
793.1264	127.2696	25793.85	25162.75
793.2679	129.519	25646	25012.45
793.4094	131.7679	25388	24754.15
793.551	134.0163	25136.25	24498.05
793.6926	136.2642	24848.85	24207.5
793.8342	138.5117	24503.55	23851.3
793.9758	140.7587	24150.05	23502.05
794.1175	143.0052	23813.85	23163.05
794.2591	145.2512	23500.2	22851.95
794.4008	147.4967	23216.2	22563.6
794.5425	149.7417	22977.95	22326.1
794.6842	151.9863	22779.1	22123.9
794.826	154.2304	22705.55	22044.65
794.9677	156.4739	22503.5	21837.9
795.1095	158.717	22440.8	21778
795.2513	160.9596	22227	21559.2
795.3931	163.2017	21961.85	21294.8
795.535	165.4433	21668.85	20997.65
795.6768	167.6844	21352.6	20680.95
795.8187	169.925	21030.8	20355.6
795.9606	172.1651	20665.3	19983.35
796.1025	174.4047	20379.15	19696.8
796.2445	176.6439	20101.9	19418.2
796.3864	178.8825	19867.9	19180.45
796.5284	181.1206	19750.55	19061.3
796.6704	183.3582	19573.8	18879.1
796.8124	185.5954	19495.2	18801.45
796.9544	187.832	19392.25	18693
797.0965	190.0681	19347.1	18646.45
797.2386	192.3037	19350.9	18647.85
797.3806	194.5388	19290.7	18578.2
797.5228	196.7734	19306.4	18596.6
797.6649	199.0075	19401.35	18688
797.807	201.2411	19542.15	18826.75
797.9492	203.4742	19597.85	18882.75
798.0914	205.7068	19759.7	19044.25
798.2336	207.9389	19897.1	19181.4
798.3758	210.1704	20033.75	19312.4
798.518	212.4015	20143.25	19421.15
798.6603	214.632	20300.15	19581.65
798.8025	216.862	20421.25	19707.05
798.9448	219.0915	20515.85	19807.4
799.0871	221.3205	20632.25	19925.7
799.2294	223.549	20724.45	20022.9
799.3718	225.777	20879.7	20176.65
799.5141	228.0044	21020.1	20316.7
799.6565	230.2314	21221.8	20520.35
799.7989	232.4578	21416.6	20713.3
799.9413	234.6837	21596.1	20884.45
800.0837	236.909	21705.85	20992.95
800.2262	239.1339	21758.85	21026.3
800.3687	241.3582	21597.25	20875.7
800.5111	243.582	21456.2	20709.35
800.6536	245.8053	21316.55	20575.85
800.7961	248.0281	21174.65	20440.35
800.9387	250.2503	21103.25	20364.05
801.0812	252.472	21130.65	20388.15
801.2238	254.6932	21226.45	20481.35
801.3664	256.9139	21274.05	20523.5
801.509	259.134	21419.5	20670.25
801.6516	261.3536	21606.95	20860.2
801.7942	263.5727	21876.4	21123.3
801.9369	265.7912	22046.6	21296
802.0795	268.0092	22269.15	21517.3
802.2222	270.2267	22395.45	21646.1
802.3649	272.4436	22454.5	21702.7
802.5076	274.6601	22497.15	21737.3
802.6504	276.8759	22378.55	21623.35
802.7931	279.0913	22311.15	21552.3
802.9359	281.3061	22165.2	21408.7
803.0787	283.5204	22087	21326.7
803.2215	285.7341	22071.15	21306.35
803.3643	287.9473	22134.7	21358.5
803.5071	290.16	22196.4	21424.25
803.6499	292.3721	22335.05	21571.95
803.7928	294.5837	22580	21814.2
803.9357	296.7947	22817.1	22049.85
804.0786	299.0052	22984.4	22217.7
804.2215	301.2152	22963.7	22195.7
804.3644	303.4246	22745.75	21978.8
804.5074	305.6334	22347.9	21582.5
804.6503	307.8418	21885.8	21115.4
804.7933	310.0495	21471.15	20704.5
804.9363	312.2568	21020.4	20251.55
805.0793	314.4635	20615.4	19844.95
805.2223	316.6696	20339.4	19567.9
805.3653	318.8752	20118.75	19338.9
805.5084	321.0802	20067.2	19293.1
805.6514	323.2847	20081.85	19307.8
805.7945	325.4887	20110.15	19336.95
805.9376	327.692	20077.45	19303.15
806.0807	329.8949	20017.7	19239.4
806.2238	332.0972	19781.85	19004.35
806.367	334.2989	19572.2	18789.25
806.5101	336.5001	19317.95	18533.15
806.6533	338.7007	19092.8	18311.25
806.7965	340.9008	18933.45	18148.15
806.9397	343.1003	18793.15	18006.65
807.0829	345.2992	18653.7	17868.55
807.2261	347.4976	18556.05	17769.25
807.3693	349.6955	18491.9	17699.45
807.5126	351.8927	18475.35	17685.15
807.6559	354.0895	18355.25	17550.55
807.7991	356.2856	18393	17598.35
807.9424	358.4812	18292	17498.75
808.0857	360.6763	18297.4	17501.5
808.2291	362.8707	18284.75	17487.15
808.3724	365.0646	18303.5	17506.65
808.5158	367.258	18328.35	17532.05
808.6591	369.4508	18362.15	17561.8
808.8025	371.643	18454.45	17652.9
808.9459	373.8346	18501.8	17698.2
809.0893	376.0257	18535.75	17729.1
809.2327	378.2162	18539.7	17735.35
809.3762	380.4062	18495.75	17683.45
809.5196	382.5956	18373	17562.55
809.6631	384.7844	18264.3	17454.8
809.8066	386.9726	18116.4	17306.15
809.9501	389.1603	17996.6	17189.75
810.0936	391.3474	17940.35	17098.6
810.2371	393.5339	17897.35	17087.3
810.3806	395.7199	17817.9	17017.55
810.5241	397.9052	17845.95	17043.85
810.6677	400.09	17869.15	17068
810.8113	402.2743	18005.35	17202.4
810.9548	404.4579	18115.7	17315.25
811.0984	406.641	18318.65	17516.7
811.2421	408.8235	18456.9	17654.85
811.3857	411.0054	18653.15	17850.85
811.5293	413.1868	18880.25	18071.25
811.673	415.3675	19005	18198.35
811.8166	417.5477	19049.1	18240.45
811.9603	419.7273	19055.05	18244.15
812.104	421.9064	18915.15	18094.95
812.2477	424.0848	18817.7	18001.9
812.3914	426.2627	18640.95	17826.15
812.5351	428.4399	18405.85	17587.2
812.6788	430.6166	18068.7	17248.5
812.8226	432.7928	17683.5	16861.5
812.9663	434.9683	17350.45	16527.75
813.1101	437.1432	17095.1	16270.95
813.2539	439.3176	16912.15	16088.1
813.3977	441.4914	16763.15	15936.95
813.5415	443.6645	16728.5	15901.2
813.6853	445.8371	16627.6	15802.25
813.8291	448.0091	16593.9	15768.25
813.973	450.1806	16509.3	15684.4
814.1168	452.3514	16467	15638.05
814.2607	454.5216	16498.9	15662.9
814.4046	456.6913	16422.95	15592.95
814.5485	458.8603	16474	15646.95
814.6924	461.0288	16519.6	15692
814.8363	463.1967	16480.95	15649.5
814.9802	465.3639	16552.5	15722.55
815.1241	467.5306	16498.4	15669.1
815.2681	469.6967	16536.05	15706.65
815.412	471.8622	16584.15	15759
815.556	474.0271	16638.85	15812.7
815.7	476.1914	16642.45	15809.85
815.844	478.3551	16645.1	15811.05
815.988	480.5182	16662.55	15828.25
816.132	482.6807	16744.25	15913.45
816.276	484.8426	16849.85	16016.7
816.4201	487.0039	17164.45	16332.7
816.5641	489.1647	17571.7	16738.55
816.7082	491.3248	17953.75	17120.2
816.8522	493.4843	18030.65	17196.05
816.9963	495.6432	18014.6	17178.8
817.1404	497.8015	17873.5	17035.65
817.2845	499.9592	17747.9	16912.55
817.4286	502.1163	17563.3	16723.55
817.5727	504.2728	17272.6	16433.3
817.7168	506.4287	16967.3	16129.7
817.861	508.5839	16620.95	15781.2
818.0051	510.7386	16370.65	15534.8
818.1493	512.8927	16239.2	15394.4
818.2935	515.0461	16213.7	15373.95
818.4377	517.199	16234.85	15398.55
818.5818	519.3512	16290.95	15452.65
818.726	521.5029	16544.5	15697.45
818.8703	523.6539	16715.9	15876.45
819.0145	525.8043	16837.15	15995.55
819.1587	527.9541	16787.65	15943
819.303	530.1033	16628.3	15784.3
819.4472	532.2519	16504.6	15662.3
819.5915	534.3999	16455.55	15611
819.7357	536.5472	16531.5	15686.35
819.88	538.694	16790.8	15947.75
820.0243	540.8401	17119.1	16276.05
820.1686	542.9856	17365.15	16520.15
820.3129	545.1305	17426.35	16584.55
820.4572	547.2748	17313.1	16468.9
820.6016	549.4185	17118	16270.75
820.7459	551.5615	16870.35	16027.25
820.8902	553.704	16834.6	15987.85
821.0346	555.8458	16825.65	15979.2
821.1789	557.987	16978.25	16129.9
821.3233	560.1276	17134.15	16285
821.4677	562.2675	17464.95	16618.75
821.6121	564.4069	17839.75	16993.8
821.7565	566.5456	18182.5	17334.4
821.9009	568.6837	18327.7	17480.55
822.0453	570.8212	17953.8	17105.65
822.1897	572.958	17317.55	16467.05
822.3342	575.0942	16720.2	15874
822.4786	577.2299	16327.35	15479.15
822.6231	579.3648	16097.8	15250.75
822.7675	581.4992	15977.95	15128.15
822.912	583.6329	16118.85	15267.75
823.0565	585.766	16310.4	15464.15
823.201	587.8985	16438.35	15590.05
823.3454	590.0304	16439.15	15567.85
823.4899	592.1616	16380.6	15526.4
823.6345	594.2922	16231.05	15380.65
823.779	596.4222	16036.4	15186.75
823.9235	598.5515	15832.95	14979.9
824.068	600.6802	15662.05	14809.6
824.2126	602.8083	15455.8	14605.05
824.3571	604.9358	15427.95	14574.25
824.5017	607.0626	15390.45	14538.65
824.6462	609.1888	15452.8	14599.45
824.7908	611.3144	15572	14719.25
824.9354	613.4393	15644.15	14790.55
825.08	615.5636	15684.55	14828.15
825.2246	617.6873	15658.5	14804.85
825.3692	619.8103	15609.75	14752.25
825.5138	621.9327	15419.5	14560.85
825.6584	624.0544	15218.15	14364.9
825.803	626.1756	15055.2	14201.25
825.9477	628.2961	14937.75	14081.5
826.0923	630.4159	14835.3	13977.2
826.237	632.5351	14780.2	13923.65
826.3816	634.6537	14737.6	13881.3
826.5263	636.7716	14708.25	13849.4
826.6709	638.8889	14732.9	13875
826.8156	641.0056	14765.25	13906.85
826.9603	643.1216	14732.55	13872.9
827.105	645.237	14704	13842.6
827.2497	647.3518	14579.95	13720.55
827.3944	649.4659	14571.7	13713.1
827.5391	651.5793	14481.4	13623.1
827.6838	653.6922	14415.5	13555.5
827.8285	655.8043	14407.2	13547.85
827.9733	657.9159	14415.9	13556.4
828.118	660.0268	14342.9	13479.35
828.2627	662.137	14320.8	13464.3
828.4075	664.2466	14277.85	13414.05
828.5522	666.3556	14309.65	13451.5
828.697	668.4639	14251.05	13384.2
828.8418	670.5716	14210.55	13349.05
828.9865	672.6786	14221.3	13359.55
829.1313	674.785	14135.35	13274.5
829.2761	676.8907	14122.3	13260
829.4209	678.9958	14141.7	13280.4
829.5657	681.1002	14060.25	13195.1
829.7105	683.204	14056.65	13189.9
829.8553	685.3072	14001	13137.95
830.0001	687.4097	13948.3	13084.8
830.1449	689.5115	13955	13091.65
830.2898	691.6127	13932.85	13069.05
830.4346	693.7132	13909.95	13046.8
830.5794	695.8131	13882	13006.15
830.7243	697.9123	13893.35	13028.55
830.8691	700.0109	13872	13006.85
831.014	702.1089	13882	13016.7
831.1588	704.2061	13919.7	13053.1
831.3037	706.3028	13958.5	13091.4
831.4486	708.3987	13995.55	13128.5
831.5935	710.4941	13999.2	13133.15
831.7383	712.5887	14049.85	13182
831.8832	714.6827	14188.7	13319.45
832.0281	716.7761	14327.2	13459.4
832.173	718.8688	14553.55	13687
832.3179	720.9608	14692.4	13822.15
832.4628	723.0522	14814.55	13940.6
832.6077	725.1429	14829.95	13961.2
832.7527	727.233	14822.55	13952.2
832.8976	729.3224	14785.9	13917.9
833.0425	731.4112	14686.8	13818.45
833.1874	733.4993	14489.2	13617.4
833.3324	735.5867	14254.9	13385.7
833.4773	737.6735	14053.3	13184.45
833.6222	739.7596	13880.5	13009.2
833.7672	741.845	13738.9	12868.55
833.9122	743.9298	13618.35	12745.8
834.0571	746.014	13587.55	12719.4
834.2021	748.0974	13541.2	12668.35
834.347	750.1802	13510.65	12641.85
834.492	752.2624	13531.4	12661.45
834.637	754.3439	13573.6	12702.9
834.782	756.4247	13684.1	12805.05
834.9269	758.5048	13802.5	12932.85
835.0719	760.5843	14062.65	13191.35
835.2169	762.6631	14419.6	13547.6
835.3619	764.7413	14955	14083.3
835.5069	766.8188	15637.5	14764.5
835.6519	768.8956	16207.05	15333.85
835.7969	770.9718	16589.5	15717.65
835.9419	773.0473	16514.25	15643.35
836.0869	775.1221	16290.4	15420.35
836.232	777.1962	15991.65	15117.85
836.377	779.2697	15819.7	14947.05
836.522	781.3426	15834.6	14954.3
836.667	783.4147	15945.3	15071.15
836.8121	785.4862	16065.65	15193.5
836.9571	787.557	15956.15	15083.95
837.1021	789.6271	15488.55	14615.45
837.2472	791.6966	14871.2	13998.75
837.3922	793.7654	14262.55	13388.25
837.5373	795.8335	13810.35	12935.8
837.6823	797.901	13512.95	12642.05
837.8274	799.9678	13344	12470.35
837.9724	802.0339	13216	12346.05
838.1175	804.0993	13197.85	12317.25
838.2626	806.1641	13112.05	12238
838.4076	808.2282	13032.3	12161.2
838.5527	810.2916	12959.2	12081.75
838.6978	812.3544	12858.25	11987.4
838.8428	814.4164	12796.45	11922.6
838.9879	816.4778	12811.3	11936.3
839.133	818.5385	12829.95	11957.4
839.2781	820.5986	12942.95	12070.75
839.4232	822.658	13149.25	12276.3
839.5682	824.7166	13432.3	12559.9
839.7133	826.7747	13887.9	13015.05
839.8584	828.832	14337.55	13463.05
840.0035	830.8886	14682.25	13806.8
840.1486	832.9446	14848.3	13972.7
840.2937	834.9999	14750.35	13878.95
840.4388	837.0545	14483.45	13603.3
840.5839	839.1085	14223.1	13348.15
840.729	841.1618	13925.2	13046.5
840.8741	843.2143	13684.6	12808
841.0192	845.2662	13484.85	12611.1
841.1643	847.3175	13351.25	12476.8
841.3095	849.368	13217.65	12342.65
841.4546	851.4179	13108.95	12234.9
841.5997	853.467	12990.2	12116.5
841.7448	855.5155	12897.95	12023.5
841.8899	857.5633	12791.35	11917.7
842.0351	859.6105	12702.85	11828.75
842.1802	861.6569	12608.95	11734.15
842.3253	863.7027	12516.1	11640.3
842.4704	865.7478	12466.95	11590.65
842.6156	867.7922	12428.85	11551.75
842.7607	869.8359	12405.25	11529.15
842.9058	871.8789	12423	11545.25
843.0509	873.9212	12553.5	11643.1
843.1961	875.9629	12595.8	11719.65
843.3412	878.0039	12725.9	11849.2
843.4863	880.0441	12812.4	11938.5
843.6315	882.0837	12844.5	11968.8
843.7766	884.1226	12844.9	11966.1
843.9218	886.1609	12847.95	11972.85
844.0669	888.1984	12903.1	12028.65
844.212	890.2352	12970.85	12094.9
844.3572	892.2714	13007.8	12127
844.5023	894.3069	12947.15	12067.85
844.6475	896.3416	12802.8	11922.15
844.7926	898.3757	12651.85	11773.15
844.9377	900.4091	12577.3	11698.75
845.0829	902.4418	12538.85	11655.15
845.228	904.4739	12543.05	11664.35
845.3732	906.5052	12612.95	11735.35
845.5183	908.5358	12538.5	11661.75
845.6635	910.5658	12380.65	11502.3
845.8086	912.595	12202	11323.9
845.9538	914.6236	11981.9	11104.1
846.0989	916.6515	11838.85	10962.75
846.2441	918.6786	11776.35	10895.85
846.3892	920.7051	11733.2	10852.25
846.5344	922.7309	11806.55	10929.75
846.6795	924.756	11798.7	10921
846.8246	926.7804	11889.3	11007
846.9698	928.8041	11832.7	10951.55
847.1149	930.8272	11897.75	11015.5
847.2601	932.8495	11842.2	10961.85
847.4052	934.8711	11800.05	10919.35
847.5504	936.892	11722.45	10841.1
847.6955	938.9123	11687.9	10806.95
847.8407	940.9318	11673.45	10797.05
847.9858	942.9506	11633.3	10754.5
848.131	944.9688	11563.85	10683.75
848.2761	946.9862	11483.7	10604.55
848.4213	949.003	11336.6	10456.9
848.5664	951.019	11255.35	10375.65
848.7115	953.0344	11184.95	10306.1
848.8567	955.0491	11148.25	10268.7
849.0018	957.063	11202.3	10322.8
849.147	959.0763	11266.6	10387.9
849.2921	961.0888	11253.85	10371.75
849.4373	963.1007	11338.4	10457.2
849.5824	965.1119	11353.9	10473
849.7275	967.1223	11359.3	10476.5
849.8727	969.1321	11327.65	10448.45
850.0178	971.1412	11325.6	10445.75
850.1629	973.1495	11305.3	10424.45
850.3081	975.1572	11341.95	10430.4
850.4532	977.1641	11339.1	10456.45
850.5983	979.1704	11296.25	10415
850.7435	981.1759	11249.75	10365.85
850.8886	983.1808	11245.85	10362.7
851.0337	985.1849	11268.55	10377.55
851.1788	987.1884	11350.65	10468.45
851.324	989.1911	11439.5	10555.6
851.4691	991.1932	11544.6	10661.35
851.6142	993.1945	11567.7	10685.4
851.7593	995.1951	11506.3	10624.7
851.9045	997.1951	11477.3	10589.75
852.0496	999.1943	11438.9	10558.85
852.1947	1001.1928	11413.45	10532.85
852.3398	1003.1906	11412.05	10530.1
852.4849	1005.1877	11497.2	10615.65
852.63	1007.1841	11556.1	10672.85
852.7751	1009.1798	11581.65	10704.05
852.9202	1011.1748	11472.5	10588.65
853.0653	1013.1691	11321.05	10438.25
853.2104	1015.1627	11111	10230.1
853.3555	1017.1556	10891.35	10010.5
853.5006	1019.1477	10754.35	9871.85
853.6457	1021.1392	10626.9	9746.9
853.7908	1023.1299	10588.75	9706.7
853.9359	1025.12	10601	9717.4
854.081	1027.1093	10633.25	9752.1
854.2261	1029.0979	10735.9	9855.95
854.3712	1031.0859	10811.75	9927.45
854.5163	1033.0731	10812	9928
854.6613	1035.0596	10768.25	9886.6
854.8064	1037.0454	10640.45	9759.85
854.9515	1039.0304	10529.85	9649
855.0965	1041.0148	10412.7	9529.9
855.2416	1042.9985	10308.05	9424.25
855.3867	1044.9814	10227.5	9349.3
855.5317	1046.9636	10175.45	9291.15
855.6768	1048.9452	10150.85	9270.8
855.8219	1050.926	10164.35	9283.75
855.9669	1052.9061	10177.75	9295.65
856.112	1054.8855	10206.4	9325.35
856.257	1056.8642	10225.65	9344.35
856.4021	1058.8421	10270.1	9384.8
856.5471	1060.8194	10300.3	9418.55
856.6921	1062.7959	10326.5	9444.1
856.8372	1064.7717	10360.45	9478.25
856.9822	1066.7469	10437.65	9552.15
857.1272	1068.7213	10473.15	9589.35
857.2723	1070.695	10542.2	9660.2
857.4173	1072.6679	10552.55	9670.35
857.5623	1074.6402	10583.1	9701.8
857.7073	1076.6117	10529.95	9644.1
857.8523	1078.5826	10436.45	9554.6
857.9973	1080.5527	10336	9451.8
858.1423	1082.5221	10259	9374.85
858.2873	1084.4908	10250.75	9367.8
858.4323	1086.4587	10261.55	9380.35
858.5773	1088.426	10349	9465.6
858.7223	1090.3925	10340.6	9450.5
858.8673	1092.3584	10368.15	9487.55
859.0123	1094.3235	10346.65	9465.3
859.1573	1096.2879	10370.4	9485.85
859.3022	1098.2515	10458.1	9576.3
859.4472	1100.2145	10599.6	9719.25
859.5922	1102.1767	10759.6	9872.9
859.7371	1104.1382	10978.45	10093.9
859.8821	1106.099	11224.85	10339.05
860.027	1108.0591	11415.1	10533.35
860.172	1110.0185	11581.15	10699
860.3169	1111.9771	11674.75	10793.3
860.4619	1113.9351	11567.75	10685.7
860.6068	1115.8923	11427.55	10544.8
860.7517	1117.8488	11240.65	10354.1
860.8967	1119.8045	11037.95	10154.8
861.0416	1121.7596	10864.9	9982
861.1865	1123.7139	10742.05	9860.3
861.3314	1125.6675	10677.9	9794.35
861.4763	1127.6204	10711.5	9831.55
861.6212	1129.5726	10670.85	9783.45
861.7661	1131.524	10595.8	9712.95
861.911	1133.4748	10470.35	9585.65
862.0559	1135.4248	10294.15	9409.15
862.2008	1137.3741	10165.65	9281.5
862.3457	1139.3226	10055.3	9172.95
862.4905	1141.2705	9987.5	9104.05
862.6354	1143.2176	9901.1	9012.35
862.7803	1145.164	9848.3	8961.95
862.9251	1147.1097	9778.15	8894.15
863.07	1149.0546	9695.15	8812.55
863.2148	1150.9989	9605.35	8722.5
863.3597	1152.9424	9497.1	8614.4
863.5045	1154.8852	9356.75	8472.3
863.6493	1156.8272	9295.7	8411.6
863.7942	1158.7686	9308.55	8420.1
863.939	1160.7092	9307.85	8423.95
864.0838	1162.6491	9326.45	8440.05
864.2286	1164.5883	9415.55	8532.85
864.3734	1166.5267	9517.75	8634.6
864.5182	1168.4644	9682.3	8798.75
864.663	1170.4014	9874.8	8987.3
864.8078	1172.3377	10115.45	9231.35
864.9526	1174.2732	10407.15	9526.15
865.0974	1176.2081	10772.35	9887.9
865.2421	1178.1421	11217.55	10328.65
865.3869	1180.0755	11722.05	10837.8
865.5317	1182.0082	12071.3	11185.55
865.6764	1183.9401	12205.05	11319.9
865.8212	1185.8713	12110.1	11226.4
