Software Version:	3.9.2.0
Unit SN:	10000200
Spectrometer SN:	6960
Date:	3/14/2024 2:14:53 PM
Data Line Index:	25
Spectral Points:	2048
Integration time (ms):	125
Averages:	20
Delay (ms):	30000
Sequence Number:	1
Processing:	dark subtract
Laser Power (mW):	300
Laser Current (mA):	826
Laser Diode Temp (C):	25
Laser Case Temp (C):	29.1
System Temp (C):	29.1
Spectrometer Temp (C):	26.9
CCD Temp (C):	0.012
Secondary Temp (C):	20.011
Heatsink Temp (C):	24.926
CCDPCB Temp (C):	38.452
SecondaryPCB Temp (C):	36.018

Wavelength	RamanShift	Raw Counts	Dark Subtracted
787.061	30.1047	457.85	48.55
787.2016	32.3739	457.5	49.25
787.3422	34.6426	463.4	54.05
787.4828	36.9109	468.4	58.8
787.6235	39.1787	478.8	66.2
787.7642	41.4461	484.5	64.7
787.9049	43.7131	494.55	70.85
788.0456	45.9796	501.9	74.8
788.1863	48.2456	509.1	77.3
788.3271	50.5112	525	90.45
788.4679	52.7764	533.95	96.5
788.6087	55.0411	542.45	103.5
788.7496	57.3054	554.9	108.85
788.8904	59.5692	566.9	118
789.0313	61.8326	577.95	125.3
789.1722	64.0955	587.8	130.2
789.3132	66.3579	608.65	146.25
789.4541	68.6199	625	159.3
789.5951	70.8815	656.25	188.1
789.7361	73.1426	730.8	259.65
789.8771	75.4032	920.35	443.1
790.0181	77.6634	1381.4	899.15
790.1592	79.9231	2470.85	1983.15
790.3003	82.1824	4880.9	4380.45
790.4414	84.4412	9369.55	8855.65
790.5825	86.6995	15650.15	15116.8
790.7237	88.9574	22044.9	21493.25
790.8648	91.2148	26650.15	26085.55
791.006	93.4717	28871.15	28295.8
791.1472	95.7282	29476.55	28897.55
791.2885	97.9842	29511.85	28929.35
791.4297	100.2398	29077.55	28491.65
791.571	102.4949	28512.5	27926.85
791.7123	104.7495	27739.9	27146.95
791.8536	107.0036	26980.25	26388.1
791.9949	109.2573	26154	25560.95
792.1363	111.5105	25317.85	24723.65
792.2777	113.7632	24520.65	23926.85
792.4191	116.0154	23810.05	23203.4
792.5605	118.2672	23263.7	22666.75
792.7019	120.5185	22690.9	22090.45
792.8434	122.7693	22275.7	21673.35
792.9849	125.0197	21958.8	21350.5
793.1264	127.2696	21648.95	21040.7
793.2679	129.519	21523.25	20913.85
793.4094	131.7679	21306.4	20691.05
793.551	134.0163	21203.2	20585.65
793.6926	136.2642	21063.7	20441.45
793.8342	138.5117	20884.95	20253.25
793.9758	140.7587	20696.4	20071.15
794.1175	143.0052	20537.25	19910.5
794.2591	145.2512	20327.7	19700.45
794.4008	147.4967	20135.75	19506.1
794.5425	149.7417	19977.65	19345.15
794.6842	151.9863	19855.4	19222.65
794.826	154.2304	19797.95	19157.95
794.9677	156.4739	19636.7	18992.05
795.1095	158.717	19543.45	18900.9
795.2513	160.9596	19403.6	18758
795.3931	163.2017	19152.35	18504.7
795.535	165.4433	18848.15	18198.6
795.6768	167.6844	18491	17839.15
795.8187	169.925	18137.7	17482.85
795.9606	172.1651	17709	17048.8
796.1025	174.4047	17360	16696.25
796.2445	176.6439	17117.9	16451.6
796.3864	178.8825	16809.1	16141.9
796.5284	181.1206	16618.65	15946
796.6704	183.3582	16426.35	15751.55
796.8124	185.5954	16297.6	15621.45
796.9544	187.832	16191.8	15508.35
797.0965	190.0681	16133.65	15452.35
797.2386	192.3037	16122	15437.9
797.3806	194.5388	16092.25	15405.45
797.5228	196.7734	16115.65	15428.35
797.6649	199.0075	16161.05	15469.6
797.807	201.2411	16257.95	15559.4
797.9492	203.4742	16335.85	15641.25
798.0914	205.7068	16449.1	15751.25
798.2336	207.9389	16569.1	15871.75
798.3758	210.1704	16726.6	16026.25
798.518	212.4015	16801.25	16097.7
798.6603	214.632	16973.55	16272.65
798.8025	216.862	17171.55	16476.65
798.9448	219.0915	17355.6	16671.25
799.0871	221.3205	17611.1	16926.7
799.2294	223.549	17921.05	17240.9
799.3718	225.777	18287.65	17607.35
799.5141	228.0044	18776.45	18089.15
799.6565	230.2314	19301.2	18620.15
799.7989	232.4578	19837.85	19153.65
799.9413	234.6837	20285.85	19596.8
800.0837	236.909	20527.2	19834.45
800.2262	239.1339	20499.6	19782.55
800.3687	241.3582	20163.5	19459.8
800.5111	243.582	19763.9	19035.05
800.6536	245.8053	19298.45	18582
800.7961	248.0281	18878.85	18165.25
800.9387	250.2503	18477.6	17756.3
801.0812	252.472	18247.45	17521.35
801.2238	254.6932	18123.95	17396.8
801.3664	256.9139	17949.65	17221.15
801.509	259.134	17837.85	17103.85
801.6516	261.3536	17710.55	16979.9
801.7942	263.5727	17665.5	16934.6
801.9369	265.7912	17458.3	16728.8
802.0795	268.0092	17415.9	16684.45
802.2222	270.2267	17314.15	16580.5
802.3649	272.4436	17227.65	16494.65
802.5076	274.6601	17183	16444.5
802.6504	276.8759	17078.55	16346.8
802.7931	279.0913	17094.95	16357
802.9359	281.3061	17125.8	16387.4
803.0787	283.5204	17244.8	16500.85
803.2215	285.7341	17362.9	16616.75
803.3643	287.9473	17565.85	16806.65
803.5071	290.16	17843.5	17090
803.6499	292.3721	18198.5	17450.45
803.7928	294.5837	18682.7	17934.9
803.9357	296.7947	19116.35	18371.85
804.0786	299.0052	19344.4	18597.8
804.2215	301.2152	19145.9	18394.95
804.3644	303.4246	18722.3	17975.85
804.5074	305.6334	18082.15	17335.7
804.6503	307.8418	17488.55	16739.65
804.7933	310.0495	17021.4	16271.15
804.9363	312.2568	16719.6	15970.5
805.0793	314.4635	16505.85	15754.45
805.2223	316.6696	16404.1	15649.6
805.3653	318.8752	16408.1	15647.75
805.5084	321.0802	16469.25	15715.35
805.6514	323.2847	16599.65	15845.6
805.7945	325.4887	16664.3	15906.15
805.9376	327.692	16560.35	15803.2
806.0807	329.8949	16467.9	15707.95
806.2238	332.0972	16150.5	15389.15
806.367	334.2989	15842.65	15079.2
806.5101	336.5001	15550.3	14785.55
806.6533	338.7007	15300.7	14537.4
806.7965	340.9008	15167.1	14399.35
806.9397	343.1003	15030.35	14260.8
807.0829	345.2992	14944.8	14176.85
807.2261	347.4976	14924.2	14152.45
807.3693	349.6955	14928.4	14156.9
807.5126	351.8927	14961.7	14188.25
807.6559	354.0895	14974.45	14190.55
807.7991	356.2856	15011.5	14233.25
807.9424	358.4812	14995	14218.5
808.0857	360.6763	15008.95	14232.7
808.2291	362.8707	14970.95	14195.1
808.3724	365.0646	15004.75	14225.85
808.5158	367.258	14961.05	14176.95
808.6591	369.4508	14950.35	14167.8
808.8025	371.643	14997.2	14211.35
808.9459	373.8346	14966.35	14178.9
809.0893	376.0257	14910.8	14119.5
809.2327	378.2162	14811.85	14019.95
809.3762	380.4062	14698.45	13901.5
809.5196	382.5956	14539.6	13745.6
809.6631	384.7844	14401.4	13610.3
809.8066	386.9726	14308.15	13510.1
809.9501	389.1603	14224.4	13430.2
810.0936	391.3474	14176.85	13347.95
810.2371	393.5339	14151.25	13360
810.3806	395.7199	14087.2	13299.2
810.5241	397.9052	14109.5	13323.5
810.6677	400.09	14070.7	13283.2
810.8113	402.2743	14104.3	13318.7
810.9548	404.4579	14134.6	13350.9
811.0984	406.641	14307.4	13520.65
811.2421	408.8235	14523.15	13737.25
811.3857	411.0054	14880.75	14094.05
811.5293	413.1868	15377.75	14587.6
811.673	415.3675	15819.05	15031
811.8166	417.5477	16056.05	15263.5
811.9603	419.7273	16121.1	15328.35
812.104	421.9064	16001.35	15200.65
812.2477	424.0848	15833.75	15033.75
812.3914	426.2627	15581.8	14781.9
812.5351	428.4399	15233.15	14431.95
812.6788	430.6166	14828.1	14020.75
812.8226	432.7928	14453.85	13646.5
812.9663	434.9683	14086.8	13279.75
813.1101	437.1432	13846.1	13039.3
813.2539	439.3176	13671.7	12865.9
813.3977	441.4914	13557.5	12748.2
813.5415	443.6645	13497.5	12681.75
813.6853	445.8371	13431.75	12616.95
813.8291	448.0091	13338.95	12528.7
813.973	450.1806	13275.7	12468
814.1168	452.3514	13189.35	12374.4
814.2607	454.5216	13204.6	12384.65
814.4046	456.6913	13100.15	12286.5
814.5485	458.8603	13077.5	12265.05
814.6924	461.0288	13162.7	12349.25
814.8363	463.1967	13182.15	12367.5
814.9802	465.3639	13338.2	12521.95
815.1241	467.5306	13480.55	12663.45
815.2681	469.6967	13635.15	12817.95
815.412	471.8622	13831.2	13016.8
815.556	474.0271	14018.1	13202.7
815.7	476.1914	14108.85	13290.75
815.844	478.3551	14059.85	13242.4
815.988	480.5182	13990.5	13171.55
816.132	482.6807	13943.05	13121.9
816.276	484.8426	13962.2	13143.9
816.4201	487.0039	14219.6	13401.4
816.5641	489.1647	14632.1	13810.6
816.7082	491.3248	15106.2	14287.2
816.8522	493.4843	15339.6	14519.6
816.9963	495.6432	15349.8	14531.5
817.1404	497.8015	15290.45	14468.9
817.2845	499.9592	15288.45	14466.35
817.4286	502.1163	15253.45	14430.8
817.5727	504.2728	15065.9	14241.1
817.7168	506.4287	14753.6	13928.7
817.861	508.5839	14250.85	13429.7
818.0051	510.7386	13823.4	13002
818.1493	512.8927	13582.2	12753.65
818.2935	515.0461	13411.05	12587
818.4377	517.199	13277	12451.05
818.5818	519.3512	13194.2	12369.1
818.726	521.5029	13182.05	12350.5
818.8703	523.6539	13177.15	12346.55
819.0145	525.8043	13192.15	12364.45
819.1587	527.9541	13244.35	12414.65
819.303	530.1033	13272.15	12441.55
819.4472	532.2519	13325.35	12496.35
819.5915	534.3999	13488.5	12657.2
819.7357	536.5472	13865.4	13034.5
819.88	538.694	14403.15	13571.6
820.0243	540.8401	15090.95	14257.95
820.1686	542.9856	15705.75	14872.75
820.3129	545.1305	15903.05	15071.1
820.4572	547.2748	15731	14899
820.6016	549.4185	15287.75	14454.6
820.7459	551.5615	14844.95	14011.95
820.8902	553.704	14617.35	13781.9
821.0346	555.8458	14490.15	13655.15
821.1789	557.987	14411.45	13579.8
821.3233	560.1276	14253.95	13415.3
821.4677	562.2675	14126.6	13291.85
821.6121	564.4069	13968	13136.9
821.7565	566.5456	13837.15	13005.15
821.9009	568.6837	13674.85	12839.45
822.0453	570.8212	13423.3	12591.05
822.1897	572.958	13165.55	12329.8
822.3342	575.0942	13009.8	12178.55
822.4786	577.2299	12876.4	12041.4
822.6231	579.3648	12892.95	12058.1
822.7675	581.4992	13031.65	12195.65
822.912	583.6329	13246.9	12409.5
823.0565	585.766	13489.5	12655.85
823.201	587.8985	13644.25	12808.25
823.3454	590.0304	13653.6	12808.25
823.4899	592.1616	13571.55	12734.4
823.6345	594.2922	13469.4	12630.8
823.779	596.4222	13325.3	12486.8
823.9235	598.5515	13133.95	12294.4
824.068	600.6802	12942.85	12104.4
824.2126	602.8083	12746.25	11906.55
824.3571	604.9358	12645.25	11805
824.5017	607.0626	12545.35	11704.25
824.6462	609.1888	12431.45	11589.2
824.7908	611.3144	12294.1	11452.7
824.9354	613.4393	12096.45	11257.25
825.08	615.5636	11949.9	11107.3
825.2246	617.6873	11814.8	10973.1
825.3692	619.8103	11760.05	10918.95
825.5138	621.9327	11678.55	10834
825.6584	624.0544	11656.65	10815.75
825.803	626.1756	11646.1	10802
825.9477	628.2961	11603.15	10759.2
826.0923	630.4159	11530.75	10690.6
826.237	632.5351	11457	10613.55
826.3816	634.6537	11434.8	10592.65
826.5263	636.7716	11402.1	10553.9
826.6709	638.8889	11370.95	10528.85
826.8156	641.0056	11382.1	10534.5
826.9603	643.1216	11360.5	10512.95
827.105	645.237	11394.2	10548.05
827.2497	647.3518	11384.1	10534.65
827.3944	649.4659	11421.95	10573.8
827.5391	651.5793	11427.2	10578.75
827.6838	653.6922	11399.9	10555.25
827.8285	655.8043	11337.7	10489.55
827.9733	657.9159	11330.3	10482.5
828.118	660.0268	11231.75	10382.05
828.2627	662.137	11151.5	10303
828.4075	664.2466	11096.7	10245.25
828.5522	666.3556	11054.25	10207.75
828.697	668.4639	11058.05	10204.35
828.8418	670.5716	11113.95	10262.95
828.9865	672.6786	11162.2	10308.9
829.1313	674.785	11259.9	10405.3
829.2761	676.8907	11356.35	10504.2
829.4209	678.9958	11431.4	10582.25
829.5657	681.1002	11435.65	10581.7
829.7105	683.204	11374.8	10520.65
829.8553	685.3072	11281.15	10427.5
830.0001	687.4097	11197.2	10345.5
830.1449	689.5115	11140.1	10286.6
830.2898	691.6127	11055.85	10201.9
830.4346	693.7132	10936.65	10082.9
830.5794	695.8131	10886.8	10011.7
830.7243	697.9123	10793.2	9940.5
830.8691	700.0109	10738.45	9884.4
831.014	702.1089	10715.2	9862.95
831.1588	704.2061	10710.65	9855.65
831.3037	706.3028	10721.65	9867.7
831.4486	708.3987	10766.9	9912.05
831.5935	710.4941	10836	9982.1
831.7383	712.5887	11038.05	10183.6
831.8832	714.6827	11366.4	10506.7
832.0281	716.7761	11779.85	10921.75
832.173	718.8688	12210.85	11354.3
832.3179	720.9608	12445.75	11586.65
832.4628	723.0522	12463.8	11603.1
832.6077	725.1429	12170.7	11314.6
832.7527	727.233	11758.6	10901
832.8976	729.3224	11375.7	10518.1
833.0425	731.4112	11014.65	10155.05
833.1874	733.4993	10789.85	9929.8
833.3324	735.5867	10605.55	9746.45
833.4773	737.6735	10502.4	9641.15
833.6222	739.7596	10453.45	9590.6
833.7672	741.845	10422.9	9563.9
833.9122	743.9298	10401.7	9541.05
834.0571	746.014	10424.4	9566.25
834.2021	748.0974	10443	9580.45
834.347	750.1802	10421.45	9561.8
834.492	752.2624	10401.5	9542.85
834.637	754.3439	10394.5	9534.55
834.782	756.4247	10462.2	9593.55
834.9269	758.5048	10538.65	9678.1
835.0719	760.5843	10728.4	9868.8
835.2169	762.6631	10977.25	10118
835.3619	764.7413	11405.8	10545.9
835.5069	766.8188	11961.25	11097.55
835.6519	768.8956	12478.15	11614.25
835.7969	770.9718	12773.15	11913.9
835.9419	773.0473	12676.15	11819.5
836.0869	775.1221	12307.55	11447.45
836.232	777.1962	11902.9	11043.05
836.377	779.2697	11726.05	10862.3
836.522	781.3426	11770.55	10896.5
836.667	783.4147	12064.5	11201.85
836.8121	785.4862	12421	11559.85
836.9571	787.557	12460.85	11599.8
837.1021	789.6271	12105.85	11244.25
837.2472	791.6966	11525.65	10662.1
837.3922	793.7654	10967.3	10103.4
837.5373	795.8335	10637.05	9773.55
837.6823	797.901	10382.5	9521.05
837.8274	799.9678	10361.45	9499.4
837.9724	802.0339	10370.95	9506.8
838.1175	804.0993	10418.3	9543.5
838.2626	806.1641	10419.75	9557.05
838.4076	808.2282	10309.05	9449.4
838.5527	810.2916	10233.85	9367.9
838.6978	812.3544	10110.3	9247.8
838.8428	814.4164	10004.75	9142.7
838.9879	816.4778	10007.1	9141.9
839.133	818.5385	9958.4	9094.55
839.2781	820.5986	10000.45	9135.6
839.4232	822.658	10017.45	9149.1
839.5682	824.7166	10069.95	9208.8
839.7133	826.7747	10169.95	9308.05
839.8584	828.832	10283.1	9419.25
840.0035	830.8886	10348.6	9482.25
840.1486	832.9446	10497.25	9629.9
840.2937	834.9999	10598.9	9736
840.4388	837.0545	10713.75	9845.3
840.5839	839.1085	10774.8	9906.45
840.729	841.1618	10808.25	9938.45
840.8741	843.2143	10783.6	9918.9
841.0192	845.2662	10717.1	9852.5
841.1643	847.3175	10655.2	9791.05
841.3095	849.368	10530.25	9664.3
841.4546	851.4179	10391.95	9525.95
841.5997	853.467	10234.55	9367.5
841.7448	855.5155	10088.4	9223.35
841.8899	857.5633	9985.9	9120.1
842.0351	859.6105	9837.25	8971.2
842.1802	861.6569	9768.7	8903.85
842.3253	863.7027	9700.8	8834.7
842.4704	865.7478	9679.3	8810.45
842.6156	867.7922	9671.55	8805.2
842.7607	869.8359	9716.05	8846.85
842.9058	871.8789	9837.6	8972.85
843.0509	873.9212	10060.7	9159.45
843.1961	875.9629	10198.9	9330.7
843.3412	878.0039	10403.1	9534.1
843.4863	880.0441	10512.5	9647.5
843.6315	882.0837	10479.6	9609.75
843.7766	884.1226	10344.6	9474.05
843.9218	886.1609	10166	9300.1
844.0669	888.1984	10008	9141.5
844.212	890.2352	9924.65	9057.95
844.3572	892.2714	9842.05	8970.5
844.5023	894.3069	9820.25	8950.8
844.6475	896.3416	9752.4	8882.9
844.7926	898.3757	9726.3	8855.7
844.9377	900.4091	9712.15	8841.1
845.0829	902.4418	9734.65	8861.25
845.228	904.4739	9722.1	8851.3
845.3732	906.5052	9669.4	8799.85
845.5183	908.5358	9573.25	8705.5
845.6635	910.5658	9407.1	8535.85
845.8086	912.595	9265.05	8395.4
845.9538	914.6236	9129.45	8258.45
846.0989	916.6515	9065.75	8197.9
846.2441	918.6786	9055.05	8182.7
846.3892	920.7051	9121.8	8247.8
846.5344	922.7309	9247.35	8378.6
846.6795	924.756	9319.2	8448.6
846.8246	926.7804	9401.7	8529.5
846.9698	928.8041	9389.25	8517.2
847.1149	930.8272	9365.8	8496.75
847.2601	932.8495	9292.7	8422.35
847.4052	934.8711	9232.55	8361.2
847.5504	936.892	9060.25	8189.95
847.6955	938.9123	8891.85	8019.8
847.8407	940.9318	8704.75	7832.65
847.9858	942.9506	8583.4	7712.95
848.131	944.9688	8483.3	7612.6
848.2761	946.9862	8445.35	7573.25
848.4213	949.003	8392.5	7520.8
848.5664	951.019	8389.45	7516.15
848.7115	953.0344	8424.25	7551.4
848.8567	955.0491	8461.45	7589.25
849.0018	957.063	8526.65	7654.5
849.147	959.0763	8622.4	7751.15
849.2921	961.0888	8679.55	7805.5
849.4373	963.1007	8761.9	7890.55
849.5824	965.1119	8776.4	7902.9
849.7275	967.1223	8796.85	7924.7
849.8727	969.1321	8843.3	7973.75
850.0178	971.1412	8888.65	8015.2
850.1629	973.1495	8878.7	8007.4
850.3081	975.1572	8962.35	8050.7
850.4532	977.1641	8967.85	8094.75
850.5983	979.1704	8935.2	8061.45
850.7435	981.1759	8927.15	8052
850.8886	983.1808	9007.95	8132.15
851.0337	985.1849	9098.65	8222.3
851.1788	987.1884	9264.05	8387.4
851.324	989.1911	9481.65	8605.9
851.4691	991.1932	9637.95	8764.3
851.6142	993.1945	9688	8813.25
851.7593	995.1951	9653.6	8782.45
851.9045	997.1951	9601.65	8722.4
852.0496	999.1943	9526.25	8654.05
852.1947	1001.1928	9471.55	8598.7
852.3398	1003.1906	9435.45	8563.9
852.4849	1005.1877	9447.8	8574.2
852.63	1007.1841	9422.9	8548.05
852.7751	1009.1798	9323	8450.3
852.9202	1011.1748	9117.35	8241.2
853.0653	1013.1691	8902.65	8029
853.2104	1015.1627	8681	7807.5
853.3555	1017.1556	8469.95	7594.65
853.5006	1019.1477	8386.5	7510.8
853.6457	1021.1392	8304.35	7431.15
853.7908	1023.1299	8297.8	7422.35
853.9359	1025.12	8332.1	7455.55
854.081	1027.1093	8368.9	7495.65
854.2261	1029.0979	8464.8	7591.45
854.3712	1031.0859	8510.3	7639.9
854.5163	1033.0731	8500.85	7627.05
854.6613	1035.0596	8434.7	7562.6
854.8064	1037.0454	8275.15	7399.25
854.9515	1039.0304	8173.2	7298.9
855.0965	1041.0148	8063.2	7190.2
855.2416	1042.9985	7953.9	7076.7
855.3867	1044.9814	7887.1	7013.85
855.5317	1046.9636	7862.3	6987.6
855.6768	1048.9452	7806	6932.3
855.8219	1050.926	7815	6942.4
855.9669	1052.9061	7788.5	6914.1
856.112	1054.8855	7780.8	6905.95
856.257	1056.8642	7797.5	6921.95
856.4021	1058.8421	7851.45	6972.85
856.5471	1060.8194	7881.65	7007.5
856.6921	1062.7959	7903.7	7028.25
856.8372	1064.7717	7914.1	7039.75
856.9822	1066.7469	7906.75	7029.95
857.1272	1068.7213	7854.55	6975.8
857.2723	1070.695	7846.4	6972.95
857.4173	1072.6679	7758.1	6882.3
857.5623	1074.6402	7712.55	6837.85
857.7073	1076.6117	7690.15	6810.6
857.8523	1078.5826	7706.15	6831.6
857.9973	1080.5527	7759.3	6879.25
858.1423	1082.5221	7935.75	7061.6
858.2873	1084.4908	8147.5	7271.95
858.4323	1086.4587	8389.9	7512.55
858.5773	1088.426	8568.65	7692.25
858.7223	1090.3925	8564.15	7683.6
858.8673	1092.3584	8502.3	7628.2
859.0123	1094.3235	8321.2	7447.3
859.1573	1096.2879	8184.6	7309.95
859.3022	1098.2515	8137.3	7259.8
859.4472	1100.2145	8156.95	7280.35
859.5922	1102.1767	8200.6	7321.75
859.7371	1104.1382	8357.9	7482.45
859.8821	1106.099	8577.15	7700.15
860.027	1108.0591	8773.7	7898.4
860.172	1110.0185	8917.05	8038.5
860.3169	1111.9771	8906.95	8032.7
860.4619	1113.9351	8660.45	7786.15
860.6068	1115.8923	8342.3	7466.05
860.7517	1117.8488	8000	7120.15
860.8967	1119.8045	7669.6	6794.6
861.0416	1121.7596	7529.25	6650.15
861.1865	1123.7139	7441.5	6567.3
861.3314	1125.6675	7452.8	6577.1
861.4763	1127.6204	7502.7	6625.75
861.6212	1129.5726	7522.25	6643.2
861.7661	1131.524	7574.25	6699.25
861.911	1133.4748	7623.15	6745
862.0559	1135.4248	7659.85	6782.95
862.2008	1137.3741	7675.55	6799.1
862.3457	1139.3226	7684.85	6807.3
862.4905	1141.2705	7617.3	6741.25
862.6354	1143.2176	7575.3	6692.2
862.7803	1145.164	7589.9	6712.75
862.9251	1147.1097	7626.5	6748.7
863.07	1149.0546	7624.1	6748.65
863.2148	1150.9989	7491.15	6612.4
863.3597	1152.9424	7327.8	6448.65
863.5045	1154.8852	7119.6	6243.6
863.6493	1156.8272	6952.2	6075.5
863.7942	1158.7686	6874.7	5990.15
863.939	1160.7092	6835.95	5957.05
864.0838	1162.6491	6825.15	5946.2
864.2286	1164.5883	6884.85	6009.5
864.3734	1166.5267	6956.3	6076.3
864.5182	1168.4644	7099.75	6222.3
864.663	1170.4014	7289.05	6412.15
864.8078	1172.3377	7518.55	6640.4
864.9526	1174.2732	7741.7	6863.85
865.0974	1176.2081	7913.4	7036.7
865.2421	1178.1421	8108.05	7227.15
865.3869	1180.0755	8218.15	7341.1
865.5317	1182.0082	8234.9	7355.85
865.6764	1183.9401	8156.35	7278.45
865.8212	1185.8713	7930.45	7053.25
865.9659	1187.8017	7680.75	6803.4
866.1106	1189.7315	7421.7	6545.7
866.2554	1191.6605	7204.15	6298
866.4001	1193.5888	6990.65	6113.55
866.5448	1195.5163	6841.65	5961.25
866.6895	1197.4432	6765.1	5884.3
866.8342	1199.3693	6684.9	5807.35
866.9789	1201.2947	6615.65	5734.1
867.1236	1203.2193	6581.9	5705.05
