Software Version:	3.9.2.0
Unit SN:	10000200
Spectrometer SN:	6960
Date:	3/14/2024 12:41:36 PM
Data Line Index:	25
Spectral Points:	2048
Integration time (ms):	125
Averages:	20
Delay (ms):	30000
Sequence Number:	1
Processing:	dark subtract
Laser Power (mW):	305
Laser Current (mA):	822
Laser Diode Temp (C):	25
Laser Case Temp (C):	27.1
System Temp (C):	27.1
Spectrometer Temp (C):	24.6
CCD Temp (C):	0.012
Secondary Temp (C):	20.006
Heatsink Temp (C):	23.132
CCDPCB Temp (C):	36.763
SecondaryPCB Temp (C):	34.428

Wavelength	RamanShift	Raw Counts	Dark Subtracted
787.061	30.1047	418	7.7
787.2016	32.3739	416.2	8
787.3422	34.6426	417.65	6.6
787.4828	36.9109	419.45	7.1
787.6235	39.1787	426.2	9.15
787.7642	41.4461	430.95	9.05
787.9049	43.7131	434.8	9.85
788.0456	45.9796	438.8	10.45
788.1863	48.2456	442.1	9.05
788.3271	50.5112	447.1	9.8
788.4679	52.7764	450.25	12.55
788.6087	55.0411	452.9	11.35
788.7496	57.3054	459.05	11.35
788.8904	59.5692	459.85	9.85
789.0313	61.8326	464.85	11.4
789.1722	64.0955	472.7	15.8
789.3132	66.3579	478	15.95
789.4541	68.6199	483.7	18.55
789.5951	70.8815	493.05	25.3
789.7361	73.1426	510.35	38.95
789.8771	75.4032	534.1	56.95
790.0181	77.6634	599.25	119.55
790.1592	79.9231	738.8	254.45
790.3003	82.1824	1029.2	540.25
790.4414	84.4412	1535.9	1040.8
790.5825	86.6995	2182.45	1677.5
790.7237	88.9574	2819.95	2307.9
790.8648	91.2148	3279.85	2762.45
791.006	93.4717	3489.1	2966.55
791.1472	95.7282	3560.25	3034.4
791.2885	97.9842	3577.5	3049.25
791.4297	100.2398	3542.6	3010.15
791.571	102.4949	3520.45	2986.45
791.7123	104.7495	3520.1	2980.55
791.8536	107.0036	3475.1	2937.2
791.9949	109.2573	3432.4	2892.65
792.1363	111.5105	3389.35	2848.8
792.2777	113.7632	3324.8	2784.2
792.4191	116.0154	3283.6	2729.8
792.5605	118.2672	3210.25	2664.55
792.7019	120.5185	3148.4	2600.5
792.8434	122.7693	3098.75	2545.35
792.9849	125.0197	3037.9	2486
793.1264	127.2696	2979.1	2424.1
793.2679	129.519	2968.55	2411.7
793.4094	131.7679	2945	2384.05
793.551	134.0163	2929.85	2365.2
793.6926	136.2642	2925	2356.45
793.8342	138.5117	2934.7	2359.65
793.9758	140.7587	2910.55	2336.5
794.1175	143.0052	2887.5	2309.55
794.2591	145.2512	2844.55	2266.8
794.4008	147.4967	2806.25	2229.4
794.5425	149.7417	2792.3	2214.8
794.6842	151.9863	2760.3	2177.75
794.826	154.2304	2766.6	2179.1
794.9677	156.4739	2753.9	2162.4
795.1095	158.717	2757.7	2167.1
795.2513	160.9596	2766.7	2169.05
795.3931	163.2017	2783.45	2182.15
795.535	165.4433	2791.15	2190.9
795.6768	167.6844	2791.65	2188.9
795.8187	169.925	2771.1	2164.35
795.9606	172.1651	2726.15	2116.8
796.1025	174.4047	2712.4	2098.7
796.2445	176.6439	2685.2	2069.45
796.3864	178.8825	2656.6	2038.45
796.5284	181.1206	2652.25	2031.6
796.6704	183.3582	2638.65	2015.3
796.8124	185.5954	2630.4	2004.8
796.9544	187.832	2638.25	2008.5
797.0965	190.0681	2640.1	2006.75
797.2386	192.3037	2618.6	1983
797.3806	194.5388	2632	1994.7
797.5228	196.7734	2648.1	2006.85
797.6649	199.0075	2646.8	2003
797.807	201.2411	2666.15	2017.85
797.9492	203.4742	2676.75	2029.9
798.0914	205.7068	2686.35	2040.2
798.2336	207.9389	2700.25	2053.65
798.3758	210.1704	2717.7	2066.65
798.518	212.4015	2716.05	2061.9
798.6603	214.632	2717.95	2063
798.8025	216.862	2708.6	2057.15
798.9448	219.0915	2699.65	2054.7
799.0871	221.3205	2696.95	2056.3
799.2294	223.549	2687.8	2052.5
799.3718	225.777	2703.5	2070.4
799.5141	228.0044	2703.3	2063.85
799.6565	230.2314	2691	2054.25
799.7989	232.4578	2678.9	2041.05
799.9413	234.6837	2662.3	2015.15
800.0837	236.909	2662.8	2017.15
800.2262	239.1339	2662.15	1991.6
800.3687	241.3582	2640.55	1986.5
800.5111	243.582	2662.55	1981.3
800.6536	245.8053	2679.95	2005.3
800.7961	248.0281	2677.4	2005.4
800.9387	250.2503	2673	1996.85
801.0812	252.472	2679.95	1997.95
801.2238	254.6932	2678.6	1994.55
801.3664	256.9139	2663.35	1976.85
801.509	259.134	2681.55	1993.95
801.6516	261.3536	2693.5	2008.75
801.7942	263.5727	2719.45	2031.05
801.9369	265.7912	2743.15	2057.1
802.0795	268.0092	2761.95	2074.65
802.2222	270.2267	2811.15	2119.9
802.3649	272.4436	2823.05	2131.25
802.5076	274.6601	2846.95	2146.4
802.6504	276.8759	2854.4	2159.65
802.7931	279.0913	2875.9	2182.75
802.9359	281.3061	2873.7	2176.95
803.0787	283.5204	2902.95	2204.1
803.2215	285.7341	2894.5	2190.85
803.3643	287.9473	2917.4	2212.2
803.5071	290.16	2909.35	2198.65
803.6499	292.3721	2875.8	2172.95
803.7928	294.5837	2848	2141.8
803.9357	296.7947	2833.15	2126.85
804.0786	299.0052	2819.8	2110.65
804.2215	301.2152	2805.7	2097.65
804.3644	303.4246	2796.1	2088.45
804.5074	305.6334	2764.15	2054.95
804.6503	307.8418	2767.75	2057
804.7933	310.0495	2754.65	2043.8
804.9363	312.2568	2740.4	2032.8
805.0793	314.4635	2695.25	1982.35
805.2223	316.6696	2669.15	1955.05
805.3653	318.8752	2641.05	1918.5
805.5084	321.0802	2616	1901.45
805.6514	323.2847	2608.15	1893.25
805.7945	325.4887	2598.4	1881.65
805.9376	327.692	2611.2	1893.9
806.0807	329.8949	2632.8	1913.2
806.2238	332.0972	2655.8	1934.4
806.367	334.2989	2676	1949.65
806.5101	336.5001	2673.2	1948.5
806.6533	338.7007	2659.7	1935.3
806.7965	340.9008	2631.35	1905.1
806.9397	343.1003	2589.95	1857.85
807.0829	345.2992	2555.75	1825.15
807.2261	347.4976	2526.95	1793.55
807.3693	349.6955	2502.6	1765
807.5126	351.8927	2488.15	1749.35
807.6559	354.0895	2485.5	1738.6
807.7991	356.2856	2476.25	1733.15
807.9424	358.4812	2456.6	1717.95
808.0857	360.6763	2448.75	1708.85
808.2291	362.8707	2442.5	1700.1
808.3724	365.0646	2446.2	1703.4
808.5158	367.258	2449.75	1705.7
808.6591	369.4508	2454.9	1705.55
808.8025	371.643	2468.5	1719
808.9459	373.8346	2491.75	1740.45
809.0893	376.0257	2520.85	1765.15
809.2327	378.2162	2539.1	1785.15
809.3762	380.4062	2543.95	1785.55
809.5196	382.5956	2525.05	1765.8
809.6631	384.7844	2492.45	1734.3
809.8066	386.9726	2468.2	1708.15
809.9501	389.1603	2444.05	1686.5
810.0936	391.3474	2452.65	1658
810.2371	393.5339	2423.45	1662.1
810.3806	395.7199	2414.85	1657.95
810.5241	397.9052	2435.25	1682.7
810.6677	400.09	2452.8	1699.9
810.8113	402.2743	2487.55	1736.4
810.9548	404.4579	2508.45	1756.3
811.0984	406.641	2521.9	1770.35
811.2421	408.8235	2547.75	1790.55
811.3857	411.0054	2590.1	1836.55
811.5293	413.1868	2654.7	1898.25
811.673	415.3675	2718.4	1959.05
811.8166	417.5477	2734.9	1973.7
811.9603	419.7273	2674.7	1908.65
812.104	421.9064	2583.15	1813.05
812.2477	424.0848	2533.15	1766.4
812.3914	426.2627	2483.1	1712.85
812.5351	428.4399	2438.35	1667.3
812.6788	430.6166	2404.75	1627.7
812.8226	432.7928	2365.6	1589.6
812.9663	434.9683	2337.5	1563.15
813.1101	437.1432	2318.05	1539.85
813.2539	439.3176	2312.05	1536.05
813.3977	441.4914	2293.75	1515.15
813.5415	443.6645	2293.15	1511.2
813.6853	445.8371	2294.85	1514.1
813.8291	448.0091	2290.5	1510.85
813.973	450.1806	2289.85	1508.45
814.1168	452.3514	2280.2	1495.85
814.2607	454.5216	2279.65	1488.3
814.4046	456.6913	2265.7	1479.8
814.5485	458.8603	2264.95	1479.65
814.6924	461.0288	2278.85	1493.85
814.8363	463.1967	2256.95	1470.2
814.9802	465.3639	2264.65	1475.75
815.1241	467.5306	2251.95	1463.65
815.2681	469.6967	2241.05	1452
815.412	471.8622	2240.3	1451.1
815.556	474.0271	2238.3	1451.15
815.7	476.1914	2236.55	1445.2
815.844	478.3551	2223.8	1433.2
815.988	480.5182	2228.15	1436.95
816.132	482.6807	2225.6	1434
816.276	484.8426	2249.65	1458.5
816.4201	487.0039	2270.4	1477.55
816.5641	489.1647	2298.85	1506.35
816.7082	491.3248	2330.1	1538.45
816.8522	493.4843	2332.85	1538.15
816.9963	495.6432	2329.05	1533.85
817.1404	497.8015	2315	1518.6
817.2845	499.9592	2290.15	1495.85
817.4286	502.1163	2252.5	1455.65
817.5727	504.2728	2224.85	1426.65
817.7168	506.4287	2206.25	1407.75
817.861	508.5839	2191	1392.4
818.0051	510.7386	2187.55	1387.55
818.1493	512.8927	2201.1	1394.4
818.2935	515.0461	2197.55	1395.8
818.4377	517.199	2193.8	1394.8
818.5818	519.3512	2215.6	1414.15
818.726	521.5029	2263	1454.35
818.8703	523.6539	2302	1499.5
819.0145	525.8043	2313.65	1508.55
819.1587	527.9541	2273.3	1468.2
819.303	530.1033	2228.2	1424.45
819.4472	532.2519	2190.25	1384.15
819.5915	534.3999	2174.6	1366.6
819.7357	536.5472	2172.6	1366.25
819.88	538.694	2175.8	1367.15
820.0243	540.8401	2168.4	1359.65
820.1686	542.9856	2184.6	1374.6
820.3129	545.1305	2203.1	1393.2
820.4572	547.2748	2206.8	1397
820.6016	549.4185	2205.15	1393.2
820.7459	551.5615	2205.9	1394.3
820.8902	553.704	2222.65	1409.95
821.0346	555.8458	2226.9	1416
821.1789	557.987	2253.2	1441.35
821.3233	560.1276	2261.6	1450.4
821.4677	562.2675	2286.45	1475.1
821.6121	564.4069	2342.75	1530.65
821.7565	566.5456	2358.35	1546.2
821.9009	568.6837	2348.4	1535.45
822.0453	570.8212	2292.6	1479.6
822.1897	572.958	2246	1429.95
822.3342	575.0942	2236	1424.9
822.4786	577.2299	2209.05	1393.95
822.6231	579.3648	2176	1362.15
822.7675	581.4992	2150.15	1331.8
822.912	583.6329	2149.95	1334.6
823.0565	585.766	2159.85	1343.7
823.201	587.8985	2196	1380.95
823.3454	590.0304	2232.1	1405.65
823.4899	592.1616	2238.45	1419.6
823.6345	594.2922	2245.85	1430.15
823.779	596.4222	2223.9	1406.3
823.9235	598.5515	2178	1358.65
824.068	600.6802	2138.4	1320.45
824.2126	602.8083	2111.95	1292.35
824.3571	604.9358	2113.25	1291.1
824.5017	607.0626	2105.7	1284.85
824.6462	609.1888	2106.25	1282.5
824.7908	611.3144	2122.4	1298.2
824.9354	613.4393	2139.85	1317.75
825.08	615.5636	2176.6	1355.2
825.2246	617.6873	2198.85	1374.6
825.3692	619.8103	2213.4	1386.95
825.5138	621.9327	2226.7	1400.8
825.6584	624.0544	2200.3	1376.95
825.803	626.1756	2163.65	1339.5
825.9477	628.2961	2132.25	1306.3
826.0923	630.4159	2116.35	1291.6
826.237	632.5351	2110.65	1285.35
826.3816	634.6537	2110.25	1284.9
826.5263	636.7716	2093.95	1265.9
826.6709	638.8889	2087.15	1258.4
826.8156	641.0056	2088.45	1259
826.9603	643.1216	2102.95	1274
827.105	645.237	2109.4	1277.8
827.2497	647.3518	2097.45	1267.35
827.3944	649.4659	2068.5	1240.7
827.5391	651.5793	2059.8	1229.15
827.6838	653.6922	2044.35	1214.35
827.8285	655.8043	2040.7	1210.6
827.9733	657.9159	2043.6	1211.85
828.118	660.0268	2027.9	1194.95
828.2627	662.137	2030.55	1197.85
828.4075	664.2466	2027.9	1193.15
828.5522	666.3556	2027.9	1195.85
828.697	668.4639	2018.65	1182.4
828.8418	670.5716	2024.95	1192.2
828.9865	672.6786	2009.2	1174.55
829.1313	674.785	1998.25	1162.65
829.2761	676.8907	1993.6	1158
829.4209	678.9958	2002.95	1169.15
829.5657	681.1002	2000.7	1165.55
829.7105	683.204	2010.2	1173.05
829.8553	685.3072	1996.6	1157.8
830.0001	687.4097	1997.25	1161.05
830.1449	689.5115	2002.15	1163.2
830.2898	691.6127	1994.45	1156.55
830.4346	693.7132	1983.55	1143.7
830.5794	695.8131	1989.45	1142.7
830.7243	697.9123	1995.6	1154.85
830.8691	700.0109	1993.95	1154.4
831.014	702.1089	1996.7	1159.6
831.1588	704.2061	2009.2	1169.25
831.3037	706.3028	2017.6	1175.5
831.4486	708.3987	2025.05	1182.75
831.5935	710.4941	2046.15	1205.5
831.7383	712.5887	2045.15	1202.65
831.8832	714.6827	2044.65	1199.35
832.0281	716.7761	2035.4	1195.15
832.173	718.8688	2037	1196.4
832.3179	720.9608	2035.35	1190.55
832.4628	723.0522	2044.55	1199.55
832.6077	725.1429	2047.05	1204.85
832.7527	727.233	2068	1225.45
832.8976	729.3224	2105.45	1263.4
833.0425	731.4112	2145.45	1300.35
833.1874	733.4993	2163.45	1317.65
833.3324	735.5867	2133.15	1288.05
833.4773	737.6735	2091.5	1243.1
833.6222	739.7596	2046.35	1199.65
833.7672	741.845	2042.8	1197.45
833.9122	743.9298	2033.4	1184.3
834.0571	746.014	2051.65	1206.4
834.2021	748.0974	2061.65	1213.65
834.347	750.1802	2059.75	1213.3
834.492	752.2624	2048.45	1200.3
834.637	754.3439	2034.9	1185.95
834.782	756.4247	2031.45	1176
834.9269	758.5048	2007.85	1159.85
835.0719	760.5843	2018.9	1170.2
835.2169	762.6631	2026.5	1178.05
835.3619	764.7413	2067.55	1220.1
835.5069	766.8188	2107.4	1257.95
835.6519	768.8956	2177.15	1326.4
835.7969	770.9718	2196.55	1347.05
835.9419	773.0473	2193.65	1345.2
836.0869	775.1221	2171.9	1322.2
836.232	777.1962	2164.8	1313.05
836.377	779.2697	2192.5	1341.6
836.522	781.3426	2259.45	1398.8
836.667	783.4147	2302.6	1450.15
836.8121	785.4862	2306.7	1458.1
836.9571	787.557	2242.8	1392.7
837.1021	789.6271	2159.8	1307.6
837.2472	791.6966	2075.65	1223.4
837.3922	793.7654	2010.55	1157.35
837.5373	795.8335	1974.9	1122.2
837.6823	797.901	1949.8	1099.75
837.8274	799.9678	1955.45	1102.7
837.9724	802.0339	1939.9	1087.2
838.1175	804.0993	1960.2	1099.5
838.2626	806.1641	1941.45	1087.75
838.4076	808.2282	1940.15	1086.95
838.5527	810.2916	1921.65	1065.15
838.6978	812.3544	1912.1	1060.4
838.8428	814.4164	1901.3	1049.55
838.9879	816.4778	1913.15	1060.95
839.133	818.5385	1902.35	1049.05
839.2781	820.5986	1936.8	1083.4
839.4232	822.658	1972.95	1117
839.5682	824.7166	2004.6	1150.3
839.7133	826.7747	2063.2	1210.5
839.8584	828.832	2113.95	1259.1
840.0035	830.8886	2136.15	1277.05
840.1486	832.9446	2158.7	1300.95
840.2937	834.9999	2135.75	1281.3
840.4388	837.0545	2111.9	1251.7
840.5839	839.1085	2039.3	1182.35
840.729	841.1618	1994.7	1134.25
840.8741	843.2143	1949.55	1093.15
841.0192	845.2662	1924.15	1069.55
841.1643	847.3175	1918.6	1061.75
841.3095	849.368	1900.2	1044.9
841.4546	851.4179	1905.7	1050.2
841.5997	853.467	1892.25	1034.15
841.7448	855.5155	1906.65	1048.6
841.8899	857.5633	1905.95	1047.5
842.0351	859.6105	1905.7	1047.55
842.1802	861.6569	1893.2	1035.8
842.3253	863.7027	1885.25	1025.05
842.4704	865.7478	1873.35	1013.95
842.6156	867.7922	1867.15	1008.65
842.7607	869.8359	1863.3	1004.9
842.9058	871.8789	1853.8	993.3
843.0509	873.9212	1892.35	998
843.1961	875.9629	1853.6	995.8
843.3412	878.0039	1864.4	1004.6
843.4863	880.0441	1873.5	1014.35
843.6315	882.0837	1885.1	1024.45
843.7766	884.1226	1898.8	1038.5
843.9218	886.1609	1922.2	1062.75
844.0669	888.1984	1949.3	1092.4
844.212	890.2352	1987.1	1127.35
844.3572	892.2714	1993.55	1131.1
844.5023	894.3069	1977.85	1117.3
844.6475	896.3416	1930.8	1068
844.7926	898.3757	1902.7	1040.85
844.9377	900.4091	1894.65	1031.05
845.0829	902.4418	1900.45	1034.85
845.228	904.4739	1901.9	1039.05
845.3732	906.5052	1914.7	1050.5
845.5183	908.5358	1904.35	1044.25
845.6635	910.5658	1903.1	1038.7
845.8086	912.595	1879.45	1016.65
845.9538	914.6236	1841.7	981.55
846.0989	916.6515	1832.3	969.95
846.2441	918.6786	1814.35	949
846.3892	920.7051	1821.9	957.65
846.5344	922.7309	1809.65	946.4
846.6795	924.756	1808.2	943
846.8246	926.7804	1808.55	943.3
846.9698	928.8041	1817.6	952.85
847.1149	930.8272	1824.6	960.55
847.2601	932.8495	1827.4	961
847.4052	934.8711	1836.2	972
847.5504	936.892	1840.25	973.2
847.6955	938.9123	1849.15	984.65
847.8407	940.9318	1863.5	999.9
847.9858	942.9506	1870.3	1003.8
848.131	944.9688	1865.4	1000.6
848.2761	946.9862	1847	979.85
848.4213	949.003	1827.05	961
848.5664	951.019	1809.75	943.5
848.7115	953.0344	1797.95	934.45
848.8567	955.0491	1783.3	916.55
849.0018	957.063	1773.2	907.5
849.147	959.0763	1776.15	911.95
849.2921	961.0888	1782.65	914.45
849.4373	963.1007	1780.75	913.65
849.5824	965.1119	1768	901.2
849.7275	967.1223	1761.6	893.7
849.8727	969.1321	1755.95	889.2
850.0178	971.1412	1750.25	882.25
850.1629	973.1495	1749.1	884.15
850.3081	975.1572	1792.4	873.3
850.4532	977.1641	1753.5	887.1
850.5983	979.1704	1748.3	881.75
850.7435	981.1759	1752.25	881.9
850.8886	983.1808	1735.75	867.7
851.0337	985.1849	1743.15	864.35
851.1788	987.1884	1728.5	857.6
851.324	989.1911	1734.75	862.9
851.4691	991.1932	1742.85	873.85
851.6142	993.1945	1746.65	876.95
851.7593	995.1951	1732.85	864.4
851.9045	997.1951	1729.3	854.15
852.0496	999.1943	1726.65	859.95
852.1947	1001.1928	1730.1	860.45
852.3398	1003.1906	1723.85	856.95
852.4849	1005.1877	1742.65	873
852.63	1007.1841	1753.75	882.45
852.7751	1009.1798	1757.05	887.85
852.9202	1011.1748	1756.85	886.9
853.0653	1013.1691	1741	871.95
853.2104	1015.1627	1716.5	845.85
853.3555	1017.1556	1689.05	819.05
853.5006	1019.1477	1678.55	807.7
853.6457	1021.1392	1665.5	798.05
853.7908	1023.1299	1655.95	786
853.9359	1025.12	1662.85	789.85
854.081	1027.1093	1663.7	792.8
854.2261	1029.0979	1681.85	812.9
854.3712	1031.0859	1684.2	814.95
854.5163	1033.0731	1700.25	828.8
854.6613	1035.0596	1688.2	816.5
854.8064	1037.0454	1682.1	810.35
854.9515	1039.0304	1675	803.35
855.0965	1041.0148	1650.4	777.8
855.2416	1042.9985	1646.1	772.75
855.3867	1044.9814	1634.65	764.3
855.5317	1046.9636	1639.95	766.1
855.6768	1048.9452	1631.05	761
855.8219	1050.926	1635.7	764.8
855.9669	1052.9061	1662	791.35
856.112	1054.8855	1651.5	778.2
856.257	1056.8642	1649.5	777.9
856.4021	1058.8421	1659.85	782.85
856.5471	1060.8194	1639.2	765.45
856.6921	1062.7959	1642.25	770.65
856.8372	1064.7717	1639.85	767.25
856.9822	1066.7469	1647.25	774.65
857.1272	1068.7213	1638.65	762.6
857.2723	1070.695	1639.05	765.65
857.4173	1072.6679	1666.65	792.3
857.5623	1074.6402	1674.95	801.4
857.7073	1076.6117	1688.05	809.95
857.8523	1078.5826	1671.7	798.7
857.9973	1080.5527	1643.3	766.55
858.1423	1082.5221	1630.25	756.85
858.2873	1084.4908	1601.1	728.6
858.4323	1086.4587	1594.75	719.8
858.5773	1088.426	1587.95	714.15
858.7223	1090.3925	1586.35	707.4
858.8673	1092.3584	1582.35	710.4
859.0123	1094.3235	1588.65	716.35
859.1573	1096.2879	1586.25	711.75
859.3022	1098.2515	1596.45	721.55
859.4472	1100.2145	1624.25	750.6
859.5922	1102.1767	1647.05	769.2
859.7371	1104.1382	1661.6	786.7
859.8821	1106.099	1696.6	822.8
860.027	1108.0591	1728.65	855.3
860.172	1110.0185	1747.9	873.6
860.3169	1111.9771	1779.7	906.7
860.4619	1113.9351	1797.85	923.5
860.6068	1115.8923	1836	962.1
860.7517	1117.8488	1869.45	993.1
860.8967	1119.8045	1834.85	959.4
861.0416	1121.7596	1778.95	903.85
861.1865	1123.7139	1706.75	833.1
861.3314	1125.6675	1670.35	795.15
861.4763	1127.6204	1663.45	788.35
861.6212	1129.5726	1675.35	798.45
861.7661	1131.524	1666.35	793.25
861.911	1133.4748	1655.25	781.75
862.0559	1135.4248	1615.05	739.3
862.2008	1137.3741	1576.55	701.1
862.3457	1139.3226	1558.85	681.5
862.4905	1141.2705	1552.9	677.6
862.6354	1143.2176	1566.3	686.6
862.7803	1145.164	1571.4	693
862.9251	1147.1097	1562.55	687.35
863.07	1149.0546	1553.35	675.8
863.2148	1150.9989	1539.2	662.3
863.3597	1152.9424	1528.5	651.5
863.5045	1154.8852	1517.4	639.3
863.6493	1156.8272	1507.5	633.25
863.7942	1158.7686	1510.85	626.2
863.939	1160.7092	1509.45	632.05
864.0838	1162.6491	1512.9	634.05
864.2286	1164.5883	1511.05	635.55
864.3734	1166.5267	1522.9	644
864.5182	1168.4644	1530.65	654.05
864.663	1170.4014	1555.35	675.2
864.8078	1172.3377	1575.85	701.15
864.9526	1174.2732	1601.75	726.5
865.0974	1176.2081	1656.5	779.75
865.2421	1178.1421	1730.75	850.15
865.3869	1180.0755	1799.05	922.8
865.5317	1182.0082	1840.55	963.3
865.6764	1183.9401	1844.35	963.35
865.8212	1185.8713	1782.15	903.5
865.9659	1187.8017	1697.65	823.25
866.1106	1189.7315	1627.4	750.7
866.2554	1191.6605	1609.25	703.75
866.4001	1193.5888	1547.95	670.2
866.5448	1195.5163	1531.15	652.15
866.6895	1197.4432	1519.45	641.4
866.8342	1199.3693	1502.55	625.8
866.9789	1201.2947	1495.65	609.3
867.1236	1203.2193	1488.8	612.5
867.2683	1205.1432	1475.1	596.15
867.413	1207.0664	1480.25	603.1
867.5576	1208.9889	1473.35	591.35
867.7023	1210.9106	1474.95	598.7
867.847	1212.8316	1477.85	601.3
867.9916	1214.7519	1488.75	600.2
868.1363	1216.6715	1484.9	607.2
868.2809	1218.5903	1498.6	618.85
868.4255	1220.5084	1501.45	624.5
868.5701	1222.4257	1510.85	632.3
868.7148	1224.3424	1507.9	630.05
868.8594	1226.2583	1533.4	649.4
869.004	1228.1735	1540.8	660.5
869.1486	1230.0879	1556.2	677.05
869.2932	1232.0016	1582.6	703.35
869.4377	1233.9146	1603.65	723.6
869.5823	1235.8269	1614.25	735.6
869.7269	1237.7384	1613.4	733.55
869.8715	1239.6492	1609.45	731.95
870.016	1241.5592	1616.2	736.05
870.1606	1243.4686	1638.85	758.35
870.3051	1245.3772	1676.9	797.5
870.4496	1247.285	1731.6	849.65
870.5941	1249.1922	1795.75	915.9
870.7387	1251.0986	1819.45	940.1
