Software Version:	3.9.2.0
Unit SN:	10000200
Spectrometer SN:	6960
Date:	3/14/2024 1:39:28 PM
Data Line Index:	25
Spectral Points:	2048
Integration time (ms):	125
Averages:	20
Delay (ms):	30000
Sequence Number:	1
Processing:	dark subtract
Laser Power (mW):	305
Laser Current (mA):	824
Laser Diode Temp (C):	25
Laser Case Temp (C):	28.7
System Temp (C):	28.7
Spectrometer Temp (C):	26.5
CCD Temp (C):	0.008
Secondary Temp (C):	20.007
Heatsink Temp (C):	24.709
CCDPCB Temp (C):	38.152
SecondaryPCB Temp (C):	35.796

Wavelength	RamanShift	Raw Counts	Dark Subtracted
787.061	30.1047	470.7	58.45
787.2016	32.3739	470.25	60.4
787.3422	34.6426	474.65	63.1
787.4828	36.9109	481.5	69.4
787.6235	39.1787	489.3	71.3
787.7642	41.4461	501.35	80.05
787.9049	43.7131	514	89.45
788.0456	45.9796	521.7	93.45
788.1863	48.2456	531.4	98.55
788.3271	50.5112	541.4	106.1
788.4679	52.7764	550.6	111.7
788.6087	55.0411	564	121.85
788.7496	57.3054	573.95	126.4
788.8904	59.5692	586.9	136.15
789.0313	61.8326	601.45	147.05
789.1722	64.0955	609.55	151.9
789.3132	66.3579	629.45	165.2
789.4541	68.6199	653.6	186.65
789.5951	70.8815	694.45	226.95
789.7361	73.1426	774	302.85
789.8771	75.4032	997.6	521.3
790.0181	77.6634	1539.3	1056.3
790.1592	79.9231	2832.05	2342.95
790.3003	82.1824	5678.9	5178.75
790.4414	84.4412	10905.2	10385.9
790.5825	86.6995	18215.35	17673.2
790.7237	88.9574	25494.5	24930.8
790.8648	91.2148	30688	30107.4
791.006	93.4717	33053	32461.65
791.1472	95.7282	33591.3	32998.1
791.2885	97.9842	33482.05	32883.05
791.4297	100.2398	32860.1	32260.15
791.571	102.4949	32192.9	31588
791.7123	104.7495	31333.85	30721.25
791.8536	107.0036	30453.9	29846
791.9949	109.2573	29651.15	29044.5
792.1363	111.5105	28918.35	28308.65
792.2777	113.7632	28213.9	27602.8
792.4191	116.0154	27643.6	27021.35
792.5605	118.2672	27242.5	26626
792.7019	120.5185	26768.9	26151.4
792.8434	122.7693	26466.3	25846.4
792.9849	125.0197	26182.8	25557.75
793.1264	127.2696	25887.15	25261.2
793.2679	129.519	25763.5	25134.8
793.4094	131.7679	25509.05	24877.25
793.551	134.0163	25255	24621.05
793.6926	136.2642	24976.15	24336.75
793.8342	138.5117	24688.3	24037.35
793.9758	140.7587	24359.6	23718.8
794.1175	143.0052	24073.3	23429.65
794.2591	145.2512	23765.55	23122.5
794.4008	147.4967	23490.9	22846.8
794.5425	149.7417	23339.9	22694.3
794.6842	151.9863	23144.05	22496.35
794.826	154.2304	23038.6	22385.95
794.9677	156.4739	22866.75	22207.55
795.1095	158.717	22814.25	22157.35
795.2513	160.9596	22631.6	21970.55
795.3931	163.2017	22324.05	21659.95
795.535	165.4433	22020.9	21356.8
795.6768	167.6844	21692.2	21021.45
795.8187	169.925	21371.3	20698.45
795.9606	172.1651	20945.85	20270.25
796.1025	174.4047	20667.1	19987.65
796.2445	176.6439	20403.7	19723.95
796.3864	178.8825	20145.65	19464.2
796.5284	181.1206	20005.6	19321.75
796.6704	183.3582	19814.1	19126.95
796.8124	185.5954	19708.7	19019.3
796.9544	187.832	19617.85	18926.6
797.0965	190.0681	19593.5	18897.1
797.2386	192.3037	19595.1	18898.25
797.3806	194.5388	19557.35	18854.35
797.5228	196.7734	19589.35	18884
797.6649	199.0075	19682.45	18974
797.807	201.2411	19858.4	19149.6
797.9492	203.4742	19883.45	19169.55
798.0914	205.7068	20010.95	19301.2
798.2336	207.9389	20163.8	19452.15
798.3758	210.1704	20310.05	19596.65
798.518	212.4015	20372.25	19652.35
798.6603	214.632	20549.8	19829.95
798.8025	216.862	20681.35	19968.8
798.9448	219.0915	20795.9	20091.75
799.0871	221.3205	20953.1	20253.25
799.2294	223.549	21101.25	20405.8
799.3718	225.777	21267.65	20574.75
799.5141	228.0044	21507.65	20809.45
799.6565	230.2314	21868.45	21172.75
799.7989	232.4578	22126.75	21428.8
799.9413	234.6837	22345.2	21641.95
800.0837	236.909	22490.3	21782.95
800.2262	239.1339	22541.7	21813.05
800.3687	241.3582	22348.3	21633.2
800.5111	243.582	22143.1	21407.65
800.6536	245.8053	21907.65	21175.75
800.7961	248.0281	21734.95	21004.1
800.9387	250.2503	21590.1	20857.9
801.0812	252.472	21520.25	20781.4
801.2238	254.6932	21599.55	20858.65
801.3664	256.9139	21582.35	20841.75
801.509	259.134	21691.85	20948.05
801.6516	261.3536	21796.05	21052.85
801.7942	263.5727	22002.55	21254.4
801.9369	265.7912	22085.3	21342.95
802.0795	268.0092	22243.75	21499.85
802.2222	270.2267	22332.05	21585.8
802.3649	272.4436	22354.55	21609.55
802.5076	274.6601	22264.7	21505.2
802.6504	276.8759	22169.3	21421.4
802.7931	279.0913	22085.15	21332.55
802.9359	281.3061	21992.95	21238
803.0787	283.5204	21967.35	21209.3
803.2215	285.7341	21956.55	21199.75
803.3643	287.9473	22041.5	21271.75
803.5071	290.16	22207.75	21441.35
803.6499	292.3721	22410.05	21650.55
803.7928	294.5837	22739.8	21979.1
803.9357	296.7947	23011.9	22251.55
804.0786	299.0052	23142.95	22382.15
804.2215	301.2152	23030.75	22263.8
804.3644	303.4246	22799	22037.5
804.5074	305.6334	22317.2	21557.05
804.6503	307.8418	21777.9	21012.95
804.7933	310.0495	21314.3	20548.45
804.9363	312.2568	20939.3	20175.4
805.0793	314.4635	20578.15	19811.65
805.2223	316.6696	20373.1	19606.85
805.3653	318.8752	20236.85	19462.6
805.5084	321.0802	20220.3	19451.3
805.6514	323.2847	20265.45	19496.55
805.7945	325.4887	20273.25	19503.65
805.9376	327.692	20237.85	19469.1
806.0807	329.8949	20157.5	19386.25
806.2238	332.0972	19886.6	19109.6
806.367	334.2989	19661.25	18886.8
806.5101	336.5001	19367.95	18591.95
806.6533	338.7007	19135.7	18363.4
806.7965	340.9008	19003.65	18223.25
806.9397	343.1003	18858.15	18077.4
807.0829	345.2992	18754.1	17972.55
807.2261	347.4976	18701.95	17920.2
807.3693	349.6955	18637.9	17851.85
807.5126	351.8927	18633.6	17846.4
807.6559	354.0895	18576.75	17777.1
807.7991	356.2856	18585.95	17796.55
807.9424	358.4812	18498.5	17711.35
808.0857	360.6763	18554.8	17766.8
808.2291	362.8707	18553	17763.8
808.3724	365.0646	18575.05	17779.15
808.5158	367.258	18576.7	17782.7
808.6591	369.4508	18600.35	17803.55
808.8025	371.643	18693.6	17897.2
808.9459	373.8346	18695.7	17896.35
809.0893	376.0257	18727.7	17928.05
809.2327	378.2162	18685.4	17881
809.3762	380.4062	18603.35	17796.4
809.5196	382.5956	18435.3	17630
809.6631	384.7844	18316.35	17513.95
809.8066	386.9726	18169.15	17358.6
809.9501	389.1603	18079.05	17273.3
810.0936	391.3474	18039.8	17204
810.2371	393.5339	17993.45	17186.25
810.3806	395.7199	17894.55	17095.5
810.5241	397.9052	17912.5	17114.7
810.6677	400.09	17911.45	17114.05
810.8113	402.2743	18044.6	17248.5
810.9548	404.4579	18149.8	17353.5
811.0984	406.641	18352.35	17556.45
811.2421	408.8235	18523.05	17728.6
811.3857	411.0054	18760.95	17960.25
811.5293	413.1868	19075.25	18275.05
811.673	415.3675	19254.95	18449.25
811.8166	417.5477	19354.05	18549.7
811.9603	419.7273	19337.6	18531.45
812.104	421.9064	19205.2	18393.25
812.2477	424.0848	19097.75	18287.15
812.3914	426.2627	18931.3	18117.25
812.5351	428.4399	18614.8	17803.1
812.6788	430.6166	18263.7	17443.75
812.8226	432.7928	17881.95	17065.9
812.9663	434.9683	17527.95	16712
813.1101	437.1432	17257.9	16433.95
813.2539	439.3176	17122.6	16303.4
813.3977	441.4914	16986.65	16166.05
813.5415	443.6645	16934.2	16112.35
813.6853	445.8371	16851.55	16028.8
813.8291	448.0091	16760	15936.3
813.973	450.1806	16737.45	15915.5
814.1168	452.3514	16677.7	15852.6
814.2607	454.5216	16710.5	15877.05
814.4046	456.6913	16613.9	15783.9
814.5485	458.8603	16633	15808.05
814.6924	461.0288	16696.45	15871.35
814.8363	463.1967	16668.9	15842.25
814.9802	465.3639	16740.3	15914.2
815.1241	467.5306	16769.05	15941.4
815.2681	469.6967	16814.15	15986
815.412	471.8622	16869.5	16042.45
815.556	474.0271	16958.55	16132.35
815.7	476.1914	17031.75	16202.4
815.844	478.3551	16995.25	16166.7
815.988	480.5182	17007.7	16177.65
816.132	482.6807	17056.35	16226.55
816.276	484.8426	17165.95	16338.5
816.4201	487.0039	17497.55	16667.65
816.5641	489.1647	17888.95	17057.05
816.7082	491.3248	18263.9	17435.95
816.8522	493.4843	18412.2	17582.65
816.9963	495.6432	18356.65	17523.05
817.1404	497.8015	18242.05	17409.65
817.2845	499.9592	18161.25	17331.4
817.4286	502.1163	17992.95	17161.15
817.5727	504.2728	17680.55	16844.8
817.7168	506.4287	17383.65	16548.3
817.861	508.5839	17033.85	16199.6
818.0051	510.7386	16718.95	15883.95
818.1493	512.8927	16569.25	15724.6
818.2935	515.0461	16472.6	15634.75
818.4377	517.199	16502.75	15666.65
818.5818	519.3512	16570.2	15734.9
818.726	521.5029	16710.15	15867.9
818.8703	523.6539	16867.35	16028.05
819.0145	525.8043	16935.25	16096.4
819.1587	527.9541	16887.4	16045
819.303	530.1033	16767	15925.45
819.4472	532.2519	16721.65	15882.3
819.5915	534.3999	16718.05	15875.2
819.7357	536.5472	16888.7	16049.75
819.88	538.694	17213	16372.55
820.0243	540.8401	17644.9	16802.4
820.1686	542.9856	18001.2	17156.7
820.3129	545.1305	18057.5	17214.65
820.4572	547.2748	17947.1	17102.45
820.6016	549.4185	17654.55	16809.85
820.7459	551.5615	17387.5	16543.35
820.8902	553.704	17278.4	16433.55
821.0346	555.8458	17291.75	16448.55
821.1789	557.987	17347.2	16502.75
821.3233	560.1276	17447.3	16599.8
821.4677	562.2675	17631.35	16785.75
821.6121	564.4069	17935.6	17090.95
821.7565	566.5456	18161.6	17318.15
821.9009	568.6837	18208.4	17365.45
822.0453	570.8212	17817.3	16973.8
822.1897	572.958	17283.95	16435.15
822.3342	575.0942	16760.6	15916.45
822.4786	577.2299	16419.4	15572.75
822.6231	579.3648	16294.3	15448.55
822.7675	581.4992	16271.15	15424.55
822.912	583.6329	16400.4	15554.95
823.0565	585.766	16605.3	15760.7
823.201	587.8985	16713	15868.65
823.3454	590.0304	16724.55	15852.1
823.4899	592.1616	16658.75	15806.45
823.6345	594.2922	16506.75	15658.6
823.779	596.4222	16317.05	15468.9
823.9235	598.5515	16091.55	15242.75
824.068	600.6802	15914.1	15063.8
824.2126	602.8083	15710.4	14861.85
824.3571	604.9358	15691	14840.1
824.5017	607.0626	15619.75	14769.2
824.6462	609.1888	15662.4	14813.65
824.7908	611.3144	15697.3	14848.75
824.9354	613.4393	15700.4	14852.65
825.08	615.5636	15676.75	14828.4
825.2246	617.6873	15639.65	14790.85
825.3692	619.8103	15555.65	14703.35
825.5138	621.9327	15388.95	14533.25
825.6584	624.0544	15262.6	14412.3
825.803	626.1756	15140.25	14287.95
825.9477	628.2961	15040.35	14185.3
826.0923	630.4159	14952.8	14100.65
826.237	632.5351	14896.85	14042.3
826.3816	634.6537	14813.45	13959.2
826.5263	636.7716	14851.4	13994
826.6709	638.8889	14829.15	13972.95
826.8156	641.0056	14825.9	13971.45
826.9603	643.1216	14786.65	13928.65
827.105	645.237	14806.25	13948.3
827.2497	647.3518	14717.55	13859.65
827.3944	649.4659	14674.9	13818.3
827.5391	651.5793	14649.6	13792.15
827.6838	653.6922	14609.95	13751.75
827.8285	655.8043	14565.15	13708.1
827.9733	657.9159	14539.05	13682.1
828.118	660.0268	14465.15	13605
828.2627	662.137	14440.4	13582.75
828.4075	664.2466	14408.1	13548.75
828.5522	666.3556	14396.65	13537.7
828.697	668.4639	14355.7	13494.35
828.8418	670.5716	14368.25	13509.5
828.9865	672.6786	14367	13507.4
829.1313	674.785	14318.95	13456.5
829.2761	676.8907	14320.7	13462.05
829.4209	678.9958	14388.8	13529.1
829.5657	681.1002	14339.95	13478.1
829.7105	683.204	14292.6	13427.7
829.8553	685.3072	14254.45	13394
830.0001	687.4097	14197.75	13337.45
830.1449	689.5115	14177.25	13312.15
830.2898	691.6127	14118.5	13255.7
830.4346	693.7132	14086	13221.6
830.5794	695.8131	14072.15	13198.1
830.7243	697.9123	14036.8	13175.2
830.8691	700.0109	14003.6	13139.45
831.014	702.1089	13956.6	13096.65
831.1588	704.2061	13974.95	13113.1
831.3037	706.3028	14040.05	13174.05
831.4486	708.3987	14053.55	13186.4
831.5935	710.4941	14106	13241.05
831.7383	712.5887	14207.9	13343.7
831.8832	714.6827	14411.85	13543.3
832.0281	716.7761	14624.5	13759.25
832.173	718.8688	14881.9	14015.1
832.3179	720.9608	15067.95	14198.1
832.4628	723.0522	15130.2	14260.15
832.6077	725.1429	15078.7	14214.55
832.7527	727.233	14947.55	14083.2
832.8976	729.3224	14878.55	14011.45
833.0425	731.4112	14656.1	13790.45
833.1874	733.4993	14474.9	13603.85
833.3324	735.5867	14241.25	13374.1
833.4773	737.6735	14047.85	13178.9
833.6222	739.7596	13894.5	13025.05
833.7672	741.845	13783.05	12916.15
833.9122	743.9298	13698.05	12827.1
834.0571	746.014	13661.1	12794.95
834.2021	748.0974	13636.95	12768.6
834.347	750.1802	13661.4	12793.15
834.492	752.2624	13654.85	12786
834.637	754.3439	13688.15	12817.35
834.782	756.4247	13778.9	12901.4
834.9269	758.5048	13901.85	13032.8
835.0719	760.5843	14146.2	13276.6
835.2169	762.6631	14522.35	13656.05
835.3619	764.7413	15069.2	14200.45
835.5069	766.8188	15726.25	14857.5
835.6519	768.8956	16246.2	15375.45
835.7969	770.9718	16554.05	15683.55
835.9419	773.0473	16438.65	15572.1
836.0869	775.1221	16128.05	15257.65
836.232	777.1962	15777.95	14907.8
836.377	779.2697	15638.05	14765.55
836.522	781.3426	15646.45	14766.75
836.667	783.4147	15792.35	14920.1
836.8121	785.4862	15972	15103.6
836.9571	787.557	15885.2	15013
837.1021	789.6271	15451.55	14580.95
837.2472	791.6966	14838.45	13968.45
837.3922	793.7654	14224.1	13353.95
837.5373	795.8335	13822.15	12952.85
837.6823	797.901	13551.9	12684.9
837.8274	799.9678	13419.6	12546.05
837.9724	802.0339	13347.95	12477.85
838.1175	804.0993	13322.45	12440.1
838.2626	806.1641	13296	12426
838.4076	808.2282	13226.7	12354.8
838.5527	810.2916	13128.5	12253.85
838.6978	812.3544	13019.1	12145.4
838.8428	814.4164	12934.75	12063.05
838.9879	816.4778	12930.65	12057.8
839.133	818.5385	12969.05	12097.1
839.2781	820.5986	13053	12181.25
839.4232	822.658	13221.1	12350.25
839.5682	824.7166	13453.2	12581.25
839.7133	826.7747	13833.85	12963.8
839.8584	828.832	14178.75	13306
840.0035	830.8886	14426.05	13548.7
840.1486	832.9446	14598.35	13721.65
840.2937	834.9999	14527.5	13655.4
840.4388	837.0545	14367.25	13489.45
840.5839	839.1085	14161.2	13285.85
840.729	841.1618	13967.65	13089.55
840.8741	843.2143	13762.65	12889.15
841.0192	845.2662	13628.75	12755.3
841.1643	847.3175	13504	12631.15
841.3095	849.368	13356.15	12483.1
841.4546	851.4179	13212.4	12337.7
841.5997	853.467	13076.25	12203.3
841.7448	855.5155	12984.95	12109.95
841.8899	857.5633	12883.25	12009.8
842.0351	859.6105	12742.8	11868.65
842.1802	861.6569	12668.55	11793.9
842.3253	863.7027	12599.3	11722.95
842.4704	865.7478	12577.6	11700.4
842.6156	867.7922	12535.9	11660.05
842.7607	869.8359	12529.65	11654.1
842.9058	871.8789	12590.15	11713.35
843.0509	873.9212	12718.8	11809.4
843.1961	875.9629	12799.15	11922.65
843.3412	878.0039	12916.85	12040.35
843.4863	880.0441	13036.35	12160.45
843.6315	882.0837	13058.25	12182.5
843.7766	884.1226	13024.6	12146.1
843.9218	886.1609	12973.4	12099.45
844.0669	888.1984	12969.3	12092.75
844.212	890.2352	13004.3	12130.55
844.3572	892.2714	13018.05	12139.3
844.5023	894.3069	12936.7	12059.95
844.6475	896.3416	12804.6	11926.1
844.7926	898.3757	12720.95	11846.2
844.9377	900.4091	12644.15	11767.6
845.0829	902.4418	12620.05	11738.15
845.228	904.4739	12662.8	11785.95
845.3732	906.5052	12644.9	11768.5
845.5183	908.5358	12557.75	11680.8
845.6635	910.5658	12437.45	11558.4
845.8086	912.595	12246.05	11369.9
845.9538	914.6236	12000.55	11123.65
846.0989	916.6515	11920.65	11045.25
846.2441	918.6786	11861.4	10980.75
846.3892	920.7051	11885.15	11004.7
846.5344	922.7309	11943.1	11065.1
846.6795	924.756	11928.2	11048.65
846.8246	926.7804	12019.45	11138.45
846.9698	928.8041	11998.65	11120.05
847.1149	930.8272	12021	11143
847.2601	932.8495	11984.35	11107
847.4052	934.8711	11924.3	11045.2
847.5504	936.892	11859.95	10981.1
847.6955	938.9123	11771	10893.55
847.8407	940.9318	11674.4	10792.55
847.9858	942.9506	11595.05	10716.9
848.131	944.9688	11533.9	10653.1
848.2761	946.9862	11445.8	10568.2
848.4213	949.003	11327.85	10448.6
848.5664	951.019	11268.4	10387.55
848.7115	953.0344	11210.15	10329.5
848.8567	955.0491	11211.75	10332.7
849.0018	957.063	11261.7	10384.6
849.147	959.0763	11337.5	10458.5
849.2921	961.0888	11365.25	10483.95
849.4373	963.1007	11440.55	10559.05
849.5824	965.1119	11473.95	10594.5
849.7275	967.1223	11458.4	10580.55
849.8727	969.1321	11441.3	10563.35
850.0178	971.1412	11436.25	10557.2
850.1629	973.1495	11465.8	10585.85
850.3081	975.1572	11445.4	10532.1
850.4532	977.1641	11474.35	10593.7
850.5983	979.1704	11419.45	10541.55
850.7435	981.1759	11413.7	10531.2
850.8886	983.1808	11435.75	10553.9
851.0337	985.1849	11491.05	10601.35
851.1788	987.1884	11565.15	10681.25
851.324	989.1911	11674.9	10791.75
851.4691	991.1932	11779.4	10899.6
851.6142	993.1945	11811.3	10931.2
851.7593	995.1951	11753.3	10873.55
851.9045	997.1951	11739.5	10856.55
852.0496	999.1943	11692.7	10814.3
852.1947	1001.1928	11619.8	10740.65
852.3398	1003.1906	11646.9	10764.85
852.4849	1005.1877	11730.95	10850.15
852.63	1007.1841	11741.1	10860.5
852.7751	1009.1798	11735.7	10855.15
852.9202	1011.1748	11606.15	10727
853.0653	1013.1691	11411.45	10528.35
853.2104	1015.1627	11178.2	10297.4
853.3555	1017.1556	10968.8	10089.65
853.5006	1019.1477	10840.75	9960.05
853.6457	1021.1392	10730.55	9851.35
853.7908	1023.1299	10672.2	9789.4
853.9359	1025.12	10710.05	9826.95
854.081	1027.1093	10784.15	9902.4
854.2261	1029.0979	10849.8	9968.7
854.3712	1031.0859	10923.05	10041.15
854.5163	1033.0731	10929.55	10046.6
854.6613	1035.0596	10848.75	9969.25
854.8064	1037.0454	10727.3	9844.9
854.9515	1039.0304	10603.95	9723
855.0965	1041.0148	10449.1	9567.5
855.2416	1042.9985	10363.75	9482.85
855.3867	1044.9814	10297.85	9419.45
855.5317	1046.9636	10235	9349.95
855.6768	1048.9452	10235.35	9357.4
855.8219	1050.926	10255.25	9373.45
855.9669	1052.9061	10232.4	9351.25
856.112	1054.8855	10251.75	9370.5
856.257	1056.8642	10281.25	9398.85
856.4021	1058.8421	10328.15	9445.55
856.5471	1060.8194	10349.1	9466
856.6921	1062.7959	10373	9492.55
856.8372	1064.7717	10412.95	9531.65
856.9822	1066.7469	10446.15	9563.1
857.1272	1068.7213	10493.15	9608.7
857.2723	1070.695	10523.4	9644.65
857.4173	1072.6679	10506.75	9621.35
857.5623	1074.6402	10473.1	9589.7
857.7073	1076.6117	10467	9581.2
857.8523	1078.5826	10364.9	9483.15
857.9973	1080.5527	10309.2	9425.75
858.1423	1082.5221	10316.15	9434.65
858.2873	1084.4908	10334.1	9453.3
858.4323	1086.4587	10458.65	9575.3
858.5773	1088.426	10533.6	9651.6
858.7223	1090.3925	10556.25	9669.25
858.8673	1092.3584	10539.35	9657.3
859.0123	1094.3235	10456.6	9575.45
859.1573	1096.2879	10460.3	9578.3
859.3022	1098.2515	10507.9	9626.65
859.4472	1100.2145	10642.45	9760.35
859.5922	1102.1767	10769.55	9884.25
859.7371	1104.1382	10967.1	10085.8
859.8821	1106.099	11177.6	10292.8
860.027	1108.0591	11423.5	10541.9
860.172	1110.0185	11584.8	10702.7
860.3169	1111.9771	11656.65	10776.15
860.4619	1113.9351	11480.85	10598.65
860.6068	1115.8923	11254.2	10367.5
860.7517	1117.8488	11017.5	10130.35
860.8967	1119.8045	10775.7	9895.25
861.0416	1121.7596	10639.85	9755.15
861.1865	1123.7139	10528.15	9647.05
861.3314	1125.6675	10521.95	9637.9
861.4763	1127.6204	10567.55	9686.4
861.6212	1129.5726	10516.85	9632.15
861.7661	1131.524	10420.95	9537.85
861.911	1133.4748	10351.55	9468.6
862.0559	1135.4248	10225.95	9339.6
862.2008	1137.3741	10139.75	9256.45
862.3457	1139.3226	10057.15	9171.4
862.4905	1141.2705	9968.65	9085.1
862.6354	1143.2176	9864.25	8975.55
862.7803	1145.164	9843.6	8959
862.9251	1147.1097	9811.8	8931.15
863.07	1149.0546	9762.75	8879.65
863.2148	1150.9989	9639.6	8754.2
863.3597	1152.9424	9515.45	8633.4
863.5045	1154.8852	9393.15	8509.35
863.6493	1156.8272	9300.85	8417.7
863.7942	1158.7686	9294.4	8404.05
863.939	1160.7092	9269.35	8384.6
864.0838	1162.6491	9297.6	8413.8
864.2286	1164.5883	9389.8	8507.1
864.3734	1166.5267	9480.6	8595.8
864.5182	1168.4644	9624.05	8744.25
864.663	1170.4014	9834.35	8950.8
864.8078	1172.3377	10089.2	9208.25
864.9526	1174.2732	10355.4	9473.05
865.0974	1176.2081	10698.9	9816.1
865.2421	1178.1421	11084.25	10197.25
865.3869	1180.0755	11455.6	10571.7
865.5317	1182.0082	11710.35	10825.95
865.6764	1183.9401	11838.4	10954.3
865.8212	1185.8713	11714.95	10832.4
