Software Version:	3.9.2.0
Unit SN:	10000200
Spectrometer SN:	6960
Date:	3/14/2024 2:08:36 PM
Data Line Index:	25
Spectral Points:	2048
Integration time (ms):	125
Averages:	20
Delay (ms):	30000
Sequence Number:	1
Processing:	dark subtract
Laser Power (mW):	295
Laser Current (mA):	825
Laser Diode Temp (C):	25.1
Laser Case Temp (C):	29
System Temp (C):	29
Spectrometer Temp (C):	26.8
CCD Temp (C):	0.013
Secondary Temp (C):	20.007
Heatsink Temp (C):	24.908
CCDPCB Temp (C):	38.319
SecondaryPCB Temp (C):	35.884

Wavelength	RamanShift	Raw Counts	Dark Subtracted
787.061	30.1047	448.45	36.5
787.2016	32.3739	446.25	35.7
787.3422	34.6426	451.1	41.6
787.4828	36.9109	456.7	44.8
787.6235	39.1787	463.95	47.75
787.7642	41.4461	472.9	51.5
787.9049	43.7131	480.3	54.95
788.0456	45.9796	488.35	61.15
788.1863	48.2456	498.1	65.85
788.3271	50.5112	505.15	68.65
788.4679	52.7764	512.3	73.25
788.6087	55.0411	519.2	78
788.7496	57.3054	533.15	85.9
788.8904	59.5692	540.85	91.1
789.0313	61.8326	553.55	98.7
789.1722	64.0955	562.7	104.7
789.3132	66.3579	575.8	113.9
789.4541	68.6199	591.15	126.7
789.5951	70.8815	619.9	151
789.7361	73.1426	673.5	201
789.8771	75.4032	830.55	353.35
790.0181	77.6634	1208.15	724.4
790.1592	79.9231	2087	1600.1
790.3003	82.1824	4015	3516.8
790.4414	84.4412	7583.3	7067.4
790.5825	86.6995	12610.4	12073.7
790.7237	88.9574	17697.4	17141.05
790.8648	91.2148	21386.5	20815
791.006	93.4717	23195.55	22614.95
791.1472	95.7282	23690.6	23103.7
791.2885	97.9842	23734.1	23148.7
791.4297	100.2398	23352.15	22759.7
791.571	102.4949	22906.6	22310.35
791.7123	104.7495	22307.85	21711.05
791.8536	107.0036	21681.2	21080.9
791.9949	109.2573	20974.15	20376.7
792.1363	111.5105	20376.7	19775.8
792.2777	113.7632	19732	19129.8
792.4191	116.0154	19122.5	18507.35
792.5605	118.2672	18732.6	18130.35
792.7019	120.5185	18279.55	17674.7
792.8434	122.7693	17942	17333.3
792.9849	125.0197	17690.75	17078.6
793.1264	127.2696	17463.3	16849.85
793.2679	129.519	17292.8	16674.2
793.4094	131.7679	17157.1	16536.7
793.551	134.0163	17063.45	16437.95
793.6926	136.2642	16940.5	16310.8
793.8342	138.5117	16780.9	16139.8
793.9758	140.7587	16645.6	16011.4
794.1175	143.0052	16533.6	15900.65
794.2591	145.2512	16359.65	15727.15
794.4008	147.4967	16150.25	15515.15
794.5425	149.7417	16095.6	15459.75
794.6842	151.9863	15982.85	15343.65
794.826	154.2304	15916.75	15271.4
794.9677	156.4739	15819.1	15170.25
795.1095	158.717	15740.3	15093.3
795.2513	160.9596	15609.15	14952.25
795.3931	163.2017	15408.55	14752.85
795.535	165.4433	15142.25	14485.8
795.6768	167.6844	14879.55	14219.85
795.8187	169.925	14618.05	13954.75
795.9606	172.1651	14282.15	13616.8
796.1025	174.4047	14024.55	13355.35
796.2445	176.6439	13780.05	13109.9
796.3864	178.8825	13530	12857.6
796.5284	181.1206	13423.15	12745.6
796.6704	183.3582	13250.6	12570.5
796.8124	185.5954	13150.5	12466.2
796.9544	187.832	13055.7	12369
797.0965	190.0681	13036.7	12348.9
797.2386	192.3037	13009.45	12320.5
797.3806	194.5388	12980.75	12287.3
797.5228	196.7734	13001.05	12307.35
797.6649	199.0075	13037.1	12337.65
797.807	201.2411	13138.15	12438.1
797.9492	203.4742	13176.05	12472.9
798.0914	205.7068	13293.05	12589.3
798.2336	207.9389	13363.3	12662.15
798.3758	210.1704	13451.6	12746.95
798.518	212.4015	13556.95	12848
798.6603	214.632	13684.05	12975.3
798.8025	216.862	13838.75	13136.45
798.9448	219.0915	13981	13284.9
799.0871	221.3205	14185.85	13491.6
799.2294	223.549	14441.35	13755
799.3718	225.777	14718	14031.7
799.5141	228.0044	15102.1	14412.3
799.6565	230.2314	15520.9	14831.2
799.7989	232.4578	15939.65	15251.8
799.9413	234.6837	16280.85	15584
800.0837	236.909	16500.65	15804.05
800.2262	239.1339	16443	15722.3
800.3687	241.3582	16206.15	15499.95
800.5111	243.582	15841.4	15110.2
800.6536	245.8053	15477.4	14754.75
800.7961	248.0281	15113.7	14396.75
800.9387	250.2503	14848.05	14124.4
801.0812	252.472	14669.1	13937.45
801.2238	254.6932	14558.6	13828.1
801.3664	256.9139	14412.8	13678.05
801.509	259.134	14312.75	13571.55
801.6516	261.3536	14226.2	13491
801.7942	263.5727	14191.4	13455.8
801.9369	265.7912	14067.7	13333.45
802.0795	268.0092	14002.45	13267.55
802.2222	270.2267	13922.2	13181.45
802.3649	272.4436	13841.35	13103.05
802.5076	274.6601	13803.8	13057.55
802.6504	276.8759	13763.5	13021
802.7931	279.0913	13745.25	13005.55
802.9359	281.3061	13776.3	13031.9
803.0787	283.5204	13851.75	13106.1
803.2215	285.7341	13946.65	13197.3
803.3643	287.9473	14139.4	13374.8
803.5071	290.16	14365.45	13605.9
803.6499	292.3721	14629.65	13877.4
803.7928	294.5837	15022.9	14268.75
803.9357	296.7947	15334.65	14582.6
804.0786	299.0052	15508.9	14755.2
804.2215	301.2152	15355.7	14600.5
804.3644	303.4246	15030.65	14279.65
804.5074	305.6334	14509.7	13754.75
804.6503	307.8418	14038.15	13284.1
804.7933	310.0495	13673.2	12917
804.9363	312.2568	13421.25	12662.75
805.0793	314.4635	13265.3	12506.8
805.2223	316.6696	13180.95	12423.65
805.3653	318.8752	13203.3	12435.1
805.5084	321.0802	13276.35	12517.35
805.6514	323.2847	13369.95	12612.3
805.7945	325.4887	13382.35	12620
805.9376	327.692	13323.8	12561.65
806.0807	329.8949	13228.6	12465.6
806.2238	332.0972	12982	12216
806.367	334.2989	12750.8	11981.7
806.5101	336.5001	12469.3	11702.5
806.6533	338.7007	12299.45	11529.95
806.7965	340.9008	12186.45	11416.35
806.9397	343.1003	12110.1	11339.3
807.0829	345.2992	12067.4	11294.1
807.2261	347.4976	12008.35	11234.55
807.3693	349.6955	12008.4	11230.85
807.5126	351.8927	12062.75	11284.2
807.6559	354.0895	12076.45	11287.1
807.7991	356.2856	12109.55	11329.8
807.9424	358.4812	12074.05	11294.05
808.0857	360.6763	12066.4	11285.55
808.2291	362.8707	12065.15	11285
808.3724	365.0646	12052.85	11267.1
808.5158	367.258	12061.9	11274.15
808.6591	369.4508	12039.75	11250.6
808.8025	371.643	12070.95	11282.2
808.9459	373.8346	12057.65	11265.2
809.0893	376.0257	12004.2	11207.45
809.2327	378.2162	11921.65	11126.95
809.3762	380.4062	11830.75	11033.65
809.5196	382.5956	11688.8	10888.1
809.6631	384.7844	11576.8	10777.75
809.8066	386.9726	11516.75	10716.4
809.9501	389.1603	11460.3	10663.5
810.0936	391.3474	11446.8	10609.8
810.2371	393.5339	11396.95	10599.75
810.3806	395.7199	11337	10544.2
810.5241	397.9052	11351.95	10560.9
810.6677	400.09	11338.85	10548.5
810.8113	402.2743	11358.15	10569.95
810.9548	404.4579	11402.4	10614.05
811.0984	406.641	11536.15	10741.9
811.2421	408.8235	11696.75	10906.4
811.3857	411.0054	12001.35	11208.7
811.5293	413.1868	12423.95	11629.8
811.673	415.3675	12733.7	11937.05
811.8166	417.5477	12928.75	12133.7
811.9603	419.7273	12940.25	12141.3
812.104	421.9064	12849.1	12043.3
812.2477	424.0848	12714.15	11911.75
812.3914	426.2627	12531	11727.15
812.5351	428.4399	12257.1	11448.4
812.6788	430.6166	11948	11137.75
812.8226	432.7928	11646.65	10837.15
812.9663	434.9683	11358.55	10546.9
813.1101	437.1432	11148	10334.15
813.2539	439.3176	11006.45	10194.3
813.3977	441.4914	10911.55	10098.85
813.5415	443.6645	10876.2	10058.45
813.6853	445.8371	10817.8	10003.8
813.8291	448.0091	10741.1	9923.75
813.973	450.1806	10694.1	9878.35
814.1168	452.3514	10645.5	9830.1
814.2607	454.5216	10631.5	9807.55
814.4046	456.6913	10560.55	9741.6
814.5485	458.8603	10594.4	9776.3
814.6924	461.0288	10623.9	9805.55
814.8363	463.1967	10635.95	9817.7
814.9802	465.3639	10772.45	9952.7
815.1241	467.5306	10866.05	10050.05
815.2681	469.6967	10984.3	10168.5
815.412	471.8622	11163.15	10343.95
815.556	474.0271	11296.8	10477.5
815.7	476.1914	11364.05	10540.55
815.844	478.3551	11294.55	10474.75
815.988	480.5182	11267.4	10442
816.132	482.6807	11191.35	10367.85
816.276	484.8426	11251.55	10429.7
816.4201	487.0039	11454.35	10632.5
816.5641	489.1647	11745.6	10921.45
816.7082	491.3248	12150.3	11326.9
816.8522	493.4843	12328.5	11506.55
816.9963	495.6432	12344.95	11520.6
817.1404	497.8015	12279.7	11451.8
817.2845	499.9592	12310.3	11489.15
817.4286	502.1163	12265.3	11441.85
817.5727	504.2728	12061.8	11234.05
817.7168	506.4287	11847.9	11022.45
817.861	508.5839	11440.1	10613.8
818.0051	510.7386	11154.2	10326.35
818.1493	512.8927	10959.4	10123.7
818.2935	515.0461	10800.85	9971.7
818.4377	517.199	10704.5	9879.25
818.5818	519.3512	10634	9805.9
818.726	521.5029	10616.15	9781.8
818.8703	523.6539	10611.1	9778.75
819.0145	525.8043	10619.2	9787.95
819.1587	527.9541	10657.8	9824
819.303	530.1033	10674.6	9839.1
819.4472	532.2519	10750.75	9915.7
819.5915	534.3999	10889.85	10051.35
819.7357	536.5472	11156.7	10323.85
819.88	538.694	11580.95	10746.8
820.0243	540.8401	12154.05	11320.8
820.1686	542.9856	12606.35	11766.45
820.3129	545.1305	12753	11915.4
820.4572	547.2748	12616.4	11779.45
820.6016	549.4185	12248.2	11406.85
820.7459	551.5615	11895.4	11056.8
820.8902	553.704	11730.65	10892.1
821.0346	555.8458	11622.35	10786.9
821.1789	557.987	11561.8	10725.4
821.3233	560.1276	11473.65	10635.85
821.4677	562.2675	11347.75	10511.2
821.6121	564.4069	11247.05	10412.45
821.7565	566.5456	11108.7	10270.9
821.9009	568.6837	10964.05	10126.5
822.0453	570.8212	10782.5	9943.55
822.1897	572.958	10619.2	9782.3
822.3342	575.0942	10460.45	9627.3
822.4786	577.2299	10395.7	9558.9
822.6231	579.3648	10370.5	9531.3
822.7675	581.4992	10481.75	9642.55
822.912	583.6329	10658.4	9820.65
823.0565	585.766	10848.3	10008.8
823.201	587.8985	10980.05	10140.15
823.3454	590.0304	10972.85	10123.9
823.4899	592.1616	10901.7	10060
823.6345	594.2922	10827.2	9989.3
823.779	596.4222	10695.3	9854.6
823.9235	598.5515	10540.5	9699.2
824.068	600.6802	10388.9	9548.95
824.2126	602.8083	10256.7	9414.35
824.3571	604.9358	10188.6	9342.4
824.5017	607.0626	10109.85	9266.55
824.6462	609.1888	10010.7	9168.2
824.7908	611.3144	9922	9077.45
824.9354	613.4393	9763.65	8918.9
825.08	615.5636	9640.5	8796.95
825.2246	617.6873	9528.35	8685.6
825.3692	619.8103	9454.05	8608.05
825.5138	621.9327	9406.75	8561.75
825.6584	624.0544	9393.45	8546.1
825.803	626.1756	9385.75	8540.75
825.9477	628.2961	9366.4	8520.2
826.0923	630.4159	9326.7	8480.9
826.237	632.5351	9282.45	8434.35
826.3816	634.6537	9196.15	8348.55
826.5263	636.7716	9157.35	8306.7
826.6709	638.8889	9157.35	8309.45
826.8156	641.0056	9205	8358
826.9603	643.1216	9158.85	8309.2
827.105	645.237	9190.05	8339.65
827.2497	647.3518	9197.4	8347.9
827.3944	649.4659	9234.9	8386.9
827.5391	651.5793	9211.15	8362.05
827.6838	653.6922	9203.85	8353.05
827.8285	655.8043	9158.85	8307.25
827.9733	657.9159	9125.05	8274.05
828.118	660.0268	9039.75	8185.15
828.2627	662.137	8993.15	8141.3
828.4075	664.2466	8962.7	8111.4
828.5522	666.3556	8920.5	8070.75
828.697	668.4639	8910.2	8054
828.8418	670.5716	8950.95	8095.8
828.9865	672.6786	9016	8162.85
829.1313	674.785	9074.9	8222.25
829.2761	676.8907	9120.6	8266.75
829.4209	678.9958	9210.4	8357.25
829.5657	681.1002	9191.05	8337.6
829.7105	683.204	9150.05	8295.45
829.8553	685.3072	9118.6	8260.45
830.0001	687.4097	9032.45	8178.45
830.1449	689.5115	8952.05	8093.75
830.2898	691.6127	8886.8	8033.75
830.4346	693.7132	8810.6	7953.85
830.5794	695.8131	8767.3	7887.9
830.7243	697.9123	8695.05	7838.95
830.8691	700.0109	8663.65	7805.65
831.014	702.1089	8636.15	7778.2
831.1588	704.2061	8631.7	7776.3
831.3037	706.3028	8663.4	7804.65
831.4486	708.3987	8690.65	7835.45
831.5935	710.4941	8760.45	7903.3
831.7383	712.5887	8905	8046.3
831.8832	714.6827	9187.15	8326.55
832.0281	716.7761	9498.05	8640.85
832.173	718.8688	9849.4	8989.6
832.3179	720.9608	10019.1	9156.65
832.4628	723.0522	10000.55	9140.8
832.6077	725.1429	9775.9	8917.7
832.7527	727.233	9438.4	8578.1
832.8976	729.3224	9126.15	8264.2
833.0425	731.4112	8853.1	7991.95
833.1874	733.4993	8669.05	7808.15
833.3324	735.5867	8557.45	7697.95
833.4773	737.6735	8493.35	7629.35
833.6222	739.7596	8444.25	7581.45
833.7672	741.845	8428.4	7569.6
833.9122	743.9298	8411.95	7547.2
834.0571	746.014	8408.35	7549.8
834.2021	748.0974	8411.9	7549.9
834.347	750.1802	8403.2	7539.45
834.492	752.2624	8380.65	7521.9
834.637	754.3439	8410.8	7547.5
834.782	756.4247	8449.15	7576.9
834.9269	758.5048	8497.1	7635
835.0719	760.5843	8633.95	7770
835.2169	762.6631	8865.2	8003.3
835.3619	764.7413	9180.3	8318.6
835.5069	766.8188	9633.7	8767.1
835.6519	768.8956	10035.05	9168.85
835.7969	770.9718	10263.45	9399.9
835.9419	773.0473	10171.6	9311.95
836.0869	775.1221	9877.8	9012.45
836.232	777.1962	9550.75	8686.35
836.377	779.2697	9400.65	8535.5
836.522	781.3426	9459.55	8584.75
836.667	783.4147	9687.5	8822.3
836.8121	785.4862	9963.8	9098.85
836.9571	787.557	9979.25	9114.85
837.1021	789.6271	9691.9	8827.15
837.2472	791.6966	9238.3	8374.45
837.3922	793.7654	8798.65	7933.2
837.5373	795.8335	8548.9	7682.45
837.6823	797.901	8385.7	7521.45
837.8274	799.9678	8353.7	7487.1
837.9724	802.0339	8358.8	7493.3
838.1175	804.0993	8385.4	7510.95
838.2626	806.1641	8363.9	7497.55
838.4076	808.2282	8322.9	7458.6
838.5527	810.2916	8249.2	7380.8
838.6978	812.3544	8140.7	7275.85
838.8428	814.4164	8073.25	7208.9
838.9879	816.4778	8037.2	7170.6
839.133	818.5385	8001	7136.25
839.2781	820.5986	8064.25	7198.85
839.4232	822.658	8093.85	7225.6
839.5682	824.7166	8108.7	7242.05
839.7133	826.7747	8204.75	7339.25
839.8584	828.832	8288.95	7423.45
840.0035	830.8886	8330.45	7461.1
840.1486	832.9446	8449.7	7581.85
840.2937	834.9999	8530.55	7664.95
840.4388	837.0545	8602.1	7731.8
840.5839	839.1085	8646.75	7779.45
840.729	841.1618	8661.6	7792.35
840.8741	843.2143	8657.75	7788.55
841.0192	845.2662	8598.75	7731.4
841.1643	847.3175	8532.05	7664.8
841.3095	849.368	8437	7568.5
841.4546	851.4179	8329.85	7463.3
841.5997	853.467	8209.1	7340.55
841.7448	855.5155	8116.3	7246.1
841.8899	857.5633	8014.25	7147.1
842.0351	859.6105	7905.45	7037.85
842.1802	861.6569	7851.95	6983.85
842.3253	863.7027	7787.3	6917.45
842.4704	865.7478	7757.8	6887.95
842.6156	867.7922	7775.1	6906.9
842.7607	869.8359	7826.9	6957.9
842.9058	871.8789	7910.55	7040.5
843.0509	873.9212	8092.05	7187.05
843.1961	875.9629	8207.75	7339.4
843.3412	878.0039	8350.7	7478.35
843.4863	880.0441	8427.95	7559.15
843.6315	882.0837	8393.35	7521.6
843.7766	884.1226	8289.35	7418.4
843.9218	886.1609	8128.8	7258.35
844.0669	888.1984	8030	7161.2
844.212	890.2352	7966.7	7099.1
844.3572	892.2714	7928.15	7053.7
844.5023	894.3069	7896.45	7023
844.6475	896.3416	7820.5	6948.35
844.7926	898.3757	7795.9	6925.65
844.9377	900.4091	7815.7	6944
845.0829	902.4418	7810.8	6934.25
845.228	904.4739	7825.2	6952.35
845.3732	906.5052	7802.1	6930.6
845.5183	908.5358	7696.05	6828.45
845.6635	910.5658	7576.85	6705.15
845.8086	912.595	7428.55	6557.65
845.9538	914.6236	7322.65	6448.95
846.0989	916.6515	7301.95	6431.2
846.2441	918.6786	7315.15	6442.1
846.3892	920.7051	7335.4	6463.65
846.5344	922.7309	7442.3	6572.25
846.6795	924.756	7493.45	6622.55
846.8246	926.7804	7563.75	6689.3
846.9698	928.8041	7529.25	6657.4
847.1149	930.8272	7528.95	6656.3
847.2601	932.8495	7466.3	6593.2
847.4052	934.8711	7423.9	6549.05
847.5504	936.892	7281.35	6406.7
847.6955	938.9123	7131.35	6259.7
847.8407	940.9318	7007.5	6135.75
847.9858	942.9506	6880.2	6005.85
848.131	944.9688	6820.5	5947.9
848.2761	946.9862	6780.2	5908.55
848.4213	949.003	6759.6	5886.4
848.5664	951.019	6756.25	5884.7
848.7115	953.0344	6763.7	5889.4
848.8567	955.0491	6802.1	5927.4
849.0018	957.063	6861.65	5988.6
849.147	959.0763	6940.45	6066.9
849.2921	961.0888	6963.2	6088.15
849.4373	963.1007	7022.4	6146.45
849.5824	965.1119	7057.3	6182.1
849.7275	967.1223	7080.5	6206.45
849.8727	969.1321	7109.7	6236.9
850.0178	971.1412	7128.8	6254.15
850.1629	973.1495	7152.7	6278.65
850.3081	975.1572	7233.7	6310.5
850.4532	977.1641	7188.25	6316.8
850.5983	979.1704	7178	6303.5
850.7435	981.1759	7157.9	6281.2
850.8886	983.1808	7201.5	6326.45
851.0337	985.1849	7317.75	6431
851.1788	987.1884	7441.4	6564.15
851.324	989.1911	7580.4	6702.2
851.4691	991.1932	7712.55	6835.4
851.6142	993.1945	7746.45	6873.55
851.7593	995.1951	7740.15	6864.8
851.9045	997.1951	7683.7	6803.75
852.0496	999.1943	7614	6738.8
852.1947	1001.1928	7587.9	6711.85
852.3398	1003.1906	7564.5	6690.35
852.4849	1005.1877	7589.05	6712.8
852.63	1007.1841	7526.3	6651.45
852.7751	1009.1798	7464.7	6589.95
852.9202	1011.1748	7284.55	6410.75
853.0653	1013.1691	7122.8	6248.75
853.2104	1015.1627	6949.95	6074.75
853.3555	1017.1556	6774.1	5897.75
853.5006	1019.1477	6731.8	5853.9
853.6457	1021.1392	6672.2	5797.5
853.7908	1023.1299	6670.05	5792.4
853.9359	1025.12	6698.15	5820.3
854.081	1027.1093	6718.9	5844.05
854.2261	1029.0979	6802	5928.75
854.3712	1031.0859	6844.95	5968.35
854.5163	1033.0731	6816.55	5939.55
854.6613	1035.0596	6745.4	5869.45
854.8064	1037.0454	6646.75	5771.6
854.9515	1039.0304	6536.3	5660.45
855.0965	1041.0148	6451.45	5577.4
855.2416	1042.9985	6352.25	5475.7
855.3867	1044.9814	6325.7	5448.4
855.5317	1046.9636	6293.75	5416.05
855.6768	1048.9452	6272.35	5399.25
855.8219	1050.926	6281	5405.9
855.9669	1052.9061	6255.6	5382.05
856.112	1054.8855	6265.05	5387.1
856.257	1056.8642	6287.6	5412.4
856.4021	1058.8421	6319.9	5439.2
856.5471	1060.8194	6314.25	5436.9
856.6921	1062.7959	6337.75	5460.55
856.8372	1064.7717	6360.85	5481.2
856.9822	1066.7469	6330.55	5453.3
857.1272	1068.7213	6310.6	5433.15
857.2723	1070.695	6285.95	5409.8
857.4173	1072.6679	6230.25	5355.2
857.5623	1074.6402	6198.05	5322.2
857.7073	1076.6117	6173.3	5291.05
857.8523	1078.5826	6183.05	5305.05
857.9973	1080.5527	6256.8	5378.4
858.1423	1082.5221	6378.85	5500.75
858.2873	1084.4908	6553.55	5675.65
858.4323	1086.4587	6746.05	5869.9
858.5773	1088.426	6843.8	5966.4
858.7223	1090.3925	6859.05	5976.75
858.8673	1092.3584	6809.05	5933.35
859.0123	1094.3235	6647.85	5772.8
859.1573	1096.2879	6552.9	5675.15
859.3022	1098.2515	6512.2	5632.85
859.4472	1100.2145	6532.15	5658
859.5922	1102.1767	6582.8	5702.45
859.7371	1104.1382	6684.55	5807.35
859.8821	1106.099	6864.5	5983.7
860.027	1108.0591	7020.35	6142.7
860.172	1110.0185	7123.85	6245.65
860.3169	1111.9771	7113.25	6233.85
860.4619	1113.9351	6937.55	6060.9
860.6068	1115.8923	6658.8	5780.5
860.7517	1117.8488	6380.8	5501.45
860.8967	1119.8045	6159.7	5280.85
861.0416	1121.7596	6034.5	5156.65
861.1865	1123.7139	5969.6	5090.9
861.3314	1125.6675	5977.4	5100.5
861.4763	1127.6204	6033.25	5155.15
861.6212	1129.5726	6058	5178.5
861.7661	1131.524	6087.35	5208.2
861.911	1133.4748	6089.35	5210.65
862.0559	1135.4248	6151.35	5271.75
862.2008	1137.3741	6154.7	5276.95
862.3457	1139.3226	6142.45	5262.7
862.4905	1141.2705	6122.25	5245.1
862.6354	1143.2176	6073.4	5193.25
862.7803	1145.164	6080.65	5201.05
862.9251	1147.1097	6103.4	5227.05
863.07	1149.0546	6099.3	5220.35
863.2148	1150.9989	6017.15	5137.45
863.3597	1152.9424	5881.4	5002.35
863.5045	1154.8852	5716.75	4839.1
863.6493	1156.8272	5580.45	4703.95
863.7942	1158.7686	5540.35	4651.95
863.939	1160.7092	5503.2	4623.5
864.0838	1162.6491	5482.65	4602.25
864.2286	1164.5883	5536.95	4659.15
864.3734	1166.5267	5597.6	4718.5
864.5182	1168.4644	5696.4	4817.1
864.663	1170.4014	5849.45	4965.5
864.8078	1172.3377	6027.55	5151.1
864.9526	1174.2732	6180.3	5299.85
865.0974	1176.2081	6375.15	5496.85
865.2421	1178.1421	6481.75	5601.15
865.3869	1180.0755	6577.9	5699.95
865.5317	1182.0082	6585.15	5707.2
865.6764	1183.9401	6517.65	5637
865.8212	1185.8713	6369.9	5493.45
865.9659	1187.8017	6156.6	5277.65
866.1106	1189.7315	5935.8	5056.95
866.2554	1191.6605	5760.65	4854.55
866.4001	1193.5888	5604.15	4723.3
866.5448	1195.5163	5471.9	4594.2
866.6895	1197.4432	5415.65	4537.1
866.8342	1199.3693	5365.65	4486.35
866.9789	1201.2947	5329.2	4450.05
867.1236	1203.2193	5301.25	4422.3
867.2683	1205.1432	5329.75	4449.2
867.413	1207.0664	5362.25	4483.4
867.5576	1208.9889	5414.75	4534
867.7023	1210.9106	5483.95	4605.5
867.847	1212.8316	5569.05	4688.45
867.9916	1214.7519	5630.2	4742.35
868.1363	1216.6715	5644.15	4767.25
