Software Version:	3.9.2.0
Unit SN:	10000200
Spectrometer SN:	6960
Date:	3/14/2024 12:43:57 PM
Data Line Index:	25
Spectral Points:	2048
Integration time (ms):	125
Averages:	20
Delay (ms):	30000
Sequence Number:	1
Processing:	dark subtract
Laser Power (mW):	300
Laser Current (mA):	823
Laser Diode Temp (C):	25.1
Laser Case Temp (C):	27.2
System Temp (C):	27.2
Spectrometer Temp (C):	24.9
CCD Temp (C):	0.004
Secondary Temp (C):	20.007
Heatsink Temp (C):	23.256
CCDPCB Temp (C):	36.963
SecondaryPCB Temp (C):	34.551

Wavelength	RamanShift	Raw Counts	Dark Subtracted
787.061	30.1047	417.65	5.35
787.2016	32.3739	416.25	6.25
787.3422	34.6426	416.05	3.9
787.4828	36.9109	421.15	8.15
787.6235	39.1787	422.7	4.75
787.7642	41.4461	428	6.35
787.9049	43.7131	433.4	8
788.0456	45.9796	437.45	8.3
788.1863	48.2456	442	8.7
788.3271	50.5112	447.1	9.9
788.4679	52.7764	448.45	9.3
788.6087	55.0411	452.75	10.8
788.7496	57.3054	458.65	10.95
788.8904	59.5692	461.25	12.7
789.0313	61.8326	465.1	12.25
789.1722	64.0955	472.15	14.2
789.3132	66.3579	480.8	16.95
789.4541	68.6199	485.45	20.85
789.5951	70.8815	493.55	26.7
789.7361	73.1426	505.55	35.5
789.8771	75.4032	535.05	59.55
790.0181	77.6634	596.15	116.35
790.1592	79.9231	736.7	252.3
790.3003	82.1824	1027.95	538.05
790.4414	84.4412	1527.95	1031.45
790.5825	86.6995	2179.65	1671.85
790.7237	88.9574	2818.55	2303.95
790.8648	91.2148	3260.45	2742.65
791.006	93.4717	3470.55	2947.15
791.1472	95.7282	3528.15	3000.8
791.2885	97.9842	3545.85	3017.9
791.4297	100.2398	3524.7	2992.15
791.571	102.4949	3498.95	2963.7
791.7123	104.7495	3483.55	2942.65
791.8536	107.0036	3440.05	2898.45
791.9949	109.2573	3407.1	2867.85
792.1363	111.5105	3341.9	2800.1
792.2777	113.7632	3293.45	2750.85
792.4191	116.0154	3231.85	2677.15
792.5605	118.2672	3163.5	2616.05
792.7019	120.5185	3103.95	2555.95
792.8434	122.7693	3052.65	2502.6
792.9849	125.0197	2994.95	2440.9
793.1264	127.2696	2936.75	2381
793.2679	129.519	2918.85	2360.75
793.4094	131.7679	2886	2324.5
793.551	134.0163	2887.7	2324.7
793.6926	136.2642	2882.7	2311.6
793.8342	138.5117	2885.7	2309
793.9758	140.7587	2874.55	2301.4
794.1175	143.0052	2841	2262.05
794.2591	145.2512	2807.8	2231.35
794.4008	147.4967	2765.6	2187.3
794.5425	149.7417	2745.7	2164.65
794.6842	151.9863	2717	2131.9
794.826	154.2304	2711.15	2123.95
794.9677	156.4739	2698.65	2104.55
795.1095	158.717	2706	2115.75
795.2513	160.9596	2727.35	2128.7
795.3931	163.2017	2736.45	2139.25
795.535	165.4433	2745.65	2143.55
795.6768	167.6844	2745.2	2141.85
795.8187	169.925	2728.05	2121.75
795.9606	172.1651	2689.9	2079.35
796.1025	174.4047	2656.45	2044.7
796.2445	176.6439	2628.9	2014.1
796.3864	178.8825	2603.45	1986.65
796.5284	181.1206	2585.25	1965.35
796.6704	183.3582	2586.45	1959
796.8124	185.5954	2588.6	1961.4
796.9544	187.832	2582.3	1953.3
797.0965	190.0681	2590.35	1956.4
797.2386	192.3037	2587.5	1951.85
797.3806	194.5388	2584.85	1946.3
797.5228	196.7734	2598.5	1957.65
797.6649	199.0075	2606.3	1960.05
797.807	201.2411	2625.5	1976.95
797.9492	203.4742	2635.8	1988
798.0914	205.7068	2654.45	2003.5
798.2336	207.9389	2651.6	2003.85
798.3758	210.1704	2660.35	2010.9
798.518	212.4015	2679.05	2021.3
798.6603	214.632	2681.6	2022.15
798.8025	216.862	2664.8	2014.45
798.9448	219.0915	2671.15	2030.45
799.0871	221.3205	2661.6	2022.45
799.2294	223.549	2661.15	2025.95
799.3718	225.777	2646	2011.1
799.5141	228.0044	2647.55	2007.1
799.6565	230.2314	2647.1	2010.7
799.7989	232.4578	2632.7	1996.5
799.9413	234.6837	2631.65	1985.8
800.0837	236.909	2613.6	1970
800.2262	239.1339	2618.25	1948.1
800.3687	241.3582	2604.55	1950.3
800.5111	243.582	2625.15	1945
800.6536	245.8053	2620.4	1945.3
800.7961	248.0281	2622.3	1952.4
800.9387	250.2503	2626.15	1952.15
801.0812	252.472	2636.3	1956.35
801.2238	254.6932	2636	1952.55
801.3664	256.9139	2628.75	1944.1
801.509	259.134	2650.05	1964.4
801.6516	261.3536	2648.4	1964.4
801.7942	263.5727	2675.95	1988.2
801.9369	265.7912	2695.2	2007.6
802.0795	268.0092	2731.6	2044.45
802.2222	270.2267	2760.75	2072.75
802.3649	272.4436	2785.5	2095.25
802.5076	274.6601	2817.35	2117.75
802.6504	276.8759	2819.2	2127.45
802.7931	279.0913	2819.65	2125.4
802.9359	281.3061	2839.55	2143
803.0787	283.5204	2853.5	2154.7
803.2215	285.7341	2870.8	2168.05
803.3643	287.9473	2881.25	2176.75
803.5071	290.16	2892.15	2180.45
803.6499	292.3721	2855	2150.55
803.7928	294.5837	2825.75	2118.95
803.9357	296.7947	2798.9	2094.7
804.0786	299.0052	2791.35	2085.3
804.2215	301.2152	2774.55	2065.7
804.3644	303.4246	2763.9	2060.05
804.5074	305.6334	2747.2	2043.2
804.6503	307.8418	2737	2028.45
804.7933	310.0495	2723.15	2013
804.9363	312.2568	2698.8	1989.4
805.0793	314.4635	2662.3	1949.3
805.2223	316.6696	2628.15	1914.8
805.3653	318.8752	2604.6	1880.95
805.5084	321.0802	2582.5	1868.55
805.6514	323.2847	2563.75	1847.8
805.7945	325.4887	2564.2	1847.3
805.9376	327.692	2577.75	1858.8
806.0807	329.8949	2600.95	1880.6
806.2238	332.0972	2619.55	1900.15
806.367	334.2989	2638.35	1914.45
806.5101	336.5001	2634.4	1906.85
806.6533	338.7007	2622.35	1896.85
806.7965	340.9008	2600.45	1870.75
806.9397	343.1003	2544.8	1813.95
807.0829	345.2992	2520.25	1789.7
807.2261	347.4976	2487.05	1755.05
807.3693	349.6955	2464.9	1730.25
807.5126	351.8927	2460.95	1723.75
807.6559	354.0895	2454.15	1706.85
807.7991	356.2856	2427.75	1689.25
807.9424	358.4812	2426	1688.7
808.0857	360.6763	2415.45	1675.3
808.2291	362.8707	2405.4	1665
808.3724	365.0646	2406.55	1660.8
808.5158	367.258	2410.8	1665.4
808.6591	369.4508	2422.85	1672.8
808.8025	371.643	2444.8	1696.7
808.9459	373.8346	2457.8	1706.2
809.0893	376.0257	2486.35	1730.6
809.2327	378.2162	2492.6	1738.15
809.3762	380.4062	2517.1	1760.45
809.5196	382.5956	2490.55	1731.8
809.6631	384.7844	2457.4	1698.75
809.8066	386.9726	2421.2	1660.55
809.9501	389.1603	2409.25	1650.55
810.0936	391.3474	2421	1629.15
810.2371	393.5339	2390.95	1630.95
810.3806	395.7199	2381.95	1626.9
810.5241	397.9052	2400.6	1647.45
810.6677	400.09	2416.55	1663.25
810.8113	402.2743	2439.65	1689.4
810.9548	404.4579	2465.85	1712.95
811.0984	406.641	2484.2	1729.7
811.2421	408.8235	2517.9	1765.35
811.3857	411.0054	2559.5	1804.2
811.5293	413.1868	2617.45	1860.7
811.673	415.3675	2687.5	1929.2
811.8166	417.5477	2701.65	1942.35
811.9603	419.7273	2640.75	1877.85
812.104	421.9064	2549.2	1778
812.2477	424.0848	2503.45	1736.25
812.3914	426.2627	2455.85	1684.2
812.5351	428.4399	2418.25	1645.9
812.6788	430.6166	2370.9	1597.1
812.8226	432.7928	2336.05	1560.25
812.9663	434.9683	2306.8	1530.6
813.1101	437.1432	2277.1	1500.1
813.2539	439.3176	2268.4	1488.1
813.3977	441.4914	2253.9	1473.7
813.5415	443.6645	2253.55	1471.45
813.6853	445.8371	2258.7	1476.7
813.8291	448.0091	2257.9	1476
813.973	450.1806	2255.5	1474.85
814.1168	452.3514	2243.25	1461.1
814.2607	454.5216	2240.65	1448.45
814.4046	456.6913	2231.8	1448.4
814.5485	458.8603	2232.95	1447.25
814.6924	461.0288	2245.2	1460.6
814.8363	463.1967	2238.65	1454.8
814.9802	465.3639	2237.6	1451.8
815.1241	467.5306	2234.85	1445.7
815.2681	469.6967	2223.8	1434.95
815.412	471.8622	2219.1	1429.2
815.556	474.0271	2213.1	1425.45
815.7	476.1914	2205.5	1414.35
815.844	478.3551	2191.4	1399.3
815.988	480.5182	2202.35	1409.6
816.132	482.6807	2206.8	1412.4
816.276	484.8426	2211.9	1418.9
816.4201	487.0039	2246.1	1452.4
816.5641	489.1647	2266.8	1471.95
816.7082	491.3248	2300.9	1509.25
816.8522	493.4843	2320.8	1529.95
816.9963	495.6432	2302.35	1508
817.1404	497.8015	2268.1	1469.6
817.2845	499.9592	2256.7	1461.9
817.4286	502.1163	2224.15	1429.35
817.5727	504.2728	2183.55	1384.35
817.7168	506.4287	2178.05	1379.9
817.861	508.5839	2169.45	1371.15
818.0051	510.7386	2147.1	1348.65
818.1493	512.8927	2158.65	1351.95
818.2935	515.0461	2164	1362.9
818.4377	517.199	2166.65	1368.3
818.5818	519.3512	2189.8	1389.95
818.726	521.5029	2246.3	1438.75
818.8703	523.6539	2276.6	1474.2
819.0145	525.8043	2280.5	1477.3
819.1587	527.9541	2244.55	1436
819.303	530.1033	2201.35	1395.45
819.4472	532.2519	2164.85	1358.1
819.5915	534.3999	2153.25	1344.75
819.7357	536.5472	2139.3	1330.9
819.88	538.694	2141.75	1333.25
820.0243	540.8401	2156.55	1349.7
820.1686	542.9856	2166.4	1356.3
820.3129	545.1305	2163.4	1354.85
820.4572	547.2748	2172.5	1364.5
820.6016	549.4185	2187.8	1373.9
820.7459	551.5615	2177.4	1365.8
820.8902	553.704	2195.75	1381.45
821.0346	555.8458	2200.3	1389.1
821.1789	557.987	2217.05	1408.3
821.3233	560.1276	2229.5	1416.65
821.4677	562.2675	2264.85	1456.15
821.6121	564.4069	2306.45	1494.2
821.7565	566.5456	2333.3	1527.15
821.9009	568.6837	2322.3	1512.55
822.0453	570.8212	2267.45	1456.1
822.1897	572.958	2211.85	1398.8
822.3342	575.0942	2199.75	1388.95
822.4786	577.2299	2166.85	1353.7
822.6231	579.3648	2146.75	1334.1
822.7675	581.4992	2135.9	1319.6
822.912	583.6329	2131.75	1318.4
823.0565	585.766	2133.25	1318.65
823.201	587.8985	2162.3	1348
823.3454	590.0304	2211.15	1383
823.4899	592.1616	2215.8	1393.95
823.6345	594.2922	2218.35	1400.1
823.779	596.4222	2183.1	1364.15
823.9235	598.5515	2152.85	1335.2
824.068	600.6802	2105.05	1283.6
824.2126	602.8083	2085.85	1262.6
824.3571	604.9358	2083	1261.75
824.5017	607.0626	2068.4	1247.75
824.6462	609.1888	2079.75	1257.95
824.7908	611.3144	2085.4	1264.8
824.9354	613.4393	2112.85	1291.4
825.08	615.5636	2151.75	1328.8
825.2246	617.6873	2178	1358.05
825.3692	619.8103	2197.05	1372.6
825.5138	621.9327	2195.5	1369.4
825.6584	624.0544	2191.25	1367.9
825.803	626.1756	2132.85	1309.1
825.9477	628.2961	2102.9	1278.15
826.0923	630.4159	2088.2	1263
826.237	632.5351	2080.3	1256.9
826.3816	634.6537	2080.05	1253.6
826.5263	636.7716	2074.65	1246.9
826.6709	638.8889	2062.85	1234.8
826.8156	641.0056	2067.75	1237.7
826.9603	643.1216	2073.45	1245.7
827.105	645.237	2079.85	1248.15
827.2497	647.3518	2075.35	1245.15
827.3944	649.4659	2053.6	1224.15
827.5391	651.5793	2031.45	1201
827.6838	653.6922	2019.2	1188.65
827.8285	655.8043	2018.9	1188.9
827.9733	657.9159	2006.3	1172.4
828.118	660.0268	1999.65	1164.05
828.2627	662.137	1996.05	1163.95
828.4075	664.2466	1990.85	1158.25
828.5522	666.3556	2006.35	1174.65
828.697	668.4639	1993.7	1154.6
828.8418	670.5716	1990.3	1157.05
828.9865	672.6786	1987.3	1151.45
829.1313	674.785	1976.3	1139.25
829.2761	676.8907	1974.3	1139.8
829.4209	678.9958	1966.3	1130.15
829.5657	681.1002	1962	1127.1
829.7105	683.204	1969.5	1130.3
829.8553	685.3072	1964.3	1127.6
830.0001	687.4097	1964.4	1128.7
830.1449	689.5115	1963.65	1124.15
830.2898	691.6127	1967.05	1130.7
830.4346	693.7132	1965.4	1127.1
830.5794	695.8131	1980.9	1129.3
830.7243	697.9123	1964.75	1125.1
830.8691	700.0109	1975.35	1134.75
831.014	702.1089	1976.4	1136.2
831.1588	704.2061	1984.75	1146.6
831.3037	706.3028	1987.85	1145.7
831.4486	708.3987	2013.3	1173.5
831.5935	710.4941	2011.7	1169.65
831.7383	712.5887	2022.1	1181.9
831.8832	714.6827	2021.45	1176.05
832.0281	716.7761	2023	1182.7
832.173	718.8688	2008.85	1165
832.3179	720.9608	2012.9	1165.9
832.4628	723.0522	2013.65	1168.85
832.6077	725.1429	2019.8	1177.85
832.7527	727.233	2044.6	1201.3
832.8976	729.3224	2090.45	1247.3
833.0425	731.4112	2131.9	1288.5
833.1874	733.4993	2139.85	1293.85
833.3324	735.5867	2109.6	1265.2
833.4773	737.6735	2065.95	1220.6
833.6222	739.7596	2030.45	1183.95
833.7672	741.845	2016.75	1168.45
833.9122	743.9298	2016.85	1166.3
834.0571	746.014	2026.1	1179
834.2021	748.0974	2040.4	1192.7
834.347	750.1802	2039.95	1192.45
834.492	752.2624	2020.8	1175.35
834.637	754.3439	2012.9	1165.65
834.782	756.4247	2002	1146.1
834.9269	758.5048	1993.05	1145.5
835.0719	760.5843	2002.1	1154.35
835.2169	762.6631	2013.55	1164.8
835.3619	764.7413	2035.15	1186.6
835.5069	766.8188	2106	1256
835.6519	768.8956	2155.05	1302.5
835.7969	770.9718	2186.75	1338.5
835.9419	773.0473	2180.55	1332.65
836.0869	775.1221	2151.75	1302.5
836.232	777.1962	2139.1	1289.45
836.377	779.2697	2172.85	1321.35
836.522	781.3426	2246.4	1385.2
836.667	783.4147	2285.4	1434.25
836.8121	785.4862	2276.25	1425.45
836.9571	787.557	2233.1	1382.2
837.1021	789.6271	2135.8	1285.3
837.2472	791.6966	2057.6	1207.05
837.3922	793.7654	1983.55	1130.25
837.5373	795.8335	1949.3	1097.4
837.6823	797.901	1928.4	1075.4
837.8274	799.9678	1928.25	1075.15
837.9724	802.0339	1920.65	1070.9
838.1175	804.0993	1939.1	1077.7
838.2626	806.1641	1921.45	1066.35
838.4076	808.2282	1902	1049.05
838.5527	810.2916	1900.5	1044.75
838.6978	812.3544	1886.6	1033.4
838.8428	814.4164	1880.6	1028.4
838.9879	816.4778	1888.7	1033.6
839.133	818.5385	1887.55	1033.5
839.2781	820.5986	1908.4	1055.25
839.4232	822.658	1939.9	1085.7
839.5682	824.7166	1979.4	1126.35
839.7133	826.7747	2042.1	1188.15
839.8584	828.832	2087.3	1232.7
840.0035	830.8886	2119.05	1260.05
840.1486	832.9446	2139.45	1284.1
840.2937	834.9999	2120.3	1265.35
840.4388	837.0545	2074.75	1215.75
840.5839	839.1085	2025.25	1171.1
840.729	841.1618	1967.9	1109.1
840.8741	843.2143	1934.5	1078.95
841.0192	845.2662	1913.45	1057.85
841.1643	847.3175	1897.35	1040.15
841.3095	849.368	1881.8	1025.2
841.4546	851.4179	1883.45	1026.35
841.5997	853.467	1890.15	1035.25
841.7448	855.5155	1881.15	1025
841.8899	857.5633	1890.25	1033.8
842.0351	859.6105	1880.5	1023.2
842.1802	861.6569	1872.55	1014.75
842.3253	863.7027	1862.95	1004.05
842.4704	865.7478	1862.15	1002.15
842.6156	867.7922	1850.6	993.2
842.7607	869.8359	1839.3	981.6
842.9058	871.8789	1843.7	982.15
843.0509	873.9212	1866.9	971.25
843.1961	875.9629	1840.1	981.15
843.3412	878.0039	1842.55	983.15
843.4863	880.0441	1863.4	1004.75
843.6315	882.0837	1869.1	1008.25
843.7766	884.1226	1876.25	1015.45
843.9218	886.1609	1899.1	1040
844.0669	888.1984	1930.55	1072.05
844.212	890.2352	1960.25	1100.2
844.3572	892.2714	1975.1	1109.7
844.5023	894.3069	1941.3	1080.65
844.6475	896.3416	1919.7	1058.15
844.7926	898.3757	1886.4	1026.45
844.9377	900.4091	1868.45	1008.35
845.0829	902.4418	1870.35	1004.05
845.228	904.4739	1899.1	1034.8
845.3732	906.5052	1894.55	1031.2
845.5183	908.5358	1888.75	1028.45
845.6635	910.5658	1885.3	1022.4
845.8086	912.595	1855.9	993.2
845.9538	914.6236	1822.85	961.15
846.0989	916.6515	1815.4	952.75
846.2441	918.6786	1799.9	935.55
846.3892	920.7051	1782.45	919.05
846.5344	922.7309	1779.85	916
846.6795	924.756	1781.15	918.95
846.8246	926.7804	1796.6	931.3
846.9698	928.8041	1793.75	927.85
847.1149	930.8272	1799.9	937.15
847.2601	932.8495	1809.85	944.75
847.4052	934.8711	1819.55	957.2
847.5504	936.892	1815.75	950.55
847.6955	938.9123	1818.6	953.2
847.8407	940.9318	1843.1	981.1
847.9858	942.9506	1850.05	985.8
848.131	944.9688	1846.75	980.85
848.2761	946.9862	1832.75	967.2
848.4213	949.003	1806.65	941
848.5664	951.019	1782	916.75
848.7115	953.0344	1776	908.6
848.8567	955.0491	1768.05	901.75
849.0018	957.063	1757.4	891.3
849.147	959.0763	1753.1	887.7
849.2921	961.0888	1752.45	885
849.4373	963.1007	1755.75	889.7
849.5824	965.1119	1746.95	881.25
849.7275	967.1223	1742.1	875.95
849.8727	969.1321	1744.4	877.5
850.0178	971.1412	1734.65	870.1
850.1629	973.1495	1726.75	859.5
850.3081	975.1572	1777.3	859.25
850.4532	977.1641	1734.75	868.1
850.5983	979.1704	1727.65	859.6
850.7435	981.1759	1722.4	850.7
850.8886	983.1808	1722.7	853.95
851.0337	985.1849	1729.65	852.75
851.1788	987.1884	1716.2	846
851.324	989.1911	1722.15	851.3
851.4691	991.1932	1719.2	852.5
851.6142	993.1945	1710.05	842.15
851.7593	995.1951	1712	844.9
851.9045	997.1951	1713.15	839
852.0496	999.1943	1705.2	836.1
852.1947	1001.1928	1708.65	840.05
852.3398	1003.1906	1710.3	842.95
852.4849	1005.1877	1730.45	860.2
852.63	1007.1841	1730.05	860.95
852.7751	1009.1798	1749.35	879.4
852.9202	1011.1748	1744.15	874
853.0653	1013.1691	1723.55	853.1
853.2104	1015.1627	1703.35	834
853.3555	1017.1556	1672.05	804.15
853.5006	1019.1477	1661.9	789.75
853.6457	1021.1392	1653.45	784.2
853.7908	1023.1299	1650.85	780.25
853.9359	1025.12	1645.35	773.45
854.081	1027.1093	1649.2	778.85
854.2261	1029.0979	1659.45	790.8
854.3712	1031.0859	1670.9	801.65
854.5163	1033.0731	1671.75	801.5
854.6613	1035.0596	1672.3	802.9
854.8064	1037.0454	1668.8	797.8
854.9515	1039.0304	1657.55	785.35
855.0965	1041.0148	1644.75	774.6
855.2416	1042.9985	1627.85	756.7
855.3867	1044.9814	1628.2	757.75
855.5317	1046.9636	1618.1	746.8
855.6768	1048.9452	1622.7	751.15
855.8219	1050.926	1632.85	762.8
855.9669	1052.9061	1636.3	766.35
856.112	1054.8855	1642.15	769.4
856.257	1056.8642	1644.25	773.2
856.4021	1058.8421	1639	764
856.5471	1060.8194	1643	771.95
856.6921	1062.7959	1630.45	760.65
856.8372	1064.7717	1632.7	760.5
856.9822	1066.7469	1624.6	752.55
857.1272	1068.7213	1636.05	760.35
857.2723	1070.695	1639.75	767.75
857.4173	1072.6679	1647.55	775.35
857.5623	1074.6402	1660.55	786.75
857.7073	1076.6117	1676.25	800.45
857.8523	1078.5826	1649.35	775.85
857.9973	1080.5527	1623.5	747.1
858.1423	1082.5221	1603.55	730.3
858.2873	1084.4908	1583.5	712.05
858.4323	1086.4587	1574.75	700.7
858.5773	1088.426	1573	700.3
858.7223	1090.3925	1570.35	689.9
858.8673	1092.3584	1565.9	694.5
859.0123	1094.3235	1581.05	709.1
859.1573	1096.2879	1581.6	708.75
859.3022	1098.2515	1592.65	718.9
859.4472	1100.2145	1613.65	739.45
859.5922	1102.1767	1635.55	759.15
859.7371	1104.1382	1654.9	782.35
859.8821	1106.099	1686.35	811.05
860.027	1108.0591	1717.9	846.15
860.172	1110.0185	1740.85	864.75
860.3169	1111.9771	1761.4	886.1
860.4619	1113.9351	1792.95	917
860.6068	1115.8923	1827.8	954.75
860.7517	1117.8488	1855.85	978
860.8967	1119.8045	1822.35	948.95
861.0416	1121.7596	1755.2	880.1
861.1865	1123.7139	1684.25	809.75
861.3314	1125.6675	1648.9	774.45
861.4763	1127.6204	1660.55	787.2
861.6212	1129.5726	1673	797.25
861.7661	1131.524	1660.25	786.65
861.911	1133.4748	1640.1	764.3
862.0559	1135.4248	1598.2	720.25
862.2008	1137.3741	1564	690.55
862.3457	1139.3226	1549.8	674.95
862.4905	1141.2705	1544.05	668.1
862.6354	1143.2176	1556.75	675.65
862.7803	1145.164	1563.8	687.15
862.9251	1147.1097	1556.45	681.2
863.07	1149.0546	1548.55	671.35
863.2148	1150.9989	1524.95	648.1
863.3597	1152.9424	1517.25	641.35
863.5045	1154.8852	1503.15	625.35
863.6493	1156.8272	1491.15	616.45
863.7942	1158.7686	1504.25	621.3
863.939	1160.7092	1496.1	621.05
864.0838	1162.6491	1501.2	623.85
864.2286	1164.5883	1499.6	622.55
864.3734	1166.5267	1512.4	635.6
864.5182	1168.4644	1531.8	657.5
864.663	1170.4014	1537.3	657.25
864.8078	1172.3377	1563.55	691.85
864.9526	1174.2732	1597.65	722.15
865.0974	1176.2081	1639	763.75
865.2421	1178.1421	1719.9	838.45
865.3869	1180.0755	1786.8	910.4
865.5317	1182.0082	1840.8	964.55
865.6764	1183.9401	1834.9	955.95
865.8212	1185.8713	1771.05	895.75
865.9659	1187.8017	1693.8	816.7
866.1106	1189.7315	1620.8	743.7
866.2554	1191.6605	1597.75	692.8
866.4001	1193.5888	1535.2	658.75
866.5448	1195.5163	1521.9	645.4
866.6895	1197.4432	1509.2	630.3
866.8342	1199.3693	1491.65	617.1
866.9789	1201.2947	1483.75	601.1
867.1236	1203.2193	1481.95	604.55
867.2683	1205.1432	1473.75	596.45
867.413	1207.0664	1471.4	592.45
867.5576	1208.9889	1474.3	592.65
867.7023	1210.9106	1473.35	598
867.847	1212.8316	1462.6	583.55
867.9916	1214.7519	1482.65	594.2
868.1363	1216.6715	1466.85	590.05
868.2809	1218.5903	1485.7	608.05
868.4255	1220.5084	1483.65	606.3
868.5701	1222.4257	1494.9	615.45
868.7148	1224.3424	1504.05	627.65
868.8594	1226.2583	1517.95	633.1
869.004	1228.1735	1537.75	658.9
869.1486	1230.0879	1551.7	673.2
869.2932	1232.0016	1580.3	701.2
869.4377	1233.9146	1603.15	722.65
869.5823	1235.8269	1609.7	730.55
869.7269	1237.7384	1610.25	730.55
869.8715	1239.6492	1606.1	730.15
870.016	1241.5592	1623.85	744.55
870.1606	1243.4686	1644.65	767.45
870.3051	1245.3772	1679.25	800.25
870.4496	1247.285	1737.05	857.2
870.5941	1249.1922	1777.75	899.3
870.7387	1251.0986	1828.3	951.6
