Software Version:	3.9.2.0
Unit SN:	10000200
Spectrometer SN:	6960
Date:	3/14/2024 12:28:05 PM
Data Line Index:	25
Spectral Points:	2048
Integration time (ms):	125
Averages:	20
Delay (ms):	30000
Sequence Number:	1
Processing:	dark subtract
Laser Power (mW):	305
Laser Current (mA):	821
Laser Diode Temp (C):	25.1
Laser Case Temp (C):	25.6
System Temp (C):	25.5
Spectrometer Temp (C):	23.3
CCD Temp (C):	-0.003
Secondary Temp (C):	20.006
Heatsink Temp (C):	22.457
CCDPCB Temp (C):	35.951
SecondaryPCB Temp (C):	30.805

Wavelength	RamanShift	Raw Counts	Dark Subtracted
787.061	30.1047	421.05	9.3
787.2016	32.3739	418.15	8.25
787.3422	34.6426	420.3	7.05
787.4828	36.9109	423.55	9.95
787.6235	39.1787	426.3	9.4
787.7642	41.4461	433.05	10.95
787.9049	43.7131	436.85	11.15
788.0456	45.9796	440.95	12.6
788.1863	48.2456	443.4	9.65
788.3271	50.5112	451.85	14.55
788.4679	52.7764	453.2	13.2
788.6087	55.0411	457.9	14.15
788.7496	57.3054	461.9	12.85
788.8904	59.5692	463.4	14.25
789.0313	61.8326	469.4	17.5
789.1722	64.0955	478.9	22.8
789.3132	66.3579	484.8	23.45
789.4541	68.6199	493.3	28.5
789.5951	70.8815	501.8	35.2
789.7361	73.1426	520.75	51.2
789.8771	75.4032	563.25	88.9
790.0181	77.6634	651	171.65
790.1592	79.9231	866.1	384.35
790.3003	82.1824	1314.1	830
790.4414	84.4412	2056.6	1566.8
790.5825	86.6995	3042.15	2544.5
790.7237	88.9574	3991.1	3490.95
790.8648	91.2148	4686.45	4185.2
791.006	93.4717	4999.25	4494.75
791.1472	95.7282	5075.5	4565.25
791.2885	97.9842	5084.15	4573.2
791.4297	100.2398	5010.65	4496.7
791.571	102.4949	4952.45	4436.4
791.7123	104.7495	4904	4381.7
791.8536	107.0036	4837.45	4314.25
791.9949	109.2573	4770.1	4252.2
792.1363	111.5105	4655.6	4132.9
792.2777	113.7632	4554	4030.1
792.4191	116.0154	4447.7	3910.3
792.5605	118.2672	4303.05	3773.45
792.7019	120.5185	4169.65	3638.6
792.8434	122.7693	4039.05	3506.7
792.9849	125.0197	3905.1	3370.3
793.1264	127.2696	3783.8	3246.1
793.2679	129.519	3719.8	3178.95
793.4094	131.7679	3666.4	3122.25
793.551	134.0163	3635.75	3090.55
793.6926	136.2642	3630.5	3080.4
793.8342	138.5117	3626.8	3071.5
793.9758	140.7587	3594.75	3038.4
794.1175	143.0052	3566.25	3005.6
794.2591	145.2512	3489.5	2928.25
794.4008	147.4967	3410.05	2852.05
794.5425	149.7417	3338.65	2775.75
794.6842	151.9863	3296.8	2730.6
794.826	154.2304	3270.55	2700.45
794.9677	156.4739	3240.75	2662.1
795.1095	158.717	3259.15	2684.75
795.2513	160.9596	3302.55	2722.2
795.3931	163.2017	3342.7	2759.85
795.535	165.4433	3374.25	2790.45
795.6768	167.6844	3382.5	2795.9
795.8187	169.925	3334.05	2746.05
795.9606	172.1651	3276.95	2683.05
796.1025	174.4047	3194.85	2599.5
796.2445	176.6439	3135.05	2539.25
796.3864	178.8825	3096.35	2493.8
796.5284	181.1206	3071.9	2467.35
796.6704	183.3582	3058.2	2452.9
796.8124	185.5954	3043.35	2434.25
796.9544	187.832	3042.3	2428.8
797.0965	190.0681	3039.25	2424.2
797.2386	192.3037	3046.7	2426.95
797.3806	194.5388	3025.55	2402.25
797.5228	196.7734	3060.6	2435.85
797.6649	199.0075	3078.65	2450.05
797.807	201.2411	3100.9	2468.95
797.9492	203.4742	3124.35	2492.8
798.0914	205.7068	3160.8	2528.3
798.2336	207.9389	3190.45	2557.45
798.3758	210.1704	3210.3	2573.5
798.518	212.4015	3202.2	2561.1
798.6603	214.632	3223.8	2583.35
798.8025	216.862	3221.4	2586.65
798.9448	219.0915	3227.1	2598.75
799.0871	221.3205	3235.65	2610.7
799.2294	223.549	3234.6	2616.5
799.3718	225.777	3240.9	2620.8
799.5141	228.0044	3242.5	2622.3
799.6565	230.2314	3234.3	2614.45
799.7989	232.4578	3221	2596.45
799.9413	234.6837	3202.3	2573.35
800.0837	236.909	3182	2551.95
800.2262	239.1339	3189.25	2536.7
800.3687	241.3582	3153.1	2515.4
800.5111	243.582	3161.45	2497
800.6536	245.8053	3164.7	2507.45
800.7961	248.0281	3174.45	2521.9
800.9387	250.2503	3179.15	2520.45
801.0812	252.472	3193.15	2530.55
801.2238	254.6932	3200.35	2534.45
801.3664	256.9139	3201.7	2531.5
801.509	259.134	3213.85	2541.55
801.6516	261.3536	3235.6	2563.55
801.7942	263.5727	3301.3	2628.25
801.9369	265.7912	3340.05	2668.25
802.0795	268.0092	3421.05	2746.65
802.2222	270.2267	3497.75	2822.9
802.3649	272.4436	3581	2907.35
802.5076	274.6601	3626.7	2940.8
802.6504	276.8759	3635.1	2954.35
802.7931	279.0913	3671	2991.4
802.9359	281.3061	3695.8	3014.45
803.0787	283.5204	3741.85	3057.95
803.2215	285.7341	3758.95	3069.2
803.3643	287.9473	3815.95	3124.8
803.5071	290.16	3826.2	3132.6
803.6499	292.3721	3737.2	3047.95
803.7928	294.5837	3666.8	2975.85
803.9357	296.7947	3605.7	2913.9
804.0786	299.0052	3580.3	2890
804.2215	301.2152	3564	2870.7
804.3644	303.4246	3548.45	2855.85
804.5074	305.6334	3537	2843.95
804.6503	307.8418	3545.85	2847.85
804.7933	310.0495	3499.1	2803.75
804.9363	312.2568	3460.4	2765.35
805.0793	314.4635	3382.95	2684.6
805.2223	316.6696	3326.4	2627.7
805.3653	318.8752	3259.85	2550.8
805.5084	321.0802	3202.4	2499.65
805.6514	323.2847	3193.35	2491.25
805.7945	325.4887	3188.8	2486
805.9376	327.692	3203.25	2500.1
806.0807	329.8949	3270.3	2563.85
806.2238	332.0972	3351.5	2646.05
806.367	334.2989	3413.75	2702.1
806.5101	336.5001	3431.4	2720.9
806.6533	338.7007	3402.65	2690.35
806.7965	340.9008	3319.1	2605.65
806.9397	343.1003	3227.35	2510.1
807.0829	345.2992	3146.15	2427.4
807.2261	347.4976	3083.55	2363.55
807.3693	349.6955	3028.25	2306.05
807.5126	351.8927	2990	2266.4
807.6559	354.0895	2971.95	2236.6
807.7991	356.2856	2948.95	2224.5
807.9424	358.4812	2928	2203.55
808.0857	360.6763	2920.2	2194.15
808.2291	362.8707	2906.2	2179.85
808.3724	365.0646	2925.9	2194.9
808.5158	367.258	2922.3	2190.25
808.6591	369.4508	2948.8	2213.5
808.8025	371.643	2977.15	2241.9
808.9459	373.8346	3029.1	2289.85
809.0893	376.0257	3096.6	2353.8
809.2327	378.2162	3135.25	2393.45
809.3762	380.4062	3175.85	2428.95
809.5196	382.5956	3149.35	2401.35
809.6631	384.7844	3083.65	2337.85
809.8066	386.9726	3007.5	2261.05
809.9501	389.1603	2946.25	2198.65
810.0936	391.3474	2972.45	2193.8
810.2371	393.5339	2924.3	2175.3
810.3806	395.7199	2918.45	2173.05
810.5241	397.9052	2955.05	2213.2
810.6677	400.09	3023.05	2282.4
810.8113	402.2743	3075.8	2336
810.9548	404.4579	3138.75	2399.5
811.0984	406.641	3190.05	2451.35
811.2421	408.8235	3264.35	2522.9
811.3857	411.0054	3316.8	2574.6
811.5293	413.1868	3395	2651.95
811.673	415.3675	3457.65	2711.7
811.8166	417.5477	3451.5	2704.85
811.9603	419.7273	3394.9	2644.15
812.104	421.9064	3304.75	2545.5
812.2477	424.0848	3215.75	2462.35
812.3914	426.2627	3114.4	2357.4
812.5351	428.4399	3035.35	2276.6
812.6788	430.6166	2938.95	2175.75
812.8226	432.7928	2877.45	2114.8
812.9663	434.9683	2819.45	2054.15
813.1101	437.1432	2782.8	2014.7
813.2539	439.3176	2760.4	1994.5
813.3977	441.4914	2726.2	1958.8
813.5415	443.6645	2732.4	1962.25
813.6853	445.8371	2732.1	1962.8
813.8291	448.0091	2732.4	1963.75
813.973	450.1806	2731.3	1959.05
814.1168	452.3514	2726.5	1953.4
814.2607	454.5216	2733.35	1951.65
814.4046	456.6913	2726.95	1953.9
814.5485	458.8603	2727.05	1952.9
814.6924	461.0288	2737.45	1963.3
814.8363	463.1967	2733.55	1960.45
814.9802	465.3639	2742.55	1965.05
815.1241	467.5306	2728	1949.7
815.2681	469.6967	2718.8	1941
815.412	471.8622	2700.5	1922.25
815.556	474.0271	2696.45	1919.05
815.7	476.1914	2692.5	1912.9
815.844	478.3551	2691.75	1910.45
815.988	480.5182	2692.95	1914.05
816.132	482.6807	2690.05	1907.8
816.276	484.8426	2715.8	1935.7
816.4201	487.0039	2772.15	1991.8
816.5641	489.1647	2857.4	2074.25
816.7082	491.3248	2935.65	2153
816.8522	493.4843	2962.9	2177.95
816.9963	495.6432	2939.35	2154.15
817.1404	497.8015	2887.8	2099.9
817.2845	499.9592	2832.65	2049.25
817.4286	502.1163	2750.05	1964.1
817.5727	504.2728	2688.75	1900.1
817.7168	506.4287	2653.45	1868.25
817.861	508.5839	2630.7	1841.75
818.0051	510.7386	2619.55	1830.85
818.1493	512.8927	2631.55	1836.3
818.2935	515.0461	2635.6	1845.95
818.4377	517.199	2653.3	1865
818.5818	519.3512	2703.2	1914.1
818.726	521.5029	2810.35	2013.45
818.8703	523.6539	2911.45	2118.25
819.0145	525.8043	2931.15	2137.7
819.1587	527.9541	2852.7	2057
819.303	530.1033	2755.05	1959.25
819.4472	532.2519	2674.25	1877.55
819.5915	534.3999	2631.85	1834.6
819.7357	536.5472	2619.7	1821.6
819.88	538.694	2630.7	1832.55
820.0243	540.8401	2640.15	1840.8
820.1686	542.9856	2663.25	1864.5
820.3129	545.1305	2687.9	1885.05
820.4572	547.2748	2714.6	1914.25
820.6016	549.4185	2716.25	1913.5
820.7459	551.5615	2721.75	1921.7
820.8902	553.704	2747.5	1943.9
821.0346	555.8458	2776.65	1974.05
821.1789	557.987	2799.05	1998.55
821.3233	560.1276	2851.6	2047.35
821.4677	562.2675	2950.3	2149.55
821.6121	564.4069	3076.1	2273.05
821.7565	566.5456	3146.7	2342
821.9009	568.6837	3114.25	2311.9
822.0453	570.8212	2980.25	2177.6
822.1897	572.958	2832.05	2026.2
822.3342	575.0942	2749.75	1947.6
822.4786	577.2299	2686.9	1880.95
822.6231	579.3648	2646.3	1840.3
822.7675	581.4992	2630.55	1823.05
822.912	583.6329	2647.6	1839.7
823.0565	585.766	2674.05	1868.8
823.201	587.8985	2738.1	1930.4
823.3454	590.0304	2839.5	2011.15
823.4899	592.1616	2894.55	2083.4
823.6345	594.2922	2896.75	2086.1
823.779	596.4222	2859.75	2047.45
823.9235	598.5515	2776.55	1964.85
824.068	600.6802	2684.2	1873.35
824.2126	602.8083	2612.6	1801.7
824.3571	604.9358	2582.25	1767.5
824.5017	607.0626	2574.45	1759.35
824.6462	609.1888	2589.25	1775.05
824.7908	611.3144	2624.9	1809.15
824.9354	613.4393	2665.5	1852.3
825.08	615.5636	2740.95	1923.7
825.2246	617.6873	2822.05	2009
825.3692	619.8103	2875.1	2058.3
825.5138	621.9327	2897.2	2078.8
825.6584	624.0544	2855.6	2039.7
825.803	626.1756	2761.2	1944.6
825.9477	628.2961	2669.85	1853
826.0923	630.4159	2629.9	1813.55
826.237	632.5351	2611.45	1793.05
826.3816	634.6537	2602.5	1784.75
826.5263	636.7716	2602.65	1782.1
826.6709	638.8889	2589.05	1769.95
826.8156	641.0056	2602.2	1782
826.9603	643.1216	2629.05	1808.85
827.105	645.237	2650.85	1827.3
827.2497	647.3518	2615.4	1792.25
827.3944	649.4659	2571.7	1749.85
827.5391	651.5793	2540.3	1717
827.6838	653.6922	2507.25	1684.55
827.8285	655.8043	2482.45	1660.65
827.9733	657.9159	2460.95	1637
828.118	660.0268	2462.65	1636.35
828.2627	662.137	2451.4	1624.3
828.4075	664.2466	2460.5	1635.3
828.5522	666.3556	2464.15	1639.2
828.697	668.4639	2462.05	1630.65
828.8418	670.5716	2440.25	1613.25
828.9865	672.6786	2441.8	1615.5
829.1313	674.785	2423.9	1591.85
829.2761	676.8907	2412.8	1583.45
829.4209	678.9958	2419.25	1590.7
829.5657	681.1002	2404.95	1576.95
829.7105	683.204	2416.45	1583.9
829.8553	685.3072	2427.8	1597.3
830.0001	687.4097	2423.5	1592.05
830.1449	689.5115	2422.5	1590.35
830.2898	691.6127	2409.4	1580.4
830.4346	693.7132	2406.85	1575.3
830.5794	695.8131	2417.35	1572.55
830.7243	697.9123	2415.35	1582.6
830.8691	700.0109	2421.85	1589.45
831.014	702.1089	2431.4	1600.05
831.1588	704.2061	2452.35	1620.45
831.3037	706.3028	2504.15	1668.85
831.4486	708.3987	2516	1683.85
831.5935	710.4941	2550.9	1718
831.7383	712.5887	2553.4	1719.25
831.8832	714.6827	2550.05	1710.55
832.0281	716.7761	2534.15	1698.3
832.173	718.8688	2528.55	1692.5
832.3179	720.9608	2532.25	1692.8
832.4628	723.0522	2536.3	1697.4
832.6077	725.1429	2562.85	1728.95
832.7527	727.233	2614.45	1777.65
832.8976	729.3224	2698.9	1862.65
833.0425	731.4112	2789.9	1953.2
833.1874	733.4993	2832.9	1994.55
833.3324	735.5867	2757.7	1920.45
833.4773	737.6735	2659.5	1819.4
833.6222	739.7596	2559.45	1720.6
833.7672	741.845	2499.8	1659.85
833.9122	743.9298	2491.5	1650.25
834.0571	746.014	2489.1	1650.55
834.2021	748.0974	2502.85	1661.4
834.347	750.1802	2509.65	1669.15
834.492	752.2624	2493.85	1654.05
834.637	754.3439	2471.1	1630.55
834.782	756.4247	2486.45	1636.45
834.9269	758.5048	2487.1	1646.4
835.0719	760.5843	2504.85	1662.65
835.2169	762.6631	2559.05	1717.2
835.3619	764.7413	2623.8	1782.3
835.5069	766.8188	2758.4	1913.15
835.6519	768.8956	2879.3	2033.25
835.7969	770.9718	2977.2	2133.1
835.9419	773.0473	2946.15	2103.55
836.0869	775.1221	2897.5	2055.5
836.232	777.1962	2863.35	2019.7
836.377	779.2697	2968.6	2123.4
836.522	781.3426	3138.8	2285.95
836.667	783.4147	3258.45	2411.4
836.8121	785.4862	3268.75	2424.85
836.9571	787.557	3130.9	2286.4
837.1021	789.6271	2938.45	2091
837.2472	791.6966	2733.35	1886.7
837.3922	793.7654	2569.5	1724.2
837.5373	795.8335	2472.85	1625.45
837.6823	797.901	2432.85	1588.45
837.8274	799.9678	2415.75	1567.15
837.9724	802.0339	2400.25	1555.75
838.1175	804.0993	2422.75	1567.4
838.2626	806.1641	2420.1	1570.15
838.4076	808.2282	2391.3	1544.65
838.5527	810.2916	2365.1	1511.6
838.6978	812.3544	2346.95	1501.2
838.8428	814.4164	2329	1482.35
838.9879	816.4778	2342	1493.5
839.133	818.5385	2355.65	1508.25
839.2781	820.5986	2413.15	1563
839.4232	822.658	2487.65	1637.15
839.5682	824.7166	2587.3	1739.5
839.7133	826.7747	2716.8	1868.4
839.8584	828.832	2825.7	1977.1
840.0035	830.8886	2925.9	2075.9
840.1486	832.9446	2971.65	2121.65
840.2937	834.9999	2933.7	2085.5
840.4388	837.0545	2839.1	1985.1
840.5839	839.1085	2705	1852.9
840.729	841.1618	2575.55	1722.8
840.8741	843.2143	2497.95	1647.5
841.0192	845.2662	2422.5	1572.5
841.1643	847.3175	2405.8	1554.15
841.3095	849.368	2393.8	1543.55
841.4546	851.4179	2390.4	1539.8
841.5997	853.467	2390.45	1537.5
841.7448	855.5155	2390.7	1538.65
841.8899	857.5633	2403.1	1551.8
842.0351	859.6105	2392.9	1540
842.1802	861.6569	2381.4	1528.3
842.3253	863.7027	2351.2	1496.55
842.4704	865.7478	2332.1	1479
842.6156	867.7922	2314.9	1460.1
842.7607	869.8359	2300.5	1445.85
842.9058	871.8789	2290.7	1435.3
843.0509	873.9212	2300.55	1412.2
843.1961	875.9629	2290.15	1437.35
843.3412	878.0039	2317.3	1461.2
843.4863	880.0441	2328.55	1474.45
843.6315	882.0837	2356.9	1502.35
843.7766	884.1226	2395.7	1539.2
843.9218	886.1609	2445.8	1591.95
844.0669	888.1984	2520.3	1666.75
844.212	890.2352	2598.65	1744.75
844.3572	892.2714	2629.45	1770.95
844.5023	894.3069	2581.9	1725.45
844.6475	896.3416	2489.1	1633.6
844.7926	898.3757	2419.3	1562.45
844.9377	900.4091	2378	1519.85
845.0829	902.4418	2383.1	1521
845.228	904.4739	2424.5	1564.9
845.3732	906.5052	2454.3	1596.55
845.5183	908.5358	2458	1600.45
845.6635	910.5658	2431.6	1574.2
845.8086	912.595	2393.7	1536.2
845.9538	914.6236	2325.45	1469.05
846.0989	916.6515	2279.2	1423.4
846.2441	918.6786	2248.2	1387.95
846.3892	920.7051	2239.4	1379.75
846.5344	922.7309	2231.65	1375.1
846.6795	924.756	2227.95	1369.65
846.8246	926.7804	2246.85	1385.55
846.9698	928.8041	2268.4	1406.45
847.1149	930.8272	2292.2	1432.85
847.2601	932.8495	2287.9	1427.45
847.4052	934.8711	2323.6	1463.1
847.5504	936.892	2326.9	1467.25
847.6955	938.9123	2347.15	1486.55
847.8407	940.9318	2389.85	1529.55
847.9858	942.9506	2419.55	1557.1
848.131	944.9688	2418.2	1557.05
848.2761	946.9862	2380.2	1518.65
848.4213	949.003	2322.3	1461.8
848.5664	951.019	2287.8	1426.1
848.7115	953.0344	2259.25	1396.95
848.8567	955.0491	2233.7	1369.35
849.0018	957.063	2235	1373.9
849.147	959.0763	2231.2	1370.95
849.2921	961.0888	2210.9	1346.75
849.4373	963.1007	2212.7	1349.65
849.5824	965.1119	2187.45	1324
849.7275	967.1223	2184.35	1321
849.8727	969.1321	2166.45	1302.85
850.0178	971.1412	2159.1	1296.05
850.1629	973.1495	2155.15	1291.9
850.3081	975.1572	2197.15	1285.55
850.4532	977.1641	2164.85	1302.25
850.5983	979.1704	2170.15	1306.55
850.7435	981.1759	2172.25	1304.95
850.8886	983.1808	2146.7	1281.95
851.0337	985.1849	2137.75	1264.45
851.1788	987.1884	2136.4	1268.95
851.324	989.1911	2141.6	1273.55
851.4691	991.1932	2152.5	1286.15
851.6142	993.1945	2164.05	1299.6
851.7593	995.1951	2151.6	1285.75
851.9045	997.1951	2147.95	1276.4
852.0496	999.1943	2141.8	1278.7
852.1947	1001.1928	2152.25	1284.35
852.3398	1003.1906	2159.6	1294.75
852.4849	1005.1877	2187.3	1319.95
852.63	1007.1841	2240.55	1374.05
852.7751	1009.1798	2263.95	1399.5
852.9202	1011.1748	2244	1377.3
853.0653	1013.1691	2198.25	1331.1
853.2104	1015.1627	2169.25	1302.5
853.3555	1017.1556	2111.15	1243.9
853.5006	1019.1477	2084.55	1217.5
853.6457	1021.1392	2054.75	1189.1
853.7908	1023.1299	2041	1176.35
853.9359	1025.12	2045.25	1176.45
854.081	1027.1093	2054.95	1187.95
854.2261	1029.0979	2079.6	1213.8
854.3712	1031.0859	2115.9	1249.4
854.5163	1033.0731	2130	1261.05
854.6613	1035.0596	2138.3	1268.9
854.8064	1037.0454	2130.75	1264.35
854.9515	1039.0304	2116.4	1248.05
855.0965	1041.0148	2086.7	1220.6
855.2416	1042.9985	2049.2	1181.55
855.3867	1044.9814	2025.35	1156.65
855.5317	1046.9636	2010.65	1142.15
855.6768	1048.9452	2018.2	1149.8
855.8219	1050.926	2047.75	1182.25
855.9669	1052.9061	2085.8	1217.65
856.112	1054.8855	2095.95	1226.9
856.257	1056.8642	2083	1214.9
856.4021	1058.8421	2085.75	1212.3
856.5471	1060.8194	2069.45	1200.25
856.6921	1062.7959	2078.35	1208.3
856.8372	1064.7717	2067.55	1197.35
856.9822	1066.7469	2073	1201.3
857.1272	1068.7213	2061	1189.2
857.2723	1070.695	2075.15	1205.5
857.4173	1072.6679	2114.7	1243.05
857.5623	1074.6402	2154.5	1285.55
857.7073	1076.6117	2179.85	1304.8
857.8523	1078.5826	2161.9	1291.6
857.9973	1080.5527	2112.7	1240.95
858.1423	1082.5221	2048.45	1178.55
858.2873	1084.4908	2001.95	1132.15
858.4323	1086.4587	1973.4	1102
858.5773	1088.426	1961.7	1089.55
858.7223	1090.3925	1943.4	1067.9
858.8673	1092.3584	1951.35	1080.85
859.0123	1094.3235	1983.85	1114.65
859.1573	1096.2879	1997.65	1127.85
859.3022	1098.2515	2024.45	1154.1
859.4472	1100.2145	2057.15	1188.2
859.5922	1102.1767	2116.95	1243.6
859.7371	1104.1382	2178.85	1306.2
859.8821	1106.099	2259.35	1384.8
860.027	1108.0591	2324.35	1453.9
860.172	1110.0185	2392.55	1519.4
860.3169	1111.9771	2445	1572.95
860.4619	1113.9351	2518.65	1647.55
860.6068	1115.8923	2622.05	1751.7
860.7517	1117.8488	2722.85	1849.45
860.8967	1119.8045	2663.75	1792.4
861.0416	1121.7596	2526.8	1653.65
861.1865	1123.7139	2328.4	1457.75
861.3314	1125.6675	2220.65	1348.65
861.4763	1127.6204	2204.15	1332.65
861.6212	1129.5726	2245.15	1370.35
861.7661	1131.524	2271.75	1400.6
861.911	1133.4748	2208.35	1335.75
862.0559	1135.4248	2099.25	1226.2
862.2008	1137.3741	2018.9	1146.05
862.3457	1139.3226	1978.05	1102.55
862.4905	1141.2705	1960.1	1085.55
862.6354	1143.2176	1983.6	1103.9
862.7803	1145.164	2006.7	1132.45
862.9251	1147.1097	2009.9	1136.7
863.07	1149.0546	1992.8	1117.05
863.2148	1150.9989	1948.45	1077.05
863.3597	1152.9424	1900.95	1028.5
863.5045	1154.8852	1880.7	1008.1
863.6493	1156.8272	1870.15	996.65
863.7942	1158.7686	1882.05	1000.4
863.939	1160.7092	1869.45	996.1
864.0838	1162.6491	1868.2	992.2
864.2286	1164.5883	1886.25	1012.7
864.3734	1166.5267	1914.65	1039.25
864.5182	1168.4644	1943.3	1068.95
864.663	1170.4014	1982.1	1102.95
864.8078	1172.3377	2031.85	1160.1
864.9526	1174.2732	2104.1	1230.65
865.0974	1176.2081	2226.9	1354.75
865.2421	1178.1421	2409	1528.95
865.3869	1180.0755	2609.5	1738.05
865.5317	1182.0082	2752.1	1877.2
865.6764	1183.9401	2763.35	1888.2
865.8212	1185.8713	2624.05	1749.25
865.9659	1187.8017	2429.85	1553.05
866.1106	1189.7315	2246.8	1372.35
866.2554	1191.6605	2136.5	1233.35
866.4001	1193.5888	2026.1	1149.65
866.5448	1195.5163	1981.15	1104.5
866.6895	1197.4432	1950.5	1074.3
866.8342	1199.3693	1923.45	1047.95
866.9789	1201.2947	1904.4	1020.8
867.1236	1203.2193	1879.2	1001.95
867.2683	1205.1432	1866.8	988.7
867.413	1207.0664	1873.15	995.3
867.5576	1208.9889	1868.1	988.45
867.7023	1210.9106	1859.55	983.3
867.847	1212.8316	1873.45	998.45
867.9916	1214.7519	1890.95	1007.75
868.1363	1216.6715	1896.95	1022.55
868.2809	1218.5903	1918.45	1043.6
868.4255	1220.5084	1931.45	1055.15
868.5701	1222.4257	1954.7	1081.6
868.7148	1224.3424	1961.4	1085.15
868.8594	1226.2583	2002.2	1119.25
869.004	1228.1735	2026.2	1148.65
869.1486	1230.0879	2093.4	1216.15
869.2932	1232.0016	2137.05	1258.9
869.4377	1233.9146	2185	1306.15
869.5823	1235.8269	2211.95	1335.55
869.7269	1237.7384	2218.85	1343.6
869.8715	1239.6492	2216.85	1341.9
870.016	1241.5592	2222.7	1346.65
