Software Version:	3.9.2.0
Unit SN:	10000200
Spectrometer SN:	6960
Date:	3/14/2024 1:06:53 PM
Data Line Index:	25
Spectral Points:	2048
Integration time (ms):	125
Averages:	20
Delay (ms):	30000
Sequence Number:	1
Processing:	dark subtract
Laser Power (mW):	300
Laser Current (mA):	824
Laser Diode Temp (C):	25.1
Laser Case Temp (C):	28
System Temp (C):	28.1
Spectrometer Temp (C):	25.9
CCD Temp (C):	0.002
Secondary Temp (C):	20.004
Heatsink Temp (C):	23.909
CCDPCB Temp (C):	37.463
SecondaryPCB Temp (C):	35.24

Wavelength	RamanShift	Raw Counts	Dark Subtracted
787.061	30.1047	423.15	11.5
787.2016	32.3739	421.35	11.05
787.3422	34.6426	422.5	9.4
787.4828	36.9109	426.8	13.7
787.6235	39.1787	430.45	13.3
787.7642	41.4461	437.1	13.75
787.9049	43.7131	441.05	17.1
788.0456	45.9796	446	18.45
788.1863	48.2456	452.75	16.9
788.3271	50.5112	456.25	17.55
788.4679	52.7764	458.9	19.9
788.6087	55.0411	463.8	21.5
788.7496	57.3054	469.7	21.2
788.8904	59.5692	473.15	22.5
789.0313	61.8326	482.9	29.4
789.1722	64.0955	490.05	33.15
789.3132	66.3579	497.6	35.8
789.4541	68.6199	501.85	39.1
789.5951	70.8815	515.9	50
789.7361	73.1426	536.25	65.95
789.8771	75.4032	585.5	109.55
790.0181	77.6634	697.95	217.3
790.1592	79.9231	977	491.35
790.3003	82.1824	1548.05	1054.45
790.4414	84.4412	2533.15	2031
790.5825	86.6995	3853.45	3337.1
790.7237	88.9574	5166.15	4639.5
790.8648	91.2148	6093.15	5563.15
791.006	93.4717	6568.3	6032.9
791.1472	95.7282	6683.4	6142.8
791.2885	97.9842	6703.8	6161.65
791.4297	100.2398	6624.6	6078.7
791.571	102.4949	6527.4	5975.55
791.7123	104.7495	6396	5842.55
791.8536	107.0036	6274.75	5720.85
791.9949	109.2573	6148.25	5596.2
792.1363	111.5105	6024.3	5468.95
792.2777	113.7632	5915.3	5358.45
792.4191	116.0154	5827.15	5258.2
792.5605	118.2672	5773.3	5211.15
792.7019	120.5185	5711.1	5148.15
792.8434	122.7693	5659.3	5091.7
792.9849	125.0197	5605.95	5036.05
793.1264	127.2696	5562.4	4989.15
793.2679	129.519	5545.25	4970.35
793.4094	131.7679	5539.15	4963.5
793.551	134.0163	5490	4909.5
793.6926	136.2642	5461.8	4877.75
793.8342	138.5117	5410.35	4822.7
793.9758	140.7587	5360.1	4770.2
794.1175	143.0052	5310.45	4716.2
794.2591	145.2512	5235.95	4644.4
794.4008	147.4967	5188.25	4595.7
794.5425	149.7417	5142.1	4546.5
794.6842	151.9863	5105.05	4504.65
794.826	154.2304	5118.65	4514.95
794.9677	156.4739	5074.5	4466.95
795.1095	158.717	5067.05	4460.3
795.2513	160.9596	5054.55	4443.25
795.3931	163.2017	5022.85	4409.5
795.535	165.4433	4990.75	4374.85
795.6768	167.6844	4949.3	4330.55
795.8187	169.925	4898.6	4277.95
795.9606	172.1651	4856.6	4232.75
796.1025	174.4047	4811.65	4183.35
796.2445	176.6439	4757.1	4128.65
796.3864	178.8825	4739.45	4107.1
796.5284	181.1206	4726.7	4091.55
796.6704	183.3582	4697.75	4057.05
796.8124	185.5954	4669.6	4028.15
796.9544	187.832	4666.85	4023.25
797.0965	190.0681	4678.45	4031.25
797.2386	192.3037	4678.95	4030.85
797.3806	194.5388	4674.1	4020.45
797.5228	196.7734	4682.6	4027.55
797.6649	199.0075	4679.25	4019.05
797.807	201.2411	4715.75	4055.7
797.9492	203.4742	4723.35	4064.85
798.0914	205.7068	4747.3	4083.55
798.2336	207.9389	4772.7	4108.85
798.3758	210.1704	4784.95	4118.3
798.518	212.4015	4784.25	4112.95
798.6603	214.632	4825.85	4156.45
798.8025	216.862	4811.8	4151.4
798.9448	219.0915	4834.85	4182.7
799.0871	221.3205	4832.75	4181.1
799.2294	223.549	4847.25	4199.35
799.3718	225.777	4853.25	4205.2
799.5141	228.0044	4862.5	4208.95
799.6565	230.2314	4865.95	4217.3
799.7989	232.4578	4878.7	4224.9
799.9413	234.6837	4883.5	4224.35
800.0837	236.909	4883.15	4223.35
800.2262	239.1339	4906.15	4221.85
800.3687	241.3582	4886.2	4214.85
800.5111	243.582	4900.15	4204.15
800.6536	245.8053	4866.9	4176
800.7961	248.0281	4880.15	4193.95
800.9387	250.2503	4845	4154.55
801.0812	252.472	4843.75	4150.35
801.2238	254.6932	4882.35	4187.25
801.3664	256.9139	4873.85	4176.65
801.509	259.134	4909.75	4212
801.6516	261.3536	4923.35	4225.15
801.7942	263.5727	4956.9	4256.85
801.9369	265.7912	4982.65	4281.05
802.0795	268.0092	5044.75	4345.45
802.2222	270.2267	5068.9	4365.8
802.3649	272.4436	5101.65	4396.45
802.5076	274.6601	5134.1	4421.7
802.6504	276.8759	5107.1	4396.9
802.7931	279.0913	5107.85	4402.15
802.9359	281.3061	5101	4391.7
803.0787	283.5204	5106.55	4394.4
803.2215	285.7341	5088.55	4371.25
803.3643	287.9473	5116.15	4397.75
803.5071	290.16	5103.75	4379.4
803.6499	292.3721	5109.65	4395.25
803.7928	294.5837	5088.05	4370.25
803.9357	296.7947	5095.8	4378.15
804.0786	299.0052	5096.85	4379.6
804.2215	301.2152	5124	4402.05
804.3644	303.4246	5115.95	4399.7
804.5074	305.6334	5077.3	4358.35
804.6503	307.8418	5023.4	4301
804.7933	310.0495	4981.65	4257.75
804.9363	312.2568	4894.75	4171.35
805.0793	314.4635	4841.7	4117.55
805.2223	316.6696	4784.45	4058.15
805.3653	318.8752	4753.25	4019.55
805.5084	321.0802	4722.75	3994.3
805.6514	323.2847	4714.85	3986.55
805.7945	325.4887	4703.2	3973.3
805.9376	327.692	4711.15	3979.95
806.0807	329.8949	4732.65	3999.85
806.2238	332.0972	4712.4	3979.35
806.367	334.2989	4694.35	3955
806.5101	336.5001	4649.6	3912.45
806.6533	338.7007	4612.3	3875.6
806.7965	340.9008	4594.1	3857.05
806.9397	343.1003	4543.35	3803.1
807.0829	345.2992	4526	3785.5
807.2261	347.4976	4502.2	3759.6
807.3693	349.6955	4479.65	3733.2
807.5126	351.8927	4471.65	3723.55
807.6559	354.0895	4441	3682.7
807.7991	356.2856	4435.5	3682.7
807.9424	358.4812	4426.5	3678.3
808.0857	360.6763	4420.9	3670.2
808.2291	362.8707	4413.9	3663.65
808.3724	365.0646	4418.1	3662.4
808.5158	367.258	4426.75	3671.7
808.6591	369.4508	4424.75	3664.2
808.8025	371.643	4436.9	3677.8
808.9459	373.8346	4448.5	3686.15
809.0893	376.0257	4455.4	3688.45
809.2327	378.2162	4470.5	3704.2
809.3762	380.4062	4463.35	3695.25
809.5196	382.5956	4437.55	3668.85
809.6631	384.7844	4414.3	3648.65
809.8066	386.9726	4406.8	3636.35
809.9501	389.1603	4366.5	3598.8
810.0936	391.3474	4377.7	3575.2
810.2371	393.5339	4344.95	3571.7
810.3806	395.7199	4327.25	3563.4
810.5241	397.9052	4342.8	3580.3
810.6677	400.09	4337.25	3575.7
810.8113	402.2743	4364.95	3599.75
810.9548	404.4579	4375.6	3615.2
811.0984	406.641	4414.7	3653.35
811.2421	408.8235	4461.2	3698.55
811.3857	411.0054	4484.6	3721.75
811.5293	413.1868	4560.05	3793.75
811.673	415.3675	4630.55	3862.8
811.8166	417.5477	4620.4	3852.75
811.9603	419.7273	4560.05	3788.85
812.104	421.9064	4476.05	3697.05
812.2477	424.0848	4410.8	3632
812.3914	426.2627	4391.75	3613.25
812.5351	428.4399	4353.55	3575.65
812.6788	430.6166	4304.5	3520.8
812.8226	432.7928	4240.15	3455.05
812.9663	434.9683	4181.3	3397.75
813.1101	437.1432	4147.2	3358.55
813.2539	439.3176	4096.15	3310.4
813.3977	441.4914	4089.2	3303.25
813.5415	443.6645	4073.55	3285.1
813.6853	445.8371	4045.45	3254.2
813.8291	448.0091	4063.25	3275.75
813.973	450.1806	4043.15	3255.1
814.1168	452.3514	4024.3	3228.9
814.2607	454.5216	4035.45	3233.25
814.4046	456.6913	4016.15	3220.15
814.5485	458.8603	4024.7	3230.7
814.6924	461.0288	4018.55	3224.15
814.8363	463.1967	3995.1	3204.15
814.9802	465.3639	4011.65	3214.7
815.1241	467.5306	3997.3	3202.65
815.2681	469.6967	3986.45	3188.8
815.412	471.8622	3964.75	3170.45
815.556	474.0271	3983.1	3185.9
815.7	476.1914	3975.05	3173.95
815.844	478.3551	3973.3	3174.85
815.988	480.5182	3972.5	3171.9
816.132	482.6807	3990.4	3187.3
816.276	484.8426	4012.65	3211.1
816.4201	487.0039	4052.1	3250.95
816.5641	489.1647	4112.1	3310.8
816.7082	491.3248	4153.05	3351.2
816.8522	493.4843	4160.9	3359.25
816.9963	495.6432	4153.9	3352.2
817.1404	497.8015	4126.55	3322.6
817.2845	499.9592	4104.55	3301.4
817.4286	502.1163	4055.45	3253.7
817.5727	504.2728	4001.55	3195.8
817.7168	506.4287	3978.65	3174.2
817.861	508.5839	3914.9	3109
818.0051	510.7386	3886.05	3081
818.1493	512.8927	3891.95	3077.5
818.2935	515.0461	3870.25	3062.55
818.4377	517.199	3874	3064.95
818.5818	519.3512	3906.8	3098.9
818.726	521.5029	3942.05	3129.1
818.8703	523.6539	3983.9	3175.95
819.0145	525.8043	3993	3182.2
819.1587	527.9541	3973.8	3160.55
819.303	530.1033	3937.3	3125.45
819.4472	532.2519	3921.05	3106.65
819.5915	534.3999	3882.2	3067.2
819.7357	536.5472	3882.15	3067.5
819.88	538.694	3894.45	3082.05
820.0243	540.8401	3927.05	3113.7
820.1686	542.9856	3962.95	3147.4
820.3129	545.1305	3963.2	3146.55
820.4572	547.2748	3951.45	3134.95
820.6016	549.4185	3923.3	3106
820.7459	551.5615	3901.75	3081.95
820.8902	553.704	3919.1	3100.15
821.0346	555.8458	3919.85	3104.2
821.1789	557.987	3929.65	3114.3
821.3233	560.1276	3947	3129.1
821.4677	562.2675	4003.25	3187.35
821.6121	564.4069	4076.7	3257.7
821.7565	566.5456	4125.5	3308.4
821.9009	568.6837	4172.35	3352.35
822.0453	570.8212	4104.5	3288.05
822.1897	572.958	4015.25	3195.35
822.3342	575.0942	3911.95	3094.95
822.4786	577.2299	3860.3	3041.35
822.6231	579.3648	3794.5	2975.05
822.7675	581.4992	3771.95	2952.35
822.912	583.6329	3770.15	2949.55
823.0565	585.766	3792.05	2971.3
823.201	587.8985	3810.25	2990.9
823.3454	590.0304	3822.7	2976.4
823.4899	592.1616	3828.1	3002.45
823.6345	594.2922	3800.2	2975.6
823.779	596.4222	3779.75	2955.9
823.9235	598.5515	3723.9	2899.05
824.068	600.6802	3695.1	2870.65
824.2126	602.8083	3657.45	2831.05
824.3571	604.9358	3644.45	2818.15
824.5017	607.0626	3658.85	2831.5
824.6462	609.1888	3665.9	2838.6
824.7908	611.3144	3691.4	2863.3
824.9354	613.4393	3713.4	2885.2
825.08	615.5636	3721.15	2893.35
825.2246	617.6873	3733.35	2905.2
825.3692	619.8103	3751.45	2922.9
825.5138	621.9327	3706.95	2876.35
825.6584	624.0544	3683.55	2855.95
825.803	626.1756	3632.85	2802.7
825.9477	628.2961	3599.35	2769.95
826.0923	630.4159	3586.55	2755.8
826.237	632.5351	3585.75	2754.2
826.3816	634.6537	3571.35	2739.35
826.5263	636.7716	3575.05	2742.05
826.6709	638.8889	3573.45	2742.7
826.8156	641.0056	3584.6	2752.6
826.9603	643.1216	3578.7	2744.9
827.105	645.237	3581.15	2746.25
827.2497	647.3518	3550.9	2718.2
827.3944	649.4659	3531.55	2695.6
827.5391	651.5793	3528.6	2693.45
827.6838	653.6922	3512.05	2677.7
827.8285	655.8043	3489.9	2654.55
827.9733	657.9159	3500.6	2665.35
828.118	660.0268	3492.5	2653.75
828.2627	662.137	3494.05	2657.3
828.4075	664.2466	3480.15	2642.9
828.5522	666.3556	3477.9	2640.5
828.697	668.4639	3464.95	2626.25
828.8418	670.5716	3465.1	2627.05
828.9865	672.6786	3446.1	2606.25
829.1313	674.785	3432.95	2591.8
829.2761	676.8907	3416.75	2577.85
829.4209	678.9958	3413.65	2576.25
829.5657	681.1002	3408.15	2569
829.7105	683.204	3398.05	2553.3
829.8553	685.3072	3401	2558.95
830.0001	687.4097	3390.35	2550.45
830.1449	689.5115	3392.75	2548.25
830.2898	691.6127	3394.85	2553
830.4346	693.7132	3390.65	2546.5
830.5794	695.8131	3408.95	2551.2
830.7243	697.9123	3376.65	2529.75
830.8691	700.0109	3380.95	2535.7
831.014	702.1089	3383.05	2541
831.1588	704.2061	3406.8	2564.3
831.3037	706.3028	3400	2554.5
831.4486	708.3987	3402.55	2557.65
831.5935	710.4941	3420.2	2575.8
831.7383	712.5887	3418.8	2572
831.8832	714.6827	3429	2581.1
832.0281	716.7761	3435.4	2590.7
832.173	718.8688	3441.85	2593.2
832.3179	720.9608	3451.85	2601.8
832.4628	723.0522	3470.75	2621.15
832.6077	725.1429	3468.45	2623.65
832.7527	727.233	3502.5	2656.15
832.8976	729.3224	3526.15	2682.55
833.0425	731.4112	3515.15	2666.4
833.1874	733.4993	3501	2651.6
833.3324	735.5867	3467.05	2616.85
833.4773	737.6735	3421.3	2571.2
833.6222	739.7596	3397.95	2547.35
833.7672	741.845	3383.15	2534.65
833.9122	743.9298	3377.5	2528.8
834.0571	746.014	3371.85	2524.8
834.2021	748.0974	3362.6	2512.4
834.347	750.1802	3357.3	2506.55
834.492	752.2624	3350.65	2499.45
834.637	754.3439	3340.55	2488.6
834.782	756.4247	3337.75	2479.5
834.9269	758.5048	3339.6	2488.45
835.0719	760.5843	3357.4	2506.35
835.2169	762.6631	3400.35	2549.95
835.3619	764.7413	3462.75	2611.3
835.5069	766.8188	3560.9	2708.65
835.6519	768.8956	3637.9	2784.25
835.7969	770.9718	3708.15	2856.35
835.9419	773.0473	3702.85	2852.7
836.0869	775.1221	3671.75	2820.65
836.232	777.1962	3623.1	2772.1
836.377	779.2697	3630.7	2779.1
836.522	781.3426	3655.85	2793
836.667	783.4147	3690.7	2837
836.8121	785.4862	3691.15	2840.3
836.9571	787.557	3657.05	2802.2
837.1021	789.6271	3584.65	2730.55
837.2472	791.6966	3473.85	2620.85
837.3922	793.7654	3365.75	2509.95
837.5373	795.8335	3308.8	2455.45
837.6823	797.901	3247.8	2394.05
837.8274	799.9678	3218.45	2363
837.9724	802.0339	3195.1	2342.25
838.1175	804.0993	3209.45	2345.35
838.2626	806.1641	3174.85	2319.25
838.4076	808.2282	3162.6	2307.85
838.5527	810.2916	3162.75	2304
838.6978	812.3544	3142.4	2287.1
838.8428	814.4164	3131	2276.2
838.9879	816.4778	3132.8	2277.4
839.133	818.5385	3112.8	2260.65
839.2781	820.5986	3142.3	2286.85
839.4232	822.658	3183.05	2324.4
839.5682	824.7166	3212.5	2356.75
839.7133	826.7747	3284.45	2427.3
839.8584	828.832	3366.3	2509.95
840.0035	830.8886	3421.7	2561.8
840.1486	832.9446	3449.9	2590.45
840.2937	834.9999	3439.9	2585.15
840.4388	837.0545	3408.4	2547.4
840.5839	839.1085	3327.25	2468.7
840.729	841.1618	3285.6	2423.05
840.8741	843.2143	3234.35	2377.4
841.0192	845.2662	3190.1	2333.15
841.1643	847.3175	3170.85	2314
841.3095	849.368	3141.25	2283.8
841.4546	851.4179	3139.55	2281.25
841.5997	853.467	3118.5	2260.35
841.7448	855.5155	3133	2272.9
841.8899	857.5633	3094.9	2236.15
842.0351	859.6105	3082.75	2225.75
842.1802	861.6569	3084	2226.75
842.3253	863.7027	3050.25	2190.05
842.4704	865.7478	3046.2	2187
842.6156	867.7922	3032.9	2171.4
842.7607	869.8359	3028.9	2167
842.9058	871.8789	3026	2165.45
843.0509	873.9212	3055.45	2160.9
843.1961	875.9629	3044.4	2184.35
843.3412	878.0039	3045.55	2182.35
843.4863	880.0441	3060.05	2200.15
843.6315	882.0837	3059.05	2195.7
843.7766	884.1226	3070.25	2208.8
843.9218	886.1609	3085.6	2222.95
844.0669	888.1984	3115.3	2255.15
844.212	890.2352	3125.2	2266.3
844.3572	892.2714	3154.9	2289.55
844.5023	894.3069	3140.85	2278.9
844.6475	896.3416	3111.9	2249.95
844.7926	898.3757	3064.3	2202.25
844.9377	900.4091	3046	2184.1
845.0829	902.4418	3030.4	2163.45
845.228	904.4739	3050.05	2185.05
845.3732	906.5052	3056.75	2192.85
845.5183	908.5358	3047.9	2183.15
845.6635	910.5658	3033.35	2168.35
845.8086	912.595	2989.7	2127.45
845.9538	914.6236	2966	2100.7
846.0989	916.6515	2931.25	2068
846.2441	918.6786	2919.95	2054.3
846.3892	920.7051	2903.55	2038.85
846.5344	922.7309	2891.8	2026.35
846.6795	924.756	2901.1	2036.25
846.8246	926.7804	2913.95	2048.6
846.9698	928.8041	2905.4	2038.55
847.1149	930.8272	2923.4	2060.35
847.2601	932.8495	2913.2	2046.55
847.4052	934.8711	2903.5	2039.2
847.5504	936.892	2899.85	2033.45
847.6955	938.9123	2901.5	2035.9
847.8407	940.9318	2901.75	2034.6
847.9858	942.9506	2909.9	2042.8
848.131	944.9688	2908.75	2040.65
848.2761	946.9862	2888.2	2022.45
848.4213	949.003	2850.75	1983.9
848.5664	951.019	2818.55	1952
848.7115	953.0344	2810.15	1943.7
848.8567	955.0491	2795.1	1925.75
849.0018	957.063	2804.05	1937.95
849.147	959.0763	2815.65	1948.25
849.2921	961.0888	2810.65	1942.85
849.4373	963.1007	2812.8	1946.85
849.5824	965.1119	2824.05	1955.9
849.7275	967.1223	2807.95	1939.95
849.8727	969.1321	2808.8	1942.05
850.0178	971.1412	2800.65	1934.6
850.1629	973.1495	2790.75	1923.4
850.3081	975.1572	2816.8	1915.2
850.4532	977.1641	2803.7	1936.95
850.5983	979.1704	2777.25	1907.55
850.7435	981.1759	2768.65	1898.2
850.8886	983.1808	2771.25	1900.95
851.0337	985.1849	2764.55	1885.55
851.1788	987.1884	2768.35	1898.6
851.324	989.1911	2782.6	1910.3
851.4691	991.1932	2787.45	1916.5
851.6142	993.1945	2782.8	1916.2
851.7593	995.1951	2779.25	1909.15
851.9045	997.1951	2775.75	1901.15
852.0496	999.1943	2759.95	1891.95
852.1947	1001.1928	2754.4	1886.55
852.3398	1003.1906	2756.05	1886.75
852.4849	1005.1877	2784.75	1914.25
852.63	1007.1841	2773.8	1904.2
852.7751	1009.1798	2792.1	1922.75
852.9202	1011.1748	2802.7	1934.75
853.0653	1013.1691	2771.7	1900.6
853.2104	1015.1627	2726.15	1857.15
853.3555	1017.1556	2682.15	1812.35
853.5006	1019.1477	2670.95	1798.5
853.6457	1021.1392	2642.8	1773.4
853.7908	1023.1299	2632.85	1761.9
853.9359	1025.12	2620.05	1747.65
854.081	1027.1093	2637.1	1767.35
854.2261	1029.0979	2652.15	1785.15
854.3712	1031.0859	2661.9	1791.05
854.5163	1033.0731	2661	1789.55
854.6613	1035.0596	2663.3	1794.9
854.8064	1037.0454	2639.8	1770.9
854.9515	1039.0304	2615.55	1744.1
855.0965	1041.0148	2594.05	1726.15
855.2416	1042.9985	2583.7	1711.65
855.3867	1044.9814	2575.7	1706.05
855.5317	1046.9636	2561.4	1688.6
855.6768	1048.9452	2543.2	1673.65
855.8219	1050.926	2562.15	1690.2
855.9669	1052.9061	2562.45	1693.4
856.112	1054.8855	2565.2	1695.35
856.257	1056.8642	2577.1	1705
856.4021	1058.8421	2579.75	1705.2
856.5471	1060.8194	2579.3	1708.1
856.6921	1062.7959	2576.55	1704.95
856.8372	1064.7717	2579.4	1707.55
856.9822	1066.7469	2583.3	1711.7
857.1272	1068.7213	2593.4	1721.65
857.2723	1070.695	2592.6	1719.85
857.4173	1072.6679	2608.2	1734.8
857.5623	1074.6402	2613.8	1739.1
857.7073	1076.6117	2615.3	1736.85
857.8523	1078.5826	2592.6	1719.75
857.9973	1080.5527	2562.15	1684.7
858.1423	1082.5221	2536.5	1663.4
858.2873	1084.4908	2536.6	1665.85
858.4323	1086.4587	2512.15	1638.9
858.5773	1088.426	2523.3	1651.8
858.7223	1090.3925	2515.9	1637.95
858.8673	1092.3584	2521.4	1651.15
859.0123	1094.3235	2506.25	1635.85
859.1573	1096.2879	2528	1654
859.3022	1098.2515	2546.1	1672.15
859.4472	1100.2145	2562.9	1691.4
859.5922	1102.1767	2590.8	1716.45
859.7371	1104.1382	2628.1	1755.25
859.8821	1106.099	2670.7	1793.35
860.027	1108.0591	2706.4	1831.3
860.172	1110.0185	2718.45	1841.9
860.3169	1111.9771	2753.75	1882.05
860.4619	1113.9351	2738.75	1864.6
860.6068	1115.8923	2726.85	1853
860.7517	1117.8488	2707.3	1832.95
860.8967	1119.8045	2682.15	1807.45
861.0416	1121.7596	2654.65	1779.5
861.1865	1123.7139	2602.1	1728.4
861.3314	1125.6675	2588.05	1712.1
861.4763	1127.6204	2584.7	1709.9
861.6212	1129.5726	2596.3	1720.25
861.7661	1131.524	2569.65	1695.65
861.911	1133.4748	2556.2	1681.2
862.0559	1135.4248	2515.55	1641.3
862.2008	1137.3741	2489.6	1614.35
862.3457	1139.3226	2471.55	1595.95
862.4905	1141.2705	2462.65	1587.25
862.6354	1143.2176	2445.35	1565.7
862.7803	1145.164	2444.85	1569.15
862.9251	1147.1097	2429.7	1557.5
863.07	1149.0546	2404.7	1527.8
863.2148	1150.9989	2390.25	1516.2
863.3597	1152.9424	2367	1491.2
863.5045	1154.8852	2347.9	1473.9
863.6493	1156.8272	2333.6	1459.7
863.7942	1158.7686	2333.35	1450.2
863.939	1160.7092	2341.9	1465.7
864.0838	1162.6491	2338.5	1462.35
864.2286	1164.5883	2352.55	1476.55
864.3734	1166.5267	2364.7	1487.45
864.5182	1168.4644	2374.9	1499.7
864.663	1170.4014	2426.65	1545.9
864.8078	1172.3377	2442.55	1568.65
864.9526	1174.2732	2496.7	1621.6
865.0974	1176.2081	2547.25	1670.5
865.2421	1178.1421	2635.7	1757.65
865.3869	1180.0755	2705.25	1831.8
865.5317	1182.0082	2767.85	1891.9
865.6764	1183.9401	2796.95	1920.65
865.8212	1185.8713	2767.25	1891.75
865.9659	1187.8017	2706.5	1830.6
866.1106	1189.7315	2621.8	1747.35
866.2554	1191.6605	2570.55	1664.3
866.4001	1193.5888	2492.85	1618.2
866.5448	1195.5163	2461	1584.65
866.6895	1197.4432	2442.95	1567.55
866.8342	1199.3693	2419.6	1544.2
866.9789	1201.2947	2417.15	1536.35
867.1236	1203.2193	2409.7	1535.6
867.2683	1205.1432	2399	1520.15
867.413	1207.0664	2405.65	1529.8
867.5576	1208.9889	2399	1518.9
867.7023	1210.9106	2393.05	1519.35
867.847	1212.8316	2389.15	1513.15
867.9916	1214.7519	2409.15	1524.65
868.1363	1216.6715	2406.95	1530.5
868.2809	1218.5903	2411.15	1535.8
868.4255	1220.5084	2418.8	1540.25
868.5701	1222.4257	2432.45	1554.9
868.7148	1224.3424	2439.7	1564.55
868.8594	1226.2583	2467.6	1584.75
869.004	1228.1735	2488.2	1612.6
869.1486	1230.0879	2521.55	1642.95
869.2932	1232.0016	2560.55	1685.05
869.4377	1233.9146	2590.25	1711.4
869.5823	1235.8269	2586.65	1710.9
869.7269	1237.7384	2582.9	1705.8
869.8715	1239.6492	2566.6	1690.2
