Software Version:	3.9.2.0
Unit SN:	10000200
Spectrometer SN:	6960
Date:	3/14/2024 12:40:49 PM
Data Line Index:	25
Spectral Points:	2048
Integration time (ms):	125
Averages:	20
Delay (ms):	30000
Sequence Number:	1
Processing:	dark subtract
Laser Power (mW):	305
Laser Current (mA):	823
Laser Diode Temp (C):	25
Laser Case Temp (C):	27
System Temp (C):	27
Spectrometer Temp (C):	24.6
CCD Temp (C):	0.004
Secondary Temp (C):	20.008
Heatsink Temp (C):	23.081
CCDPCB Temp (C):	36.774
SecondaryPCB Temp (C):	34.384

Wavelength	RamanShift	Raw Counts	Dark Subtracted
787.061	30.1047	416.7	4.25
787.2016	32.3739	417.5	6.3
787.3422	34.6426	417.65	4.2
787.4828	36.9109	420.8	6.4
787.6235	39.1787	425.4	8
787.7642	41.4461	430.8	8.3
787.9049	43.7131	433.65	8.45
788.0456	45.9796	436.45	7.85
788.1863	48.2456	441.95	8.25
788.3271	50.5112	448.75	12.05
788.4679	52.7764	449.75	11.75
788.6087	55.0411	451.95	10.75
788.7496	57.3054	458.65	11.15
788.8904	59.5692	460.8	13.1
789.0313	61.8326	465	11.55
789.1722	64.0955	471.45	14.75
789.3132	66.3579	479.7	16.5
789.4541	68.6199	485	19.65
789.5951	70.8815	494.7	28.5
789.7361	73.1426	508.95	36.35
789.8771	75.4032	537.4	60.75
790.0181	77.6634	598.05	116.7
790.1592	79.9231	739.15	254.5
790.3003	82.1824	1025.95	536.35
790.4414	84.4412	1525.15	1029.35
790.5825	86.6995	2168.65	1661.8
790.7237	88.9574	2805.45	2292.6
790.8648	91.2148	3259.7	2743.45
791.006	93.4717	3467.15	2944.55
791.1472	95.7282	3542.55	3016.4
791.2885	97.9842	3558.1	3029.5
791.4297	100.2398	3534.05	3000.35
791.571	102.4949	3514.7	2978.7
791.7123	104.7495	3506.75	2965.85
791.8536	107.0036	3472.7	2933.3
791.9949	109.2573	3422.3	2881.75
792.1363	111.5105	3386.25	2847
792.2777	113.7632	3295.4	2753.35
792.4191	116.0154	3252.95	2700.4
792.5605	118.2672	3195.55	2649.5
792.7019	120.5185	3132.1	2584.05
792.8434	122.7693	3073.25	2524.85
792.9849	125.0197	3027.15	2476.95
793.1264	127.2696	2974.35	2419.9
793.2679	129.519	2957.75	2402.65
793.4094	131.7679	2930.05	2370.05
793.551	134.0163	2928.35	2364.2
793.6926	136.2642	2911.75	2342.75
793.8342	138.5117	2928.35	2355.2
793.9758	140.7587	2896.35	2322.85
794.1175	143.0052	2867.15	2289.65
794.2591	145.2512	2839	2260.6
794.4008	147.4967	2794.95	2217.5
794.5425	149.7417	2775.45	2195.95
794.6842	151.9863	2750.65	2167.25
794.826	154.2304	2745.35	2158.45
794.9677	156.4739	2736.6	2144.7
795.1095	158.717	2745.45	2153.95
795.2513	160.9596	2766.25	2170.6
795.3931	163.2017	2764.6	2164.75
795.535	165.4433	2776.75	2174.95
795.6768	167.6844	2779.6	2176.8
795.8187	169.925	2763.35	2158.8
795.9606	172.1651	2724.2	2112.55
796.1025	174.4047	2689.55	2077.05
796.2445	176.6439	2662.7	2047
796.3864	178.8825	2654.3	2034.9
796.5284	181.1206	2641.25	2020.05
796.6704	183.3582	2631.65	2006.2
796.8124	185.5954	2630.85	2002.85
796.9544	187.832	2624.05	1992.9
797.0965	190.0681	2629.6	1999.5
797.2386	192.3037	2623.55	1988.05
797.3806	194.5388	2617.85	1979.7
797.5228	196.7734	2627.65	1986.8
797.6649	199.0075	2640	1996
797.807	201.2411	2656	2009.3
797.9492	203.4742	2664.9	2016.2
798.0914	205.7068	2680.75	2034.1
798.2336	207.9389	2690.9	2043.9
798.3758	210.1704	2702.1	2049.75
798.518	212.4015	2707.45	2052.05
798.6603	214.632	2706.1	2049.85
798.8025	216.862	2695.3	2044.45
798.9448	219.0915	2690.15	2046.85
799.0871	221.3205	2698	2057.95
799.2294	223.549	2698.4	2065.05
799.3718	225.777	2701.3	2066.95
799.5141	228.0044	2700.6	2061.75
799.6565	230.2314	2678.55	2042.3
799.7989	232.4578	2672.55	2034.95
799.9413	234.6837	2657.4	2009.8
800.0837	236.909	2652.8	2005.15
800.2262	239.1339	2668.65	1996.4
800.3687	241.3582	2632.25	1979.15
800.5111	243.582	2664.8	1983.15
800.6536	245.8053	2668.75	1993.6
800.7961	248.0281	2649.1	1978.4
800.9387	250.2503	2660.4	1987.25
801.0812	252.472	2660.1	1978.35
801.2238	254.6932	2669.8	1987.35
801.3664	256.9139	2678.1	1993.1
801.509	259.134	2670.75	1985.75
801.6516	261.3536	2678.85	1995.35
801.7942	263.5727	2704.85	2015.95
801.9369	265.7912	2727.05	2041.2
802.0795	268.0092	2760.1	2071.05
802.2222	270.2267	2793.6	2105.15
802.3649	272.4436	2818.9	2129.05
802.5076	274.6601	2833.45	2133.25
802.6504	276.8759	2851.25	2155.8
802.7931	279.0913	2846.45	2151.85
802.9359	281.3061	2864.25	2169.15
803.0787	283.5204	2874.9	2174.55
803.2215	285.7341	2899.55	2198.45
803.3643	287.9473	2903.7	2197.8
803.5071	290.16	2912.55	2202.05
803.6499	292.3721	2878.3	2173.9
803.7928	294.5837	2837	2130.6
803.9357	296.7947	2823.75	2119.65
804.0786	299.0052	2808.45	2103.55
804.2215	301.2152	2800.2	2090.4
804.3644	303.4246	2794.3	2088.1
804.5074	305.6334	2775.05	2068.5
804.6503	307.8418	2763.6	2051.1
804.7933	310.0495	2738.55	2026.15
804.9363	312.2568	2722	2013.1
805.0793	314.4635	2690.35	1980.2
805.2223	316.6696	2670.65	1957.3
805.3653	318.8752	2636.65	1913.1
805.5084	321.0802	2599.55	1882.5
805.6514	323.2847	2598.15	1882.15
805.7945	325.4887	2588.75	1872.95
805.9376	327.692	2590.7	1870.8
806.0807	329.8949	2630.9	1911.6
806.2238	332.0972	2659.45	1939
806.367	334.2989	2681.9	1954.05
806.5101	336.5001	2672.4	1946.85
806.6533	338.7007	2661.55	1935.55
806.7965	340.9008	2628.4	1899.4
806.9397	343.1003	2584.8	1856.05
807.0829	345.2992	2555.85	1826.2
807.2261	347.4976	2514.4	1782.2
807.3693	349.6955	2493.85	1758.35
807.5126	351.8927	2484.65	1747.9
807.6559	354.0895	2475.25	1728
807.7991	356.2856	2468.3	1730.65
807.9424	358.4812	2456.6	1718.55
808.0857	360.6763	2455.6	1715.9
808.2291	362.8707	2443.8	1701.35
808.3724	365.0646	2431.5	1689.3
808.5158	367.258	2435.55	1688.65
808.6591	369.4508	2447.35	1699.3
808.8025	371.643	2468.45	1720.15
808.9459	373.8346	2469.35	1717.65
809.0893	376.0257	2508.15	1757.4
809.2327	378.2162	2525.85	1770.3
809.3762	380.4062	2526.25	1769.55
809.5196	382.5956	2531.25	1770.7
809.6631	384.7844	2489.15	1732.95
809.8066	386.9726	2461.65	1700.95
809.9501	389.1603	2442	1680.9
810.0936	391.3474	2451.95	1659.9
810.2371	393.5339	2424.45	1663.05
810.3806	395.7199	2419.9	1665
810.5241	397.9052	2422.15	1670.35
810.6677	400.09	2433.6	1684.9
810.8113	402.2743	2471.75	1721.7
810.9548	404.4579	2489.2	1737.2
811.0984	406.641	2530.95	1777.4
811.2421	408.8235	2554.45	1802.7
811.3857	411.0054	2576.75	1822.65
811.5293	413.1868	2644.05	1887.9
811.673	415.3675	2719.45	1959.55
811.8166	417.5477	2734.75	1974.05
811.9603	419.7273	2680.25	1917.7
812.104	421.9064	2582.75	1812.45
812.2477	424.0848	2512.7	1743.5
812.3914	426.2627	2483.05	1716.55
812.5351	428.4399	2427.75	1656.85
812.6788	430.6166	2388.6	1612.8
812.8226	432.7928	2364.95	1587.55
812.9663	434.9683	2341.7	1569.1
813.1101	437.1432	2323.45	1546.15
813.2539	439.3176	2297	1517.3
813.3977	441.4914	2295.75	1518.15
813.5415	443.6645	2287.6	1504.25
813.6853	445.8371	2292.1	1509.2
813.8291	448.0091	2282.3	1503.1
813.973	450.1806	2280.95	1498.9
814.1168	452.3514	2274.9	1491.8
814.2607	454.5216	2276.5	1485.15
814.4046	456.6913	2266.45	1481.65
814.5485	458.8603	2256.15	1472.05
814.6924	461.0288	2263.9	1479.55
814.8363	463.1967	2262.4	1476.3
814.9802	465.3639	2263.75	1475.3
815.1241	467.5306	2261.75	1474.55
815.2681	469.6967	2239.9	1453.05
815.412	471.8622	2241.65	1453.3
815.556	474.0271	2235.6	1447.45
815.7	476.1914	2233.15	1441.45
815.844	478.3551	2219.7	1428.65
815.988	480.5182	2237.6	1445.25
816.132	482.6807	2224.4	1432.25
816.276	484.8426	2229.8	1437.5
816.4201	487.0039	2265.95	1471.9
816.5641	489.1647	2286.8	1492.9
816.7082	491.3248	2330.95	1537.95
816.8522	493.4843	2336.65	1543.55
816.9963	495.6432	2327.3	1533.05
817.1404	497.8015	2302.8	1502.6
817.2845	499.9592	2268.75	1472.55
817.4286	502.1163	2248.45	1452.2
817.5727	504.2728	2209.25	1409.15
817.7168	506.4287	2200.45	1403
817.861	508.5839	2180.3	1382.4
818.0051	510.7386	2187.75	1388.9
818.1493	512.8927	2191.15	1387.45
818.2935	515.0461	2191.3	1390.7
818.4377	517.199	2194.4	1395
818.5818	519.3512	2209.4	1410.65
818.726	521.5029	2262.75	1455.5
818.8703	523.6539	2307.45	1506.15
819.0145	525.8043	2308.95	1505.1
819.1587	527.9541	2273.05	1465.85
819.303	530.1033	2219.1	1414.1
819.4472	532.2519	2190.6	1385.95
819.5915	534.3999	2184.1	1377.9
819.7357	536.5472	2167.65	1360.55
819.88	538.694	2159.2	1352.65
820.0243	540.8401	2180.25	1371.65
820.1686	542.9856	2185.85	1375.45
820.3129	545.1305	2201.75	1391.15
820.4572	547.2748	2214	1405.05
820.6016	549.4185	2202.55	1392.95
820.7459	551.5615	2212.75	1403.4
820.8902	553.704	2217.2	1407.05
821.0346	555.8458	2220.15	1408.8
821.1789	557.987	2245.2	1433.3
821.3233	560.1276	2258.2	1444
821.4677	562.2675	2285.15	1474.25
821.6121	564.4069	2333.45	1521.25
821.7565	566.5456	2367.5	1556.75
821.9009	568.6837	2352.65	1540
822.0453	570.8212	2307.2	1496.45
822.1897	572.958	2252.55	1439.8
822.3342	575.0942	2220.5	1407.55
822.4786	577.2299	2202.6	1385.55
822.6231	579.3648	2184.2	1367.9
822.7675	581.4992	2150.4	1333.95
822.912	583.6329	2143.95	1326.7
823.0565	585.766	2159.5	1342.5
823.201	587.8985	2194.8	1379.5
823.3454	590.0304	2226.8	1400.3
823.4899	592.1616	2236.25	1416.65
823.6345	594.2922	2251.45	1432.2
823.779	596.4222	2214.2	1395.45
823.9235	598.5515	2172.5	1351.8
824.068	600.6802	2136.2	1318
824.2126	602.8083	2114.35	1292.9
824.3571	604.9358	2103.2	1280.7
824.5017	607.0626	2097.35	1275.3
824.6462	609.1888	2113.15	1291.8
824.7908	611.3144	2121.8	1298.55
824.9354	613.4393	2137.1	1315.55
825.08	615.5636	2167.9	1346.2
825.2246	617.6873	2199.95	1377.3
825.3692	619.8103	2221.35	1396.65
825.5138	621.9327	2219.7	1394.75
825.6584	624.0544	2210.05	1386.6
825.803	626.1756	2163.25	1339.25
825.9477	628.2961	2132.9	1307.55
826.0923	630.4159	2099.3	1275.05
826.237	632.5351	2094.95	1269.35
826.3816	634.6537	2104.35	1277.7
826.5263	636.7716	2100.8	1272.6
826.6709	638.8889	2089.05	1261.3
826.8156	641.0056	2090.2	1261.7
826.9603	643.1216	2093.15	1263.45
827.105	645.237	2104.65	1273.85
827.2497	647.3518	2088.4	1259.5
827.3944	649.4659	2079.1	1248.5
827.5391	651.5793	2055.1	1226.05
827.6838	653.6922	2045.8	1213.95
827.8285	655.8043	2027.3	1197.15
827.9733	657.9159	2034.05	1200.6
828.118	660.0268	2025.75	1191.3
828.2627	662.137	2029	1196.7
828.4075	664.2466	2023.1	1189.3
828.5522	666.3556	2024.45	1193.6
828.697	668.4639	2020.35	1181.45
828.8418	670.5716	2005.6	1171.6
828.9865	672.6786	2009.4	1175.2
829.1313	674.785	1998.25	1163.2
829.2761	676.8907	1991.7	1157.45
829.4209	678.9958	2005.3	1172.2
829.5657	681.1002	1988.1	1151.15
829.7105	683.204	1997.2	1156.65
829.8553	685.3072	1993.8	1155.4
830.0001	687.4097	1986.7	1150.95
830.1449	689.5115	1992.3	1154.25
830.2898	691.6127	1988	1151.55
830.4346	693.7132	1987.95	1150.95
830.5794	695.8131	1988.55	1136.9
830.7243	697.9123	1997.55	1159.05
830.8691	700.0109	1996.6	1156.65
831.014	702.1089	1999.6	1160.15
831.1588	704.2061	2007.75	1169.2
831.3037	706.3028	2023.15	1182.65
831.4486	708.3987	2031.85	1190.75
831.5935	710.4941	2035.15	1192.85
831.7383	712.5887	2049.75	1206.55
831.8832	714.6827	2045.05	1200.6
832.0281	716.7761	2038.35	1196
832.173	718.8688	2025	1180.1
832.3179	720.9608	2036.55	1191.1
832.4628	723.0522	2029.9	1185.5
832.6077	725.1429	2039.35	1197.35
832.7527	727.233	2081.25	1237.15
832.8976	729.3224	2113.2	1268.15
833.0425	731.4112	2144.75	1299.65
833.1874	733.4993	2157.35	1310.05
833.3324	735.5867	2135.9	1288.95
833.4773	737.6735	2092.85	1247.9
833.6222	739.7596	2052	1205.3
833.7672	741.845	2036.3	1189.75
833.9122	743.9298	2039.65	1192.65
834.0571	746.014	2043.65	1197.85
834.2021	748.0974	2069.25	1221.45
834.347	750.1802	2061.05	1214.15
834.492	752.2624	2047.3	1202.2
834.637	754.3439	2043.2	1194.85
834.782	756.4247	2023.55	1166.05
834.9269	758.5048	2019.95	1172.75
835.0719	760.5843	2027.05	1177.4
835.2169	762.6631	2036.35	1188.75
835.3619	764.7413	2068.3	1221.25
835.5069	766.8188	2124.8	1275.8
835.6519	768.8956	2161.7	1311.8
835.7969	770.9718	2208.65	1358.3
835.9419	773.0473	2189.05	1338.75
836.0869	775.1221	2180.3	1328.9
836.232	777.1962	2169.65	1319.3
836.377	779.2697	2191.6	1339.1
836.522	781.3426	2257	1395.45
836.667	783.4147	2308.3	1457.05
836.8121	785.4862	2298.15	1449.45
836.9571	787.557	2242.45	1392.45
837.1021	789.6271	2162.25	1309.45
837.2472	791.6966	2082.3	1232.1
837.3922	793.7654	2006.35	1153
837.5373	795.8335	1972.6	1121.05
837.6823	797.901	1950.6	1099.45
837.8274	799.9678	1946.65	1094.5
837.9724	802.0339	1944.5	1092.3
838.1175	804.0993	1958.05	1094.7
838.2626	806.1641	1951.7	1098
838.4076	808.2282	1937.05	1082.6
838.5527	810.2916	1919.2	1061.8
838.6978	812.3544	1914.7	1061.5
838.8428	814.4164	1903.45	1051.25
838.9879	816.4778	1912.95	1059.15
839.133	818.5385	1914.6	1060.65
839.2781	820.5986	1938.2	1084.7
839.4232	822.658	1966.15	1109.25
839.5682	824.7166	2006.65	1150.1
839.7133	826.7747	2051.55	1199.2
839.8584	828.832	2106.65	1252.4
840.0035	830.8886	2145.9	1289.8
840.1486	832.9446	2161.85	1303.5
840.2937	834.9999	2141.35	1286.25
840.4388	837.0545	2106.65	1246.05
840.5839	839.1085	2037.85	1180.95
840.729	841.1618	1984.5	1122.8
840.8741	843.2143	1956.5	1099.1
841.0192	845.2662	1932.55	1075.75
841.1643	847.3175	1914.5	1059.85
841.3095	849.368	1910.9	1054.05
841.4546	851.4179	1907.7	1052.5
841.5997	853.467	1913.9	1057.6
841.7448	855.5155	1911.2	1053.5
841.8899	857.5633	1904.9	1047.9
842.0351	859.6105	1919.6	1062.35
842.1802	861.6569	1894.85	1037.7
842.3253	863.7027	1884.9	1025.75
842.4704	865.7478	1874.45	1014.75
842.6156	867.7922	1873.55	1014.5
842.7607	869.8359	1865.85	1005.3
842.9058	871.8789	1847.65	988.5
843.0509	873.9212	1885.05	991.2
843.1961	875.9629	1857.9	997.75
843.3412	878.0039	1865.45	1005.75
843.4863	880.0441	1881.15	1021.3
843.6315	882.0837	1893.2	1030.75
843.7766	884.1226	1903.45	1040.45
843.9218	886.1609	1919.55	1060.05
844.0669	888.1984	1956.15	1096.35
844.212	890.2352	1984.8	1127.3
844.3572	892.2714	1993.65	1129.15
844.5023	894.3069	1977.15	1116.05
844.6475	896.3416	1930.35	1070.8
844.7926	898.3757	1909.6	1049.4
844.9377	900.4091	1892.55	1029.55
845.0829	902.4418	1898.1	1030.8
845.228	904.4739	1906.6	1041.95
845.3732	906.5052	1917.4	1054.8
845.5183	908.5358	1916.1	1053.65
845.6635	910.5658	1897.05	1033.6
845.8086	912.595	1878.25	1018
845.9538	914.6236	1852.4	990.9
846.0989	916.6515	1833.95	970.95
846.2441	918.6786	1815	949.15
846.3892	920.7051	1812	946.4
846.5344	922.7309	1815.85	952.1
846.6795	924.756	1797.2	933.9
846.8246	926.7804	1810.95	944.4
846.9698	928.8041	1810.45	942.65
847.1149	930.8272	1822.05	959.3
847.2601	932.8495	1824.75	957.85
847.4052	934.8711	1833.05	968.5
847.5504	936.892	1823.7	957.35
847.6955	938.9123	1847.8	981.95
847.8407	940.9318	1855.55	992.2
847.9858	942.9506	1878.5	1011
848.131	944.9688	1861.7	997.85
848.2761	946.9862	1849.35	985.4
848.4213	949.003	1823.85	957.05
848.5664	951.019	1811.95	945.4
848.7115	953.0344	1792	924.7
848.8567	955.0491	1792.25	925.8
849.0018	957.063	1774.5	907.65
849.147	959.0763	1785.35	919.35
849.2921	961.0888	1776.95	908.6
849.4373	963.1007	1767.45	898.7
849.5824	965.1119	1761.6	895.1
849.7275	967.1223	1772.3	903.45
849.8727	969.1321	1754.4	888.6
850.0178	971.1412	1755.45	887.15
850.1629	973.1495	1748.75	882.25
850.3081	975.1572	1807.75	889.25
850.4532	977.1641	1749.05	883.5
850.5983	979.1704	1751.2	882.2
850.7435	981.1759	1748.35	877.45
850.8886	983.1808	1733.45	863.1
851.0337	985.1849	1735.35	857.15
851.1788	987.1884	1732.3	862.1
851.324	989.1911	1734.95	862.5
851.4691	991.1932	1737.4	867.45
851.6142	993.1945	1735.9	869.05
851.7593	995.1951	1735.35	864.25
851.9045	997.1951	1735.9	860.95
852.0496	999.1943	1729.65	860.05
852.1947	1001.1928	1727.8	858.65
852.3398	1003.1906	1728.95	859.05
852.4849	1005.1877	1753.25	884.55
852.63	1007.1841	1757.6	886.85
852.7751	1009.1798	1763.95	893.55
852.9202	1011.1748	1754.8	884.65
853.0653	1013.1691	1744.85	873.65
853.2104	1015.1627	1717.15	846.4
853.3555	1017.1556	1688.55	819.1
853.5006	1019.1477	1683.55	812.3
853.6457	1021.1392	1675.1	806
853.7908	1023.1299	1664.4	794.2
853.9359	1025.12	1659	787.2
854.081	1027.1093	1660.1	792.85
854.2261	1029.0979	1671.4	801.8
854.3712	1031.0859	1685.95	814.55
854.5163	1033.0731	1691.85	822.25
854.6613	1035.0596	1690.1	821.95
854.8064	1037.0454	1678.35	808.7
854.9515	1039.0304	1682.6	812.55
855.0965	1041.0148	1660.95	791.85
855.2416	1042.9985	1642.4	767.75
855.3867	1044.9814	1639.4	769.1
855.5317	1046.9636	1628.05	753.7
855.6768	1048.9452	1633.25	761.9
855.8219	1050.926	1639.55	768.85
855.9669	1052.9061	1659.6	791.15
856.112	1054.8855	1662.9	790.4
856.257	1056.8642	1657.2	787.65
856.4021	1058.8421	1654.2	776.55
856.5471	1060.8194	1648.1	775.4
856.6921	1062.7959	1652.45	779.5
856.8372	1064.7717	1651.3	776.15
856.9822	1066.7469	1644	767.9
857.1272	1068.7213	1654.15	780.45
857.2723	1070.695	1645.6	773.1
857.4173	1072.6679	1657.4	785.35
857.5623	1074.6402	1677.6	804.05
857.7073	1076.6117	1689	811.35
857.8523	1078.5826	1666	790.9
857.9973	1080.5527	1652.05	773.5
858.1423	1082.5221	1627	753.8
858.2873	1084.4908	1601.6	727.2
858.4323	1086.4587	1595	718.5
858.5773	1088.426	1588.15	712.95
858.7223	1090.3925	1586.3	708.25
858.8673	1092.3584	1574.65	703.45
859.0123	1094.3235	1581.95	709.55
859.1573	1096.2879	1600.6	726.7
859.3022	1098.2515	1600.65	726.15
859.4472	1100.2145	1624	752.15
859.5922	1102.1767	1645	768.05
859.7371	1104.1382	1668.9	793.7
859.8821	1106.099	1696.85	820.7
860.027	1108.0591	1722.15	849.5
860.172	1110.0185	1748.45	871.6
860.3169	1111.9771	1774.65	901.4
860.4619	1113.9351	1801.45	926.6
860.6068	1115.8923	1849.9	974.6
860.7517	1117.8488	1868.35	992.15
860.8967	1119.8045	1834.55	960.1
861.0416	1121.7596	1778.85	904.05
861.1865	1123.7139	1711.6	837.4
861.3314	1125.6675	1663.75	788.55
861.4763	1127.6204	1663.1	789.9
861.6212	1129.5726	1675.4	797.2
861.7661	1131.524	1671.25	794.55
861.911	1133.4748	1656.55	780.7
862.0559	1135.4248	1614.4	736.8
862.2008	1137.3741	1584.15	709.2
862.3457	1139.3226	1562.2	685.35
862.4905	1141.2705	1558.75	682.85
862.6354	1143.2176	1567.65	687.05
862.7803	1145.164	1571.2	694.75
862.9251	1147.1097	1570.6	694.95
863.07	1149.0546	1560.15	680.65
863.2148	1150.9989	1540.75	663.8
863.3597	1152.9424	1530.2	651.9
863.5045	1154.8852	1517.1	640.55
863.6493	1156.8272	1508.85	634.2
863.7942	1158.7686	1513.8	628.7
863.939	1160.7092	1504.1	627.65
864.0838	1162.6491	1500.2	620.85
864.2286	1164.5883	1516	640.45
864.3734	1166.5267	1525.1	646.3
864.5182	1168.4644	1531.65	653.85
864.663	1170.4014	1552.55	672.5
864.8078	1172.3377	1577.4	701.85
864.9526	1174.2732	1602.45	725.5
865.0974	1176.2081	1653	776
865.2421	1178.1421	1725.85	846.15
865.3869	1180.0755	1795.9	921
865.5317	1182.0082	1844.5	968.1
865.6764	1183.9401	1838.65	959.45
865.8212	1185.8713	1778.35	901.7
865.9659	1187.8017	1700.25	821.4
866.1106	1189.7315	1629.05	752.55
866.2554	1191.6605	1601.75	696.1
866.4001	1193.5888	1547.3	668.95
866.5448	1195.5163	1538.45	663.3
866.6895	1197.4432	1512.5	634.65
866.8342	1199.3693	1500.6	624
866.9789	1201.2947	1498.85	612.85
867.1236	1203.2193	1493.55	615.85
867.2683	1205.1432	1487.45	611.6
867.413	1207.0664	1479.05	599.85
867.5576	1208.9889	1474.9	593.2
867.7023	1210.9106	1474.4	596.15
867.847	1212.8316	1476.75	597.35
867.9916	1214.7519	1491.45	602.8
868.1363	1216.6715	1487.75	611.1
868.2809	1218.5903	1498.35	618.95
868.4255	1220.5084	1505.2	626.45
868.5701	1222.4257	1516.2	638.5
868.7148	1224.3424	1517.05	639.85
868.8594	1226.2583	1530.25	644.75
869.004	1228.1735	1542.3	662.9
869.1486	1230.0879	1551.1	672.6
869.2932	1232.0016	1588.15	708.75
869.4377	1233.9146	1606.5	724.85
869.5823	1235.8269	1607.85	731.05
869.7269	1237.7384	1610.95	730.4
869.8715	1239.6492	1611.95	734
870.016	1241.5592	1614.05	735
870.1606	1243.4686	1638.4	759.85
870.3051	1245.3772	1680.05	801.7
870.4496	1247.285	1732.45	855
870.5941	1249.1922	1787.25	909.15
