Software Version:	3.9.2.0
Unit SN:	10000200
Spectrometer SN:	6960
Date:	3/14/2024 1:44:11 PM
Data Line Index:	25
Spectral Points:	2048
Integration time (ms):	125
Averages:	20
Delay (ms):	30000
Sequence Number:	1
Processing:	dark subtract
Laser Power (mW):	305
Laser Current (mA):	825
Laser Diode Temp (C):	25
Laser Case Temp (C):	28.8
System Temp (C):	28.8
Spectrometer Temp (C):	26.7
CCD Temp (C):	0.009
Secondary Temp (C):	20.01
Heatsink Temp (C):	24.68
CCDPCB Temp (C):	38.297
SecondaryPCB Temp (C):	35.818

Wavelength	RamanShift	Raw Counts	Dark Subtracted
787.061	30.1047	464.35	52.85
787.2016	32.3739	468.3	58.6
787.3422	34.6426	476.2	65.35
787.4828	36.9109	479.3	67.25
787.6235	39.1787	490	73.2
787.7642	41.4461	502.45	81.7
787.9049	43.7131	509.75	86.2
788.0456	45.9796	520.7	93.6
788.1863	48.2456	528.65	98.2
788.3271	50.5112	541.6	106.2
788.4679	52.7764	547	109
788.6087	55.0411	560.6	121
788.7496	57.3054	572.1	124.5
788.8904	59.5692	584.55	132.95
789.0313	61.8326	598.75	143.55
789.1722	64.0955	615.7	157.75
789.3132	66.3579	631.6	168.8
789.4541	68.6199	655.55	190.1
789.5951	70.8815	689.45	221.6
789.7361	73.1426	773.5	302.9
789.8771	75.4032	987.8	509.4
790.0181	77.6634	1529.6	1045.6
790.1592	79.9231	2798.8	2309.3
790.3003	82.1824	5611.45	5111.85
790.4414	84.4412	10767.65	10253.4
790.5825	86.6995	18062	17520.75
790.7237	88.9574	25356.35	24792.6
790.8648	91.2148	30445.25	29866.7
791.006	93.4717	32900.1	32311.45
791.1472	95.7282	33496.45	32908.55
791.2885	97.9842	33442.1	32846.95
791.4297	100.2398	32867.2	32270.55
791.571	102.4949	32262.9	31659.25
791.7123	104.7495	31430.9	30824.85
791.8536	107.0036	30574.2	29965.4
791.9949	109.2573	29790.8	29186.2
792.1363	111.5105	29016.75	28410.7
792.2777	113.7632	28307.2	27701.35
792.4191	116.0154	27671.6	27054.05
792.5605	118.2672	27256.3	26646.5
792.7019	120.5185	26779.85	26168.5
792.8434	122.7693	26440.2	25825.5
792.9849	125.0197	26173.05	25552.55
793.1264	127.2696	25857.45	25235.95
793.2679	129.519	25715.9	25092.05
793.4094	131.7679	25473.8	24847.85
793.551	134.0163	25246.6	24616.65
793.6926	136.2642	25007.45	24374.45
793.8342	138.5117	24743.4	24099.5
793.9758	140.7587	24452.8	23815.75
794.1175	143.0052	24181.55	23538.85
794.2591	145.2512	23902.95	23260.55
794.4008	147.4967	23645.7	23004.1
794.5425	149.7417	23481.05	22837.45
794.6842	151.9863	23300.75	22655.1
794.826	154.2304	23239.6	22590.25
794.9677	156.4739	23087.2	22429.2
795.1095	158.717	22970.75	22315.95
795.2513	160.9596	22805.2	22148.9
795.3931	163.2017	22561.85	21903.45
795.535	165.4433	22231.65	21569.85
795.6768	167.6844	21879.85	21217.5
795.8187	169.925	21558.35	20889.55
795.9606	172.1651	21117.8	20448.05
796.1025	174.4047	20845.45	20169.95
796.2445	176.6439	20564.05	19888.8
796.3864	178.8825	20307.75	19627.5
796.5284	181.1206	20173.4	19493.5
796.6704	183.3582	19969.85	19282.95
796.8124	185.5954	19870.2	19183.6
796.9544	187.832	19765	19075.45
797.0965	190.0681	19723.25	19030.55
797.2386	192.3037	19714.6	19019.6
797.3806	194.5388	19660.95	18963.2
797.5228	196.7734	19706	19005.35
797.6649	199.0075	19795.95	19088.3
797.807	201.2411	19966	19260.8
797.9492	203.4742	19953.45	19244.7
798.0914	205.7068	20105.5	19396.25
798.2336	207.9389	20210.05	19500.25
798.3758	210.1704	20348.8	19637.2
798.518	212.4015	20447.6	19734.85
798.6603	214.632	20632.7	19918.6
798.8025	216.862	20789.8	20080.6
798.9448	219.0915	20926.65	20223.7
799.0871	221.3205	21139.95	20439.7
799.2294	223.549	21310.4	20615.3
799.3718	225.777	21537.3	20846.6
799.5141	228.0044	21830.6	21134.2
799.6565	230.2314	22245.25	21553
799.7989	232.4578	22561.9	21868.35
799.9413	234.6837	22862.55	22161.75
800.0837	236.909	23079.5	22376.45
800.2262	239.1339	23074.05	22346.7
800.3687	241.3582	22877.85	22167.6
800.5111	243.582	22579.75	21844.5
800.6536	245.8053	22287.45	21557.55
800.7961	248.0281	22053.9	21328.2
800.9387	250.2503	21865.1	21132.65
801.0812	252.472	21750.65	21017.65
801.2238	254.6932	21731.45	20996.45
801.3664	256.9139	21699.1	20958
801.509	259.134	21774.8	21031.85
801.6516	261.3536	21805.3	21063.8
801.7942	263.5727	21920.85	21179.65
801.9369	265.7912	21969.25	21226.35
802.0795	268.0092	22097.9	21357.5
802.2222	270.2267	22082.15	21340.05
802.3649	272.4436	22068.3	21325.35
802.5076	274.6601	22024.9	21273.35
802.6504	276.8759	21902.1	21154.15
802.7931	279.0913	21806.9	21061.85
802.9359	281.3061	21723.1	20972.45
803.0787	283.5204	21726.75	20974.9
803.2215	285.7341	21756.7	20999.75
803.3643	287.9473	21840.1	21071.7
803.5071	290.16	22071.75	21308.3
803.6499	292.3721	22277.85	21520.4
803.7928	294.5837	22711.85	21955.35
803.9357	296.7947	22988.3	22232.5
804.0786	299.0052	23179.7	22423.15
804.2215	301.2152	23065.5	22302.65
804.3644	303.4246	22753	21996.55
804.5074	305.6334	22192	21431.75
804.6503	307.8418	21685.05	20922.65
804.7933	310.0495	21153.15	20390.15
804.9363	312.2568	20798.65	20038.05
805.0793	314.4635	20489.85	19726.6
805.2223	316.6696	20333.15	19569.55
805.3653	318.8752	20240.9	19465.75
805.5084	321.0802	20255.85	19491.35
805.6514	323.2847	20322.75	19555
805.7945	325.4887	20371.75	19605.75
805.9376	327.692	20295.45	19526.8
806.0807	329.8949	20207.35	19440.65
806.2238	332.0972	19942.15	19172.95
806.367	334.2989	19652.35	18878.95
806.5101	336.5001	19337.75	18559.15
806.6533	338.7007	19154.9	18381.65
806.7965	340.9008	19002.8	18228.6
806.9397	343.1003	18849.3	18068.9
807.0829	345.2992	18777	17995.65
807.2261	347.4976	18730.95	17952.4
807.3693	349.6955	18664.1	17878.15
807.5126	351.8927	18738.75	17957.7
807.6559	354.0895	18638.15	17843.8
807.7991	356.2856	18706.85	17921.15
807.9424	358.4812	18638	17854.15
808.0857	360.6763	18653	17864.25
808.2291	362.8707	18610.95	17824.45
808.3724	365.0646	18666.9	17876.8
808.5158	367.258	18703	17910.85
808.6591	369.4508	18680.55	17887.45
808.8025	371.643	18761.7	17967.15
808.9459	373.8346	18737.55	17938.85
809.0893	376.0257	18736.05	17937.55
809.2327	378.2162	18674.1	17870.35
809.3762	380.4062	18617.9	17815.3
809.5196	382.5956	18391.2	17587.9
809.6631	384.7844	18274.5	17468.95
809.8066	386.9726	18141.5	17336.5
809.9501	389.1603	18092.7	17286.95
810.0936	391.3474	18018.3	17183.2
810.2371	393.5339	17988.55	17184.05
810.3806	395.7199	17889.3	17091.9
810.5241	397.9052	17924	17129.95
810.6677	400.09	17901.45	17110.8
810.8113	402.2743	17973.45	17180.35
810.9548	404.4579	18079.05	17284.9
811.0984	406.641	18233.2	17440.9
811.2421	408.8235	18440.65	17645.9
811.3857	411.0054	18742.85	17948.15
811.5293	413.1868	19093.1	18292.3
811.673	415.3675	19320.3	18520.65
811.8166	417.5477	19477.65	18677.45
811.9603	419.7273	19492.3	18691.2
812.104	421.9064	19388.65	18577.65
812.2477	424.0848	19290.3	18483.45
812.3914	426.2627	19044.1	18236.35
812.5351	428.4399	18716.25	17903.9
812.6788	430.6166	18351.95	17536.85
812.8226	432.7928	18002.6	17186.45
812.9663	434.9683	17637.65	16822.95
813.1101	437.1432	17396.5	16575.15
813.2539	439.3176	17206.3	16389.85
813.3977	441.4914	17051.7	16232.95
813.5415	443.6645	17010.1	16188.85
813.6853	445.8371	16901.35	16081.65
813.8291	448.0091	16815.85	15996.85
813.973	450.1806	16758.7	15937
814.1168	452.3514	16692.55	15867.8
814.2607	454.5216	16741.15	15908.15
814.4046	456.6913	16650.95	15827.6
814.5485	458.8603	16702.4	15879.05
814.6924	461.0288	16743.45	15922.3
814.8363	463.1967	16713.55	15891.05
814.9802	465.3639	16827.55	16003.2
815.1241	467.5306	16875.2	16050.3
815.2681	469.6967	16963.55	16138.6
815.412	471.8622	17045.1	16218.95
815.556	474.0271	17134.05	16309.45
815.7	476.1914	17188.3	16360.15
815.844	478.3551	17196.35	16369.3
815.988	480.5182	17203.15	16378
816.132	482.6807	17213.1	16384.6
816.276	484.8426	17338.4	16510.55
816.4201	487.0039	17607.45	16779.75
816.5641	489.1647	18022.85	17195.7
816.7082	491.3248	18438	17608.9
816.8522	493.4843	18588	17760.85
816.9963	495.6432	18533.65	17703.9
817.1404	497.8015	18464.05	17632.95
817.2845	499.9592	18387.55	17557.05
817.4286	502.1163	18253.15	17424.1
817.5727	504.2728	17960.9	17129.5
817.7168	506.4287	17666.45	16833.3
817.861	508.5839	17263.05	16432.65
818.0051	510.7386	16921.5	16091.85
818.1493	512.8927	16731.7	15892.35
818.2935	515.0461	16626.75	15796.85
818.4377	517.199	16570.95	15738.35
818.5818	519.3512	16609.3	15773
818.726	521.5029	16726	15885.25
818.8703	523.6539	16848.2	16012.8
819.0145	525.8043	16889.8	16053.15
819.1587	527.9541	16903.9	16064
819.303	530.1033	16795.9	15957.65
819.4472	532.2519	16769	15934.25
819.5915	534.3999	16845.45	16004.75
819.7357	536.5472	17048.7	16206.9
819.88	538.694	17436.3	16597.35
820.0243	540.8401	17934.4	17095.8
820.1686	542.9856	18339.5	17496.55
820.3129	545.1305	18446.4	17605.05
820.4572	547.2748	18300.1	17457.95
820.6016	549.4185	18017	17172
820.7459	551.5615	17680	16837.95
820.8902	553.704	17531.95	16688.65
821.0346	555.8458	17492.5	16649.2
821.1789	557.987	17518.2	16677.3
821.3233	560.1276	17576.75	16736.35
821.4677	562.2675	17694.8	16852.25
821.6121	564.4069	17824.1	16980.15
821.7565	566.5456	17938	17098.55
821.9009	568.6837	17965.4	17122.5
822.0453	570.8212	17607.6	16766.25
822.1897	572.958	17127.6	16282.6
822.3342	575.0942	16711.2	15871.6
822.4786	577.2299	16411.1	15568.35
822.6231	579.3648	16343.65	15500.15
822.7675	581.4992	16318.7	15474.05
822.912	583.6329	16495.8	15651.75
823.0565	585.766	16691.75	15847.75
823.201	587.8985	16825.5	15983.3
823.3454	590.0304	16863.55	15996.5
823.4899	592.1616	16750.6	15903.2
823.6345	594.2922	16634.15	15789.5
823.779	596.4222	16449.55	15601.35
823.9235	598.5515	16204.1	15357.95
824.068	600.6802	16046.75	15199
824.2126	602.8083	15816.1	14970
824.3571	604.9358	15782.85	14933.9
824.5017	607.0626	15726.1	14875.55
824.6462	609.1888	15761.1	14912.2
824.7908	611.3144	15709.95	14862.25
824.9354	613.4393	15632.8	14784.2
825.08	615.5636	15588.8	14740.1
825.2246	617.6873	15509	14660.4
825.3692	619.8103	15432.95	14581.5
825.5138	621.9327	15326.3	14476.45
825.6584	624.0544	15200.05	14351.65
825.803	626.1756	15118.95	14268.7
825.9477	628.2961	15018.75	14165.6
826.0923	630.4159	14929.75	14079.05
826.237	632.5351	14875.45	14025.3
826.3816	634.6537	14828.55	13977.1
826.5263	636.7716	14805.5	13954.95
826.6709	638.8889	14793.95	13941.9
826.8156	641.0056	14814.4	13962.2
826.9603	643.1216	14783	13927.55
827.105	645.237	14798.75	13942.1
827.2497	647.3518	14734.35	13877.45
827.3944	649.4659	14701.05	13844.25
827.5391	651.5793	14694.3	13842.15
827.6838	653.6922	14632.45	13776.65
827.8285	655.8043	14589.95	13734.4
827.9733	657.9159	14595.5	13741.15
828.118	660.0268	14504.9	13645.8
828.2627	662.137	14459.35	13605.5
828.4075	664.2466	14415.25	13555.75
828.5522	666.3556	14388	13528
828.697	668.4639	14358.35	13497.95
828.8418	670.5716	14381.2	13526.5
828.9865	672.6786	14408.3	13552
829.1313	674.785	14406.6	13545.75
829.2761	676.8907	14406.4	13546.4
829.4209	678.9958	14478.1	13621.35
829.5657	681.1002	14470.7	13610.35
829.7105	683.204	14430.05	13568.15
829.8553	685.3072	14374.55	13515.25
830.0001	687.4097	14267.2	13408.9
830.1449	689.5115	14224.25	13361.75
830.2898	691.6127	14203.05	13341.95
830.4346	693.7132	14126.95	13264.3
830.5794	695.8131	14103.7	13228.4
830.7243	697.9123	14043.85	13183.75
830.8691	700.0109	14051.45	13191.8
831.014	702.1089	13991.8	13133.55
831.1588	704.2061	13985.75	13126.4
831.3037	706.3028	14006	13142.85
831.4486	708.3987	14052.25	13189.75
831.5935	710.4941	14098.7	13238.15
831.7383	712.5887	14216.35	13353.95
831.8832	714.6827	14427.4	13561.05
832.0281	716.7761	14711.55	13847.45
832.173	718.8688	15033.8	14169.5
832.3179	720.9608	15226.6	14359.6
832.4628	723.0522	15283.5	14414.3
832.6077	725.1429	15149.55	14284.6
832.7527	727.233	14972.7	14107.65
832.8976	729.3224	14788	13926.2
833.0425	731.4112	14532.4	13667.25
833.1874	733.4993	14310.8	13444.1
833.3324	735.5867	14107.5	13241.5
833.4773	737.6735	13964.85	13097.6
833.6222	739.7596	13861.75	12992.9
833.7672	741.845	13751.65	12884.25
833.9122	743.9298	13684	12814.75
834.0571	746.014	13650.8	12783.35
834.2021	748.0974	13645.85	12780.15
834.347	750.1802	13638.7	12771.45
834.492	752.2624	13643.1	12777.75
834.637	754.3439	13658.4	12788.05
834.782	756.4247	13736.3	12860.9
834.9269	758.5048	13859.7	12994.45
835.0719	760.5843	14096.25	13226
835.2169	762.6631	14450.9	13584.55
835.3619	764.7413	14918.4	14051.3
835.5069	766.8188	15557.7	14689.7
835.6519	768.8956	16063.65	15193.25
835.7969	770.9718	16351.65	15485.35
835.9419	773.0473	16256.15	15392.35
836.0869	775.1221	15953.45	15087.75
836.232	777.1962	15571.85	14704.6
836.377	779.2697	15374.15	14507
836.522	781.3426	15403.65	14523.9
836.667	783.4147	15553.55	14686.2
836.8121	785.4862	15793.35	14928.1
836.9571	787.557	15760.4	14891.55
837.1021	789.6271	15349.85	14481.65
837.2472	791.6966	14774.95	13904.4
837.3922	793.7654	14182.95	13314.55
837.5373	795.8335	13804.85	12935.35
837.6823	797.901	13527.7	12657.15
837.8274	799.9678	13385.9	12516.85
837.9724	802.0339	13346.55	12477.75
838.1175	804.0993	13348.6	12469.8
838.2626	806.1641	13328.5	12458.25
838.4076	808.2282	13254.8	12384.75
838.5527	810.2916	13149.55	12277.6
838.6978	812.3544	13052.1	12182.1
838.8428	814.4164	12946.8	12078.7
838.9879	816.4778	12948.9	12078.45
839.133	818.5385	12954	12084.25
839.2781	820.5986	12996.95	12128.05
839.4232	822.658	13168.05	12296.9
839.5682	824.7166	13301.6	12431.65
839.7133	826.7747	13635.2	12766.2
839.8584	828.832	13942.95	13074.25
840.0035	830.8886	14132.65	13261.1
840.1486	832.9446	14290.65	13418.25
840.2937	834.9999	14238.75	13369.4
840.4388	837.0545	14145.1	13271.65
840.5839	839.1085	14019.9	13150.35
840.729	841.1618	13873.5	12998.7
840.8741	843.2143	13767.05	12896
841.0192	845.2662	13581.6	12709.7
841.1643	847.3175	13502.95	12634.45
841.3095	849.368	13387.7	12515.05
841.4546	851.4179	13275.8	12405.15
841.5997	853.467	13098.5	12226
841.7448	855.5155	12996.5	12123.75
841.8899	857.5633	12879.9	12007.65
842.0351	859.6105	12764.35	11889.8
842.1802	861.6569	12673.05	11803.8
842.3253	863.7027	12606.5	11732.7
842.4704	865.7478	12577.05	11702.8
842.6156	867.7922	12514.85	11644.45
842.7607	869.8359	12547.05	11672.55
842.9058	871.8789	12639.9	11767.2
843.0509	873.9212	12769.55	11859.3
843.1961	875.9629	12912.25	12039.45
843.3412	878.0039	13047.5	12173.65
843.4863	880.0441	13129.1	12256.75
843.6315	882.0837	13166.2	12291.35
843.7766	884.1226	13089.7	12215.7
843.9218	886.1609	12997.95	12126.55
844.0669	888.1984	12955.75	12082.1
844.212	890.2352	12948	12074.85
844.3572	892.2714	12889.2	12010
844.5023	894.3069	12846	11970.25
844.6475	896.3416	12731.1	11854.5
844.7926	898.3757	12650.55	11773.55
844.9377	900.4091	12596.6	11721.05
845.0829	902.4418	12590.2	11710.85
845.228	904.4739	12603.8	11728.2
845.3732	906.5052	12611.1	11734.65
845.5183	908.5358	12525.35	11652.05
845.6635	910.5658	12348.15	11466.7
845.8086	912.595	12209.85	11333.35
845.9538	914.6236	11981.4	11106.35
846.0989	916.6515	11895.25	11017.25
846.2441	918.6786	11824.25	10947.2
846.3892	920.7051	11875.1	10997.25
846.5344	922.7309	11954.65	11078
846.6795	924.756	11991.2	11115.85
846.8246	926.7804	12067.55	11187.7
846.9698	928.8041	12029.75	11152.95
847.1149	930.8272	12044.95	11166.2
847.2601	932.8495	11994.65	11119.65
847.4052	934.8711	11945.15	11067.9
847.5504	936.892	11806.3	10929.05
847.6955	938.9123	11709.95	10832.7
847.8407	940.9318	11602.9	10725.35
847.9858	942.9506	11512.5	10635.1
848.131	944.9688	11409.35	10534.5
848.2761	946.9862	11329.15	10453.95
848.4213	949.003	11222.85	10345.55
848.5664	951.019	11174.3	10298.75
848.7115	953.0344	11153.7	10277.05
848.8567	955.0491	11173.9	10295.2
849.0018	957.063	11222.75	10343.9
849.147	959.0763	11312.4	10435.55
849.2921	961.0888	11343.55	10466.6
849.4373	963.1007	11406.9	10528.6
849.5824	965.1119	11454.9	10579.65
849.7275	967.1223	11461.65	10584.35
849.8727	969.1321	11451.5	10572.6
850.0178	971.1412	11464.5	10582.9
850.1629	973.1495	11451.4	10573.95
850.3081	975.1572	11507.75	10595.9
850.4532	977.1641	11473.2	10595.8
850.5983	979.1704	11459.6	10579.85
850.7435	981.1759	11437.4	10556.55
850.8886	983.1808	11452.2	10569.85
851.0337	985.1849	11560.7	10675.05
851.1788	987.1884	11655.8	10775.55
851.324	989.1911	11774.05	10891.8
851.4691	991.1932	11892.5	11014
851.6142	993.1945	11932.2	11051.7
851.7593	995.1951	11915.65	11036.1
851.9045	997.1951	11871.6	10984.7
852.0496	999.1943	11771.05	10895.05
852.1947	1001.1928	11744.6	10865.9
852.3398	1003.1906	11738.85	10860.5
852.4849	1005.1877	11810.4	10930.55
852.63	1007.1841	11838	10959.9
852.7751	1009.1798	11762.2	10884.3
852.9202	1011.1748	11621.4	10746.1
853.0653	1013.1691	11422.45	10542.65
853.2104	1015.1627	11152.7	10273.45
853.3555	1017.1556	10964.75	10086.75
853.5006	1019.1477	10813.45	9930.55
853.6457	1021.1392	10699.65	9822.15
853.7908	1023.1299	10700.6	9818.05
853.9359	1025.12	10709.55	9829.5
854.081	1027.1093	10744.55	9866.8
854.2261	1029.0979	10824.45	9946.6
854.3712	1031.0859	10918.75	10038.6
854.5163	1033.0731	10934.6	10054.95
854.6613	1035.0596	10864.35	9986
854.8064	1037.0454	10684.4	9805.35
854.9515	1039.0304	10598.45	9719.1
855.0965	1041.0148	10451.65	9573.1
855.2416	1042.9985	10315.1	9434.05
855.3867	1044.9814	10281.65	9405.4
855.5317	1046.9636	10224.55	9344.35
855.6768	1048.9452	10190.6	9310.6
855.8219	1050.926	10199.7	9322.6
855.9669	1052.9061	10196.4	9315.85
856.112	1054.8855	10210.75	9330.95
856.257	1056.8642	10216.85	9336.15
856.4021	1058.8421	10242.4	9358.5
856.5471	1060.8194	10284.2	9406.55
856.6921	1062.7959	10331	9450.95
856.8372	1064.7717	10360.3	9478.75
856.9822	1066.7469	10384.4	9505
857.1272	1068.7213	10397.95	9515.3
857.2723	1070.695	10411	9532.4
857.4173	1072.6679	10360.5	9476.9
857.5623	1074.6402	10339.6	9458.85
857.7073	1076.6117	10310.2	9423.35
857.8523	1078.5826	10245.5	9364.75
857.9973	1080.5527	10215.7	9335.1
858.1423	1082.5221	10283.8	9401.35
858.2873	1084.4908	10380.75	9499.6
858.4323	1086.4587	10492.8	9609.75
858.5773	1088.426	10604.35	9722.45
858.7223	1090.3925	10633.55	9750.4
858.8673	1092.3584	10598.7	9716.1
859.0123	1094.3235	10471.9	9592.7
859.1573	1096.2879	10439.25	9558.6
859.3022	1098.2515	10482.35	9599.75
859.4472	1100.2145	10537	9658.65
859.5922	1102.1767	10670.2	9785.55
859.7371	1104.1382	10884.5	10004.15
859.8821	1106.099	11068.1	10184.8
860.027	1108.0591	11286.65	10405.2
860.172	1110.0185	11435.35	10553.95
860.3169	1111.9771	11465.35	10584.1
860.4619	1113.9351	11324.75	10443.4
860.6068	1115.8923	11059.25	10177.55
860.7517	1117.8488	10799	9914.4
860.8967	1119.8045	10520.8	9638.95
861.0416	1121.7596	10385.25	9501.85
861.1865	1123.7139	10309.25	9428.65
861.3314	1125.6675	10277.85	9396.35
861.4763	1127.6204	10329.7	9449.25
861.6212	1129.5726	10289.95	9407.05
861.7661	1131.524	10244.8	9364.75
861.911	1133.4748	10189.55	9306.45
862.0559	1135.4248	10091.75	9207.4
862.2008	1137.3741	10028.95	9146.45
862.3457	1139.3226	9973.45	9092.2
862.4905	1141.2705	9921.7	9041.35
862.6354	1143.2176	9809.8	8921
862.7803	1145.164	9773.15	8891.6
862.9251	1147.1097	9755.05	8872.65
863.07	1149.0546	9698.35	8815.1
863.2148	1150.9989	9613.3	8733.55
863.3597	1152.9424	9460.4	8578
863.5045	1154.8852	9333.25	8449.8
863.6493	1156.8272	9227.3	8345.95
863.7942	1158.7686	9208.55	8320.1
863.939	1160.7092	9186.55	8305.4
864.0838	1162.6491	9184.65	8298.9
864.2286	1164.5883	9268.85	8388.15
864.3734	1166.5267	9349.6	8464.65
864.5182	1168.4644	9515.8	8632.95
864.663	1170.4014	9687.75	8803.4
864.8078	1172.3377	9945.75	9066.15
864.9526	1174.2732	10181	9300.3
865.0974	1176.2081	10497.35	9617.5
865.2421	1178.1421	10807.1	9921.2
865.3869	1180.0755	11122.65	10243.5
865.5317	1182.0082	11335.2	10451.6
865.6764	1183.9401	11381.65	10498.6
865.8212	1185.8713	11273.7	10389.75
865.9659	1187.8017	10992.55	10107.5
