Software Version:	3.9.2.0
Unit SN:	10000200
Spectrometer SN:	6960
Date:	3/14/2024 12:56:36 PM
Data Line Index:	25
Spectral Points:	2048
Integration time (ms):	125
Averages:	20
Delay (ms):	30000
Sequence Number:	1
Processing:	dark subtract
Laser Power (mW):	300
Laser Current (mA):	823
Laser Diode Temp (C):	25
Laser Case Temp (C):	27.8
System Temp (C):	27.9
Spectrometer Temp (C):	25.6
CCD Temp (C):	0.005
Secondary Temp (C):	20.004
Heatsink Temp (C):	23.727
CCDPCB Temp (C):	37.307
SecondaryPCB Temp (C):	34.851

Wavelength	RamanShift	Raw Counts	Dark Subtracted
787.061	30.1047	418.05	5.3
787.2016	32.3739	417.5	7.55
787.3422	34.6426	419.65	8.35
787.4828	36.9109	421.2	8.05
787.6235	39.1787	426.05	10.3
787.7642	41.4461	431.2	9.1
787.9049	43.7131	436.65	11.1
788.0456	45.9796	441.35	12.45
788.1863	48.2456	442.35	10.4
788.3271	50.5112	450.5	10.85
788.4679	52.7764	450.05	10.75
788.6087	55.0411	454.5	13.05
788.7496	57.3054	460.2	12.85
788.8904	59.5692	461.8	12.75
789.0313	61.8326	468.25	16.9
789.1722	64.0955	473.55	15.25
789.3132	66.3579	483.4	20.35
789.4541	68.6199	488.05	22
789.5951	70.8815	495.8	25.6
789.7361	73.1426	510.55	38.4
789.8771	75.4032	539.5	62.45
790.0181	77.6634	608.3	127.15
790.1592	79.9231	758.7	273.9
790.3003	82.1824	1077.35	583.4
790.4414	84.4412	1624.05	1120.75
790.5825	86.6995	2332.05	1817.45
790.7237	88.9574	3025.5	2499.8
790.8648	91.2148	3530.1	2995.95
791.006	93.4717	3779.95	3240
791.1472	95.7282	3845.9	3301.4
791.2885	97.9842	3872.75	3325.9
791.4297	100.2398	3858.8	3309.6
791.571	102.4949	3821.6	3267.45
791.7123	104.7495	3806.55	3248.25
791.8536	107.0036	3775.25	3216.5
791.9949	109.2573	3726.25	3170.75
792.1363	111.5105	3672.6	3115.2
792.2777	113.7632	3608.35	3047.6
792.4191	116.0154	3561.45	2991.25
792.5605	118.2672	3487.6	2924.8
792.7019	120.5185	3433.65	2869.3
792.8434	122.7693	3376.85	2809.1
792.9849	125.0197	3314	2739.8
793.1264	127.2696	3263.3	2691.1
793.2679	129.519	3246.3	2671.15
793.4094	131.7679	3234.25	2657
793.551	134.0163	3216.5	2635.65
793.6926	136.2642	3232.45	2647.6
793.8342	138.5117	3225.8	2635.3
793.9758	140.7587	3190.45	2598.95
794.1175	143.0052	3161.45	2568.3
794.2591	145.2512	3139.65	2543.2
794.4008	147.4967	3106.05	2511.9
794.5425	149.7417	3074.15	2475.4
794.6842	151.9863	3051.25	2449.6
794.826	154.2304	3045.5	2440.9
794.9677	156.4739	3042.75	2431.3
795.1095	158.717	3034.3	2427.15
795.2513	160.9596	3057.9	2443.25
795.3931	163.2017	3072	2458.1
795.535	165.4433	3073.8	2458.35
795.6768	167.6844	3057.75	2437.45
795.8187	169.925	3049.8	2425.95
795.9606	172.1651	2997.05	2369.15
796.1025	174.4047	2974.4	2344.1
796.2445	176.6439	2956.05	2323.75
796.3864	178.8825	2929.1	2294.25
796.5284	181.1206	2918.75	2282.8
796.6704	183.3582	2913.2	2270.9
796.8124	185.5954	2905.9	2264.6
796.9544	187.832	2886.1	2239.65
797.0965	190.0681	2895.8	2246.1
797.2386	192.3037	2921.05	2272.35
797.3806	194.5388	2901.8	2247.55
797.5228	196.7734	2916.15	2260.9
797.6649	199.0075	2916.25	2254.3
797.807	201.2411	2942.1	2277.55
797.9492	203.4742	2953.5	2288.15
798.0914	205.7068	2966.4	2302.5
798.2336	207.9389	2968.9	2302.65
798.3758	210.1704	2991.05	2324.55
798.518	212.4015	2980.35	2307.5
798.6603	214.632	2990	2317.15
798.8025	216.862	2978.6	2309.9
798.9448	219.0915	2979.5	2316.55
799.0871	221.3205	2974.6	2316.85
799.2294	223.549	2961	2311.05
799.3718	225.777	2975.6	2325.5
799.5141	228.0044	2968.2	2314.6
799.6565	230.2314	2962.2	2312.2
799.7989	232.4578	2938.65	2287.5
799.9413	234.6837	2940.55	2280.4
800.0837	236.909	2919.6	2258.2
800.2262	239.1339	2934.8	2249.4
800.3687	241.3582	2921.05	2250.3
800.5111	243.582	2940.85	2244.9
800.6536	245.8053	2927.9	2239.7
800.7961	248.0281	2918.65	2235.35
800.9387	250.2503	2916.75	2228.3
801.0812	252.472	2911.2	2219.35
801.2238	254.6932	2931.15	2237.9
801.3664	256.9139	2928.4	2229.5
801.509	259.134	2943.75	2241
801.6516	261.3536	2948.95	2251.7
801.7942	263.5727	2987.35	2283.65
801.9369	265.7912	2988.95	2285.75
802.0795	268.0092	3028.4	2325.15
802.2222	270.2267	3040.7	2336.85
802.3649	272.4436	3093.2	2390.2
802.5076	274.6601	3104.3	2389.5
802.6504	276.8759	3096.2	2388.7
802.7931	279.0913	3119.4	2410.75
802.9359	281.3061	3107.55	2395.2
803.0787	283.5204	3130.45	2418
803.2215	285.7341	3145.5	2427.7
803.3643	287.9473	3155.2	2432.8
803.5071	290.16	3155.05	2432
803.6499	292.3721	3136.15	2418.55
803.7928	294.5837	3107.95	2387.3
803.9357	296.7947	3081.75	2362.5
804.0786	299.0052	3068.9	2346.95
804.2215	301.2152	3051.95	2329.9
804.3644	303.4246	3040.8	2320.8
804.5074	305.6334	3015.05	2294.1
804.6503	307.8418	3017.65	2293.75
804.7933	310.0495	3005.7	2282.25
804.9363	312.2568	2970.95	2248.05
805.0793	314.4635	2917.3	2191.75
805.2223	316.6696	2898.95	2171.55
805.3653	318.8752	2862.2	2127.4
805.5084	321.0802	2839.05	2110.45
805.6514	323.2847	2827.1	2095.75
805.7945	325.4887	2832.95	2102.6
805.9376	327.692	2846.85	2114.75
806.0807	329.8949	2874	2142.2
806.2238	332.0972	2881.6	2146.8
806.367	334.2989	2902.95	2164.15
806.5101	336.5001	2890.15	2152.1
806.6533	338.7007	2872.55	2134.45
806.7965	340.9008	2839.55	2099.2
806.9397	343.1003	2794	2052.35
807.0829	345.2992	2767.95	2023.65
807.2261	347.4976	2746.95	2001.05
807.3693	349.6955	2732	1983.3
807.5126	351.8927	2724.3	1972.85
807.6559	354.0895	2713.3	1954.15
807.7991	356.2856	2689.2	1937.05
807.9424	358.4812	2673.1	1919.6
808.0857	360.6763	2671.2	1917.85
808.2291	362.8707	2670.75	1917.35
808.3724	365.0646	2672.1	1916.6
808.5158	367.258	2665	1908.6
808.6591	369.4508	2678.1	1914.55
808.8025	371.643	2691.2	1929.55
808.9459	373.8346	2698.7	1935.85
809.0893	376.0257	2716.45	1948.45
809.2327	378.2162	2720.25	1954.5
809.3762	380.4062	2733.15	1963.85
809.5196	382.5956	2716.55	1946.65
809.6631	384.7844	2685.15	1917.4
809.8066	386.9726	2654.4	1879.45
809.9501	389.1603	2634.7	1862.9
810.0936	391.3474	2655.8	1850.5
810.2371	393.5339	2623.15	1848.05
810.3806	395.7199	2614.4	1847.75
810.5241	397.9052	2623	1857.35
810.6677	400.09	2648.9	1884.05
810.8113	402.2743	2663.15	1899.15
810.9548	404.4579	2681.7	1917.7
811.0984	406.641	2711.85	1950.2
811.2421	408.8235	2744.8	1981.05
811.3857	411.0054	2778.65	2013.2
811.5293	413.1868	2829	2060.85
811.673	415.3675	2901.95	2132.45
811.8166	417.5477	2914.65	2145.15
811.9603	419.7273	2853.5	2080.45
812.104	421.9064	2764.8	1983.3
812.2477	424.0848	2711.05	1934.85
812.3914	426.2627	2665.6	1888.75
812.5351	428.4399	2633.3	1851
812.6788	430.6166	2591.95	1805.05
812.8226	432.7928	2552.1	1764.5
812.9663	434.9683	2512.35	1726.65
813.1101	437.1432	2501.85	1712.6
813.2539	439.3176	2483.15	1696.45
813.3977	441.4914	2466.4	1677.1
813.5415	443.6645	2469.65	1679.25
813.6853	445.8371	2463.5	1670.6
813.8291	448.0091	2457.1	1665.7
813.973	450.1806	2450.1	1658.55
814.1168	452.3514	2441	1648.25
814.2607	454.5216	2444.45	1644.7
814.4046	456.6913	2445	1650
814.5485	458.8603	2433.9	1636.95
814.6924	461.0288	2431.5	1636.3
814.8363	463.1967	2433.75	1638.95
814.9802	465.3639	2429	1630.75
815.1241	467.5306	2420.3	1622.65
815.2681	469.6967	2419.25	1620.3
815.412	471.8622	2400.35	1600.75
815.556	474.0271	2396.45	1599.85
815.7	476.1914	2394.15	1591.05
815.844	478.3551	2375.6	1576
815.988	480.5182	2384.4	1585.85
816.132	482.6807	2388.25	1587.05
816.276	484.8426	2404.05	1602.95
816.4201	487.0039	2433.8	1631.6
816.5641	489.1647	2453.15	1650.9
816.7082	491.3248	2474.95	1673.6
816.8522	493.4843	2483.95	1678.95
816.9963	495.6432	2471.7	1669.95
817.1404	497.8015	2462.35	1657.05
817.2845	499.9592	2431.3	1628.15
817.4286	502.1163	2403.6	1597.95
817.5727	504.2728	2365.55	1557.45
817.7168	506.4287	2355.7	1550.65
817.861	508.5839	2338.25	1529.75
818.0051	510.7386	2327.65	1521.15
818.1493	512.8927	2331.8	1517.7
818.2935	515.0461	2328.7	1520.4
818.4377	517.199	2334.1	1523.95
818.5818	519.3512	2353.8	1544.65
818.726	521.5029	2404.65	1589.1
818.8703	523.6539	2429.5	1618.7
819.0145	525.8043	2434.8	1621.85
819.1587	527.9541	2403	1587.9
819.303	530.1033	2363.75	1551
819.4472	532.2519	2319.05	1504.2
819.5915	534.3999	2322.6	1505.65
819.7357	536.5472	2307.45	1494.05
819.88	538.694	2315.1	1498.45
820.0243	540.8401	2319.55	1501.5
820.1686	542.9856	2324.5	1506.95
820.3129	545.1305	2327.1	1508.85
820.4572	547.2748	2339.2	1519.7
820.6016	549.4185	2346.3	1524.95
820.7459	551.5615	2337.3	1517.1
820.8902	553.704	2349.5	1529.55
821.0346	555.8458	2371.9	1551.45
821.1789	557.987	2379.05	1558.85
821.3233	560.1276	2377	1557
821.4677	562.2675	2412.3	1594.75
821.6121	564.4069	2446.6	1626.65
821.7565	566.5456	2465.4	1646.4
821.9009	568.6837	2462.9	1644.45
822.0453	570.8212	2421.15	1601.05
822.1897	572.958	2374.5	1552.7
822.3342	575.0942	2343.3	1524.55
822.4786	577.2299	2333.45	1511.5
822.6231	579.3648	2302.3	1480.95
822.7675	581.4992	2268.3	1444.05
822.912	583.6329	2279.2	1455.05
823.0565	585.766	2293.4	1470.85
823.201	587.8985	2309.7	1487.55
823.3454	590.0304	2341.55	1509.55
823.4899	592.1616	2353	1525.65
823.6345	594.2922	2355	1529.75
823.779	596.4222	2328.95	1503.25
823.9235	598.5515	2293.85	1466.55
824.068	600.6802	2246.8	1420.95
824.2126	602.8083	2224.85	1397.6
824.3571	604.9358	2216.25	1387.6
824.5017	607.0626	2214.55	1388.05
824.6462	609.1888	2209.55	1380
824.7908	611.3144	2225.85	1397.1
824.9354	613.4393	2246.05	1417.95
825.08	615.5636	2273.75	1444.6
825.2246	617.6873	2299.7	1471.5
825.3692	619.8103	2326.6	1494.55
825.5138	621.9327	2318.75	1485.8
825.6584	624.0544	2305.9	1473.9
825.803	626.1756	2264.7	1433.25
825.9477	628.2961	2236.2	1403.95
826.0923	630.4159	2208.5	1375.9
826.237	632.5351	2210.05	1377.95
826.3816	634.6537	2199.35	1369
826.5263	636.7716	2208.85	1373.55
826.6709	638.8889	2191.45	1359.05
826.8156	641.0056	2194.5	1359.95
826.9603	643.1216	2187.15	1354.25
827.105	645.237	2202.3	1366
827.2497	647.3518	2193.7	1354.9
827.3944	649.4659	2174.65	1338.15
827.5391	651.5793	2161.9	1323.7
827.6838	653.6922	2152.6	1316.05
827.8285	655.8043	2143.5	1307.7
827.9733	657.9159	2131.15	1291.85
828.118	660.0268	2117.25	1277.8
828.2627	662.137	2125.6	1287.7
828.4075	664.2466	2125.35	1284.75
828.5522	666.3556	2124.7	1285.25
828.697	668.4639	2120.15	1277.05
828.8418	670.5716	2105.15	1267
828.9865	672.6786	2103.65	1263.2
829.1313	674.785	2095.05	1251.35
829.2761	676.8907	2089.5	1248.25
829.4209	678.9958	2098.7	1257.05
829.5657	681.1002	2089.4	1249.15
829.7105	683.204	2085.55	1239.35
829.8553	685.3072	2086.8	1244.3
830.0001	687.4097	2089.25	1247
830.1449	689.5115	2095.4	1249.8
830.2898	691.6127	2081.3	1238.65
830.4346	693.7132	2079	1235.95
830.5794	695.8131	2097.45	1239.65
830.7243	697.9123	2077.95	1230.75
830.8691	700.0109	2081.8	1235.35
831.014	702.1089	2081.8	1237.25
831.1588	704.2061	2095.75	1250.75
831.3037	706.3028	2102.2	1257.45
831.4486	708.3987	2121.85	1276.9
831.5935	710.4941	2127.6	1280.4
831.7383	712.5887	2128.6	1282
831.8832	714.6827	2130.6	1280.85
832.0281	716.7761	2118.6	1269.45
832.173	718.8688	2114.85	1265.7
832.3179	720.9608	2123.95	1274
832.4628	723.0522	2131.35	1280.95
832.6077	725.1429	2133.1	1284.4
832.7527	727.233	2160.5	1309.75
832.8976	729.3224	2199.35	1348.95
833.0425	731.4112	2237.3	1385.9
833.1874	733.4993	2222.45	1370.3
833.3324	735.5867	2209	1357.55
833.4773	737.6735	2167	1315.2
833.6222	739.7596	2137.55	1289.55
833.7672	741.845	2127.8	1276.65
833.9122	743.9298	2131.25	1277.35
834.0571	746.014	2121	1269.45
834.2021	748.0974	2157.05	1306.1
834.347	750.1802	2139.95	1288
834.492	752.2624	2132.25	1282.85
834.637	754.3439	2110	1255.15
834.782	756.4247	2112.75	1253.75
834.9269	758.5048	2091.95	1238.25
835.0719	760.5843	2097.2	1244.55
835.2169	762.6631	2112.65	1258.75
835.3619	764.7413	2139.65	1287
835.5069	766.8188	2184.6	1331.9
835.6519	768.8956	2243.85	1388.6
835.7969	770.9718	2258.1	1404.4
835.9419	773.0473	2265.35	1412
836.0869	775.1221	2248.75	1393.9
836.232	777.1962	2238.4	1382.4
836.377	779.2697	2271.5	1415.3
836.522	781.3426	2325.6	1457.8
836.667	783.4147	2360.1	1504.9
836.8121	785.4862	2347.45	1492.25
836.9571	787.557	2287.2	1430.5
837.1021	789.6271	2221.9	1365.45
837.2472	791.6966	2145.45	1290.35
837.3922	793.7654	2086.8	1230.5
837.5373	795.8335	2046.75	1191.3
837.6823	797.901	2023.3	1167.7
837.8274	799.9678	2024.2	1164.5
837.9724	802.0339	2013.05	1158.2
838.1175	804.0993	2030.35	1164.65
838.2626	806.1641	2007.55	1149.55
838.4076	808.2282	2006.5	1150.35
838.5527	810.2916	1991.35	1129.45
838.6978	812.3544	1978.85	1123.85
838.8428	814.4164	1980.95	1125.2
838.9879	816.4778	1982.55	1123.05
839.133	818.5385	1977.4	1119.75
839.2781	820.5986	2000.5	1142.5
839.4232	822.658	2033.8	1173.15
839.5682	824.7166	2069.7	1211.75
839.7133	826.7747	2103.45	1246.65
839.8584	828.832	2161.6	1301.25
840.0035	830.8886	2205.9	1346.05
840.1486	832.9446	2215.55	1351.65
840.2937	834.9999	2194.4	1335.65
840.4388	837.0545	2164	1298.9
840.5839	839.1085	2101.75	1240.7
840.729	841.1618	2057.1	1192.7
840.8741	843.2143	2023.6	1163.55
841.0192	845.2662	1998.5	1138.95
841.1643	847.3175	1977.3	1117.45
841.3095	849.368	1968.75	1108
841.4546	851.4179	1971.1	1111.3
841.5997	853.467	1967.35	1106.4
841.7448	855.5155	1977.35	1115.7
841.8899	857.5633	1971.35	1110.7
842.0351	859.6105	1965.9	1105.65
842.1802	861.6569	1960.45	1098.45
842.3253	863.7027	1958.85	1095.05
842.4704	865.7478	1945.7	1083
842.6156	867.7922	1935.5	1076.25
842.7607	869.8359	1926.95	1065.2
842.9058	871.8789	1919.5	1055.9
843.0509	873.9212	1958.25	1061.65
843.1961	875.9629	1927.25	1065.55
843.3412	878.0039	1920.95	1056
843.4863	880.0441	1941.75	1079.7
843.6315	882.0837	1947.2	1082.35
843.7766	884.1226	1971.55	1107.3
843.9218	886.1609	1980.45	1116.8
844.0669	888.1984	2011.3	1149.2
844.212	890.2352	2036.25	1172.7
844.3572	892.2714	2041.25	1173.1
844.5023	894.3069	2029.8	1164.3
844.6475	896.3416	1991.5	1127.7
844.7926	898.3757	1963.95	1099.6
844.9377	900.4091	1957.65	1094.5
845.0829	902.4418	1964.85	1095.55
845.228	904.4739	1964.85	1097.9
845.3732	906.5052	1966.75	1100.75
845.5183	908.5358	1964	1098.8
845.6635	910.5658	1960.7	1093.45
845.8086	912.595	1928.3	1064.05
845.9538	914.6236	1908.95	1044.15
846.0989	916.6515	1890.6	1025.15
846.2441	918.6786	1878.65	1012.2
846.3892	920.7051	1865.35	999.35
846.5344	922.7309	1866.6	1001.45
846.6795	924.756	1849.35	984.45
846.8246	926.7804	1861.2	991.6
846.9698	928.8041	1871.6	1000.85
847.1149	930.8272	1883.15	1015.75
847.2601	932.8495	1873.65	1005
847.4052	934.8711	1880.55	1012.4
847.5504	936.892	1880.05	1012.05
847.6955	938.9123	1893.85	1026.75
847.8407	940.9318	1904.2	1036.65
847.9858	942.9506	1916.8	1047.1
848.131	944.9688	1908.05	1041.7
848.2761	946.9862	1883.35	1015.75
848.4213	949.003	1867.05	1000.1
848.5664	951.019	1845.8	977.95
848.7115	953.0344	1843.3	975.8
848.8567	955.0491	1827.75	957.85
849.0018	957.063	1821.85	953.45
849.147	959.0763	1818.75	952.65
849.2921	961.0888	1827.15	957.05
849.4373	963.1007	1822.1	953.4
849.5824	965.1119	1825.6	956.85
849.7275	967.1223	1810.7	940.35
849.8727	969.1321	1801.2	932
850.0178	971.1412	1803.75	935.05
850.1629	973.1495	1798.95	926.8
850.3081	975.1572	1833.2	924.3
850.4532	977.1641	1795.6	925.75
850.5983	979.1704	1796.45	926.3
850.7435	981.1759	1779.7	904.8
850.8886	983.1808	1784.7	913.1
851.0337	985.1849	1789	906.55
851.1788	987.1884	1782.9	911.55
851.324	989.1911	1779.6	904.55
851.4691	991.1932	1774.4	902.35
851.6142	993.1945	1778.9	908.2
851.7593	995.1951	1767.3	895.85
851.9045	997.1951	1769.95	894.7
852.0496	999.1943	1770.1	900.75
852.1947	1001.1928	1766.65	894.2
852.3398	1003.1906	1778.1	908.05
852.4849	1005.1877	1784.8	911.7
852.63	1007.1841	1790.35	919.65
852.7751	1009.1798	1793.65	923.05
852.9202	1011.1748	1797.95	927.15
853.0653	1013.1691	1774.25	898.8
853.2104	1015.1627	1755.85	886.15
853.3555	1017.1556	1732.8	859.6
853.5006	1019.1477	1725.3	853.2
853.6457	1021.1392	1710.85	838.95
853.7908	1023.1299	1709.15	836.75
853.9359	1025.12	1695.5	821.9
854.081	1027.1093	1707.45	836.95
854.2261	1029.0979	1709.05	837
854.3712	1031.0859	1719.95	847.65
854.5163	1033.0731	1722.45	849.85
854.6613	1035.0596	1721.55	851.15
854.8064	1037.0454	1715.05	843.2
854.9515	1039.0304	1708.15	838.3
855.0965	1041.0148	1699.55	827.25
855.2416	1042.9985	1688.9	814.8
855.3867	1044.9814	1677.65	805.5
855.5317	1046.9636	1671.65	797.55
855.6768	1048.9452	1671.55	798.35
855.8219	1050.926	1685.45	815.15
855.9669	1052.9061	1679.95	807.65
856.112	1054.8855	1687.3	813.5
856.257	1056.8642	1691	819.7
856.4021	1058.8421	1684.95	807.75
856.5471	1060.8194	1691.4	817.55
856.6921	1062.7959	1674.55	800.05
856.8372	1064.7717	1679.1	805
856.9822	1066.7469	1667.75	791.95
857.1272	1068.7213	1675.6	798.25
857.2723	1070.695	1678.55	804.55
857.4173	1072.6679	1698.75	823.95
857.5623	1074.6402	1698.95	824.1
857.7073	1076.6117	1712.75	832.75
857.8523	1078.5826	1688.65	813.75
857.9973	1080.5527	1673.95	796.25
858.1423	1082.5221	1652.3	776.75
858.2873	1084.4908	1628.55	753.75
858.4323	1086.4587	1623.15	748.45
858.5773	1088.426	1613.65	738.25
858.7223	1090.3925	1606.4	727.45
858.8673	1092.3584	1616.45	741.5
859.0123	1094.3235	1618.8	745.65
859.1573	1096.2879	1626.7	751.7
859.3022	1098.2515	1627.55	753.55
859.4472	1100.2145	1655.75	780.5
859.5922	1102.1767	1680.8	803.05
859.7371	1104.1382	1691.65	816.85
859.8821	1106.099	1716.1	837.85
860.027	1108.0591	1739.25	864.6
860.172	1110.0185	1764.5	887.55
860.3169	1111.9771	1794.5	919.65
860.4619	1113.9351	1816.3	940.5
860.6068	1115.8923	1846.8	970.35
860.7517	1117.8488	1859.95	983.1
860.8967	1119.8045	1833.5	957.9
861.0416	1121.7596	1773.95	896.85
861.1865	1123.7139	1714.1	839.45
861.3314	1125.6675	1689.85	815.9
861.4763	1127.6204	1687.55	813.15
861.6212	1129.5726	1691.5	814.1
861.7661	1131.524	1687	810.3
861.911	1133.4748	1670.95	793.4
862.0559	1135.4248	1637.4	760.25
862.2008	1137.3741	1600.1	722.65
862.3457	1139.3226	1584.6	708.05
862.4905	1141.2705	1583.9	705.9
862.6354	1143.2176	1583	701.75
862.7803	1145.164	1596	720.2
862.9251	1147.1097	1582.65	705.85
863.07	1149.0546	1577.1	700.2
863.2148	1150.9989	1556	678.95
863.3597	1152.9424	1540.95	663.2
863.5045	1154.8852	1538.9	660.8
863.6493	1156.8272	1537.9	662.85
863.7942	1158.7686	1532.65	650.2
863.939	1160.7092	1531.55	653.25
864.0838	1162.6491	1534.25	654.05
864.2286	1164.5883	1533.05	654.65
864.3734	1166.5267	1544.25	664.15
864.5182	1168.4644	1554.2	677.8
864.663	1170.4014	1578.15	694.7
864.8078	1172.3377	1589.15	716.25
864.9526	1174.2732	1624.25	746.45
865.0974	1176.2081	1673.6	797.55
865.2421	1178.1421	1737.05	854.9
865.3869	1180.0755	1790.6	914.1
865.5317	1182.0082	1830.45	952.25
865.6764	1183.9401	1820.2	939.4
865.8212	1185.8713	1765.75	887.35
865.9659	1187.8017	1682	803.05
866.1106	1189.7315	1634	754.3
866.2554	1191.6605	1624.25	715.95
866.4001	1193.5888	1566.95	688.6
866.5448	1195.5163	1548.05	671.1
866.6895	1197.4432	1533.9	654.25
866.8342	1199.3693	1513.5	634.4
866.9789	1201.2947	1521.45	635.15
867.1236	1203.2193	1503.4	624.45
867.2683	1205.1432	1504.55	625.15
867.413	1207.0664	1500.9	623.6
867.5576	1208.9889	1503.2	621.9
867.7023	1210.9106	1494.55	619.35
867.847	1212.8316	1485.75	607.05
867.9916	1214.7519	1511.6	624.65
868.1363	1216.6715	1519.2	642.55
868.2809	1218.5903	1508	628.1
868.4255	1220.5084	1516.65	638.05
868.5701	1222.4257	1530.25	651.65
868.7148	1224.3424	1533.4	656.2
868.8594	1226.2583	1545.65	663.35
869.004	1228.1735	1548.6	668.9
869.1486	1230.0879	1572.15	691.65
869.2932	1232.0016	1594.95	716.9
869.4377	1233.9146	1609.65	728.65
869.5823	1235.8269	1618.75	742
869.7269	1237.7384	1623.05	744.95
869.8715	1239.6492	1625.35	747.65
870.016	1241.5592	1635.7	755.35
870.1606	1243.4686	1661.25	780.4
870.3051	1245.3772	1700.5	821.85
870.4496	1247.285	1740.25	859.45
870.5941	1249.1922	1796.3	914.65
