Software Version:	3.9.2.0
Unit SN:	10000200
Spectrometer SN:	6960
Date:	3/14/2024 2:22:45 PM
Data Line Index:	25
Spectral Points:	2048
Integration time (ms):	125
Averages:	20
Delay (ms):	30000
Sequence Number:	1
Processing:	dark subtract
Laser Power (mW):	300
Laser Current (mA):	825
Laser Diode Temp (C):	25
Laser Case Temp (C):	29.2
System Temp (C):	29.2
Spectrometer Temp (C):	27
CCD Temp (C):	0.009
Secondary Temp (C):	20.008
Heatsink Temp (C):	25.175
CCDPCB Temp (C):	38.174
SecondaryPCB Temp (C):	36.174

Wavelength	RamanShift	Raw Counts	Dark Subtracted
787.061	30.1047	455.1	46.7
787.2016	32.3739	455.05	47.2
787.3422	34.6426	460.5	49.7
787.4828	36.9109	468.1	57.25
787.6235	39.1787	477.05	59.85
787.7642	41.4461	484.8	64
787.9049	43.7131	493.75	69.65
788.0456	45.9796	502.75	76.7
788.1863	48.2456	517.15	86.8
788.3271	50.5112	523.6	89.4
788.4679	52.7764	529.85	93.9
788.6087	55.0411	538.2	97.75
788.7496	57.3054	553.7	108.8
788.8904	59.5692	562.45	110.9
789.0313	61.8326	572.5	119.7
789.1722	64.0955	588.1	129
789.3132	66.3579	603.4	141.1
789.4541	68.6199	621.65	157.2
789.5951	70.8815	656.95	187.8
789.7361	73.1426	727.45	256.1
789.8771	75.4032	912.4	433.6
790.0181	77.6634	1374.5	891.5
790.1592	79.9231	2466.35	1978.6
790.3003	82.1824	4868.95	4371.8
790.4414	84.4412	9274.35	8761.25
790.5825	86.6995	15572.3	15038.8
790.7237	88.9574	21879.9	21325.7
790.8648	91.2148	26408.4	25842.4
791.006	93.4717	28638.1	28061.7
791.1472	95.7282	29211.35	28632.65
791.2885	97.9842	29230.45	28646.7
791.4297	100.2398	28745.5	28161
791.571	102.4949	28182.15	27593.85
791.7123	104.7495	27412.15	26819.1
791.8536	107.0036	26620.05	26026.9
791.9949	109.2573	25779.95	25187.85
792.1363	111.5105	24929.8	24334.15
792.2777	113.7632	24116.25	23520.65
792.4191	116.0154	23406.6	22800.95
792.5605	118.2672	22824.75	22227.2
792.7019	120.5185	22248.55	21649.8
792.8434	122.7693	21847.95	21244.2
792.9849	125.0197	21500.3	20894.75
793.1264	127.2696	21174.5	20565.85
793.2679	129.519	21084.05	20472.65
793.4094	131.7679	20862.9	20249.05
793.551	134.0163	20730.2	20114.35
793.6926	136.2642	20576.75	19954.65
793.8342	138.5117	20386.65	19755.7
793.9758	140.7587	20190.9	19562.8
794.1175	143.0052	20060.35	19432.35
794.2591	145.2512	19858.95	19229.7
794.4008	147.4967	19669.45	19040.5
794.5425	149.7417	19502.7	18869.6
794.6842	151.9863	19366.85	18732.05
794.826	154.2304	19278.3	18639.75
794.9677	156.4739	19151.95	18505.2
795.1095	158.717	19070.5	18426.85
795.2513	160.9596	18948.1	18298.05
795.3931	163.2017	18672.15	18019.95
795.535	165.4433	18351.35	17701.85
795.6768	167.6844	17966.2	17314
795.8187	169.925	17619.15	16964.1
795.9606	172.1651	17218.8	16556.6
796.1025	174.4047	16897	16231.05
796.2445	176.6439	16608.85	15942.8
796.3864	178.8825	16325.2	15656.35
796.5284	181.1206	16131.3	15460.6
796.6704	183.3582	15918.8	15244.45
796.8124	185.5954	15776.8	15100.55
796.9544	187.832	15679.6	15000.85
797.0965	190.0681	15597.05	14915.6
797.2386	192.3037	15585.25	14900.95
797.3806	194.5388	15542.35	14854.9
797.5228	196.7734	15589.6	14898.3
797.6649	199.0075	15627.4	14933.65
797.807	201.2411	15776.1	15079.8
797.9492	203.4742	15817.75	15124.2
798.0914	205.7068	15930.55	15229.6
798.2336	207.9389	16052.3	15354.7
798.3758	210.1704	16191.35	15490.15
798.518	212.4015	16309.55	15604.9
798.6603	214.632	16495.6	15792.05
798.8025	216.862	16693.35	15996.45
798.9448	219.0915	16910.75	16221.75
799.0871	221.3205	17131.25	16442.15
799.2294	223.549	17427.6	16744.25
799.3718	225.777	17809.8	17128.2
799.5141	228.0044	18278.35	17593.85
799.6565	230.2314	18868.7	18183.7
799.7989	232.4578	19429.45	18743.9
799.9413	234.6837	19857.9	19165.2
800.0837	236.909	20107.55	19413.05
800.2262	239.1339	20043.45	19327.5
800.3687	241.3582	19736.45	19036.7
800.5111	243.582	19309.05	18581.95
800.6536	245.8053	18865.9	18143.85
800.7961	248.0281	18410.7	17695.15
800.9387	250.2503	18038.9	17318.2
801.0812	252.472	17803.65	17077.4
801.2238	254.6932	17639.25	16910.1
801.3664	256.9139	17502	16771.2
801.509	259.134	17360.75	16626.25
801.6516	261.3536	17251.35	16521.4
801.7942	263.5727	17187.85	16458.55
801.9369	265.7912	17022.3	16291.15
802.0795	268.0092	16968.5	16236.15
802.2222	270.2267	16831.4	16096.3
802.3649	272.4436	16735.7	16001.95
802.5076	274.6601	16702.85	15961
802.6504	276.8759	16635	15899.9
802.7931	279.0913	16628.25	15889.55
802.9359	281.3061	16643.2	15902.7
803.0787	283.5204	16761.55	16018.75
803.2215	285.7341	16893.8	16148
803.3643	287.9473	17097.75	16349.8
803.5071	290.16	17388.25	16634.3
803.6499	292.3721	17738.25	16990.95
803.7928	294.5837	18271.7	17525.95
803.9357	296.7947	18656.35	17907.3
804.0786	299.0052	18889.8	18142.2
804.2215	301.2152	18736.4	17984.15
804.3644	303.4246	18298.85	17550.4
804.5074	305.6334	17635.9	16887.15
804.6503	307.8418	17062.85	16309.9
804.7933	310.0495	16590.45	15836.7
804.9363	312.2568	16256.05	15504.6
805.0793	314.4635	16015.8	15263.4
805.2223	316.6696	15958.75	15205.05
805.3653	318.8752	15922.5	15156.4
805.5084	321.0802	16023.65	15265.8
805.6514	323.2847	16150.8	15394.4
805.7945	325.4887	16196.25	15439.25
805.9376	327.692	16139.6	15384.25
806.0807	329.8949	15997.4	15237.4
806.2238	332.0972	15683.6	14923.7
806.367	334.2989	15411.25	14646.7
806.5101	336.5001	15080.9	14316.95
806.6533	338.7007	14858.2	14095.4
806.7965	340.9008	14695.65	13928.85
806.9397	343.1003	14555.9	13786
807.0829	345.2992	14494.4	13725.6
807.2261	347.4976	14482.35	13712.45
807.3693	349.6955	14444.15	13669.3
807.5126	351.8927	14490.4	13715.9
807.6559	354.0895	14517.9	13733.55
807.7991	356.2856	14554	13774.65
807.9424	358.4812	14526.45	13751.8
808.0857	360.6763	14550.95	13776.65
808.2291	362.8707	14494.4	13714.6
808.3724	365.0646	14509.1	13727
808.5158	367.258	14512.5	13730.35
808.6591	369.4508	14524.45	13737.55
808.8025	371.643	14577.65	13792
808.9459	373.8346	14508.85	13722.15
809.0893	376.0257	14482.1	13691.45
809.2327	378.2162	14336.1	13542.35
809.3762	380.4062	14238.9	13444.25
809.5196	382.5956	14050.85	13254.9
809.6631	384.7844	13938.55	13144.9
809.8066	386.9726	13838.35	13040.35
809.9501	389.1603	13795.15	13001.65
810.0936	391.3474	13746	12912.65
810.2371	393.5339	13690.1	12890.7
810.3806	395.7199	13637.95	12848.05
810.5241	397.9052	13619.65	12831.6
810.6677	400.09	13594.5	12806.75
810.8113	402.2743	13631.9	12846.95
810.9548	404.4579	13666.3	12880.75
811.0984	406.641	13816.9	13030.3
811.2421	408.8235	14081.2	13292.3
811.3857	411.0054	14425.7	13637.8
811.5293	413.1868	14910.8	14120.5
811.673	415.3675	15335.4	14545.15
811.8166	417.5477	15595.4	14799.75
811.9603	419.7273	15675.8	14882.7
812.104	421.9064	15547.55	14742.85
812.2477	424.0848	15399.85	14600.55
812.3914	426.2627	15122	14319.4
812.5351	428.4399	14816.9	14014.65
812.6788	430.6166	14429.55	13622.7
812.8226	432.7928	13997.9	13189.85
812.9663	434.9683	13663.25	12854.45
813.1101	437.1432	13407.35	12595.4
813.2539	439.3176	13195.15	12386.45
813.3977	441.4914	13081.6	12269.65
813.5415	443.6645	13050.05	12235.05
813.6853	445.8371	12965.15	12152.3
813.8291	448.0091	12885.6	12074.7
813.973	450.1806	12819.55	12006.95
814.1168	452.3514	12774.4	11962.35
814.2607	454.5216	12749.45	11925.5
814.4046	456.6913	12651.45	11836.65
814.5485	458.8603	12649.5	11835.55
814.6924	461.0288	12721.3	11904.25
814.8363	463.1967	12753.65	11939.3
814.9802	465.3639	12873.75	12054.55
815.1241	467.5306	13047	12228.95
815.2681	469.6967	13222.95	12405.4
815.412	471.8622	13412.2	12596.65
815.556	474.0271	13563.2	12750.05
815.7	476.1914	13663.05	12843.3
815.844	478.3551	13630.5	12813.6
815.988	480.5182	13567.65	12751.55
816.132	482.6807	13498.4	12678.95
816.276	484.8426	13532	12717.05
816.4201	487.0039	13763.75	12946.15
816.5641	489.1647	14204.65	13381.15
816.7082	491.3248	14665.8	13843.05
816.8522	493.4843	14914.15	14095.8
816.9963	495.6432	14949.5	14126.8
817.1404	497.8015	14862.15	14035.95
817.2845	499.9592	14875.55	14052.3
817.4286	502.1163	14842.3	14018.45
817.5727	504.2728	14658.1	13833.8
817.7168	506.4287	14346.7	13521.1
817.861	508.5839	13850.9	13027.2
818.0051	510.7386	13439.2	12617.05
818.1493	512.8927	13188.5	12361
818.2935	515.0461	12968.1	12142.25
818.4377	517.199	12844.3	12016.55
818.5818	519.3512	12751.3	11926.9
818.726	521.5029	12745.85	11913.4
818.8703	523.6539	12724.95	11895.1
819.0145	525.8043	12758.35	11932.1
819.1587	527.9541	12794.75	11961.65
819.303	530.1033	12829.9	12001.15
819.4472	532.2519	12904.5	12073.85
819.5915	534.3999	13092.7	12258.15
819.7357	536.5472	13424.2	12590.85
819.88	538.694	13961.75	13131.65
820.0243	540.8401	14650.9	13819.2
820.1686	542.9856	15254.65	14419.55
820.3129	545.1305	15503.55	14668.85
820.4572	547.2748	15341.95	14507.6
820.6016	549.4185	14868.1	14031.1
820.7459	551.5615	14429	13595.8
820.8902	553.704	14187.45	13349.8
821.0346	555.8458	14045.2	13209.05
821.1789	557.987	13985.45	13149.8
821.3233	560.1276	13838.7	13002.3
821.4677	562.2675	13712.2	12878.4
821.6121	564.4069	13551.7	12717.15
821.7565	566.5456	13383.05	12552.4
821.9009	568.6837	13244.55	12411.35
822.0453	570.8212	12991.1	12158.5
822.1897	572.958	12743	11907.7
822.3342	575.0942	12540.85	11705.4
822.4786	577.2299	12422.25	11585.35
822.6231	579.3648	12449.05	11611.45
822.7675	581.4992	12573.05	11738.25
822.912	583.6329	12792.95	11956.85
823.0565	585.766	13090.7	12253.6
823.201	587.8985	13215.6	12378.45
823.3454	590.0304	13253.85	12406.85
823.4899	592.1616	13145.85	12304.7
823.6345	594.2922	13033.2	12196
823.779	596.4222	12912.6	12069.55
823.9235	598.5515	12703.1	11864.15
824.068	600.6802	12509.9	11668.5
824.2126	602.8083	12296.65	11457.95
824.3571	604.9358	12221	11380.95
824.5017	607.0626	12094.1	11248.95
824.6462	609.1888	12016.1	11174.4
824.7908	611.3144	11896.7	11054.35
824.9354	613.4393	11697.25	10856.25
825.08	615.5636	11517.15	10677.95
825.2246	617.6873	11381.5	10538.45
825.3692	619.8103	11314.6	10471.65
825.5138	621.9327	11233.55	10387.75
825.6584	624.0544	11214.15	10371.7
825.803	626.1756	11186	10345
825.9477	628.2961	11163.65	10321.45
826.0923	630.4159	11124.6	10278.9
826.237	632.5351	11073.1	10228.75
826.3816	634.6537	11003.15	10157.8
826.5263	636.7716	10973.3	10124.75
826.6709	638.8889	10943.45	10098.6
826.8156	641.0056	10963.3	10116.35
826.9603	643.1216	10937.55	10091.8
827.105	645.237	10948.05	10098.45
827.2497	647.3518	10966.4	10117.5
827.3944	649.4659	10976.85	10128.5
827.5391	651.5793	10973.3	10125.7
827.6838	653.6922	10957.65	10110
827.8285	655.8043	10932.8	10084.8
827.9733	657.9159	10904.75	10056.8
828.118	660.0268	10801.05	9951.75
828.2627	662.137	10731.6	9882.6
828.4075	664.2466	10686.95	9836.45
828.5522	666.3556	10623.6	9773.15
828.697	668.4639	10620	9764.3
828.8418	670.5716	10667.85	9814.7
828.9865	672.6786	10760.95	9909.2
829.1313	674.785	10861.55	10008.15
829.2761	676.8907	10930.55	10077.05
829.4209	678.9958	11000.4	10149.25
829.5657	681.1002	10992.4	10140.7
829.7105	683.204	10957.7	10103.55
829.8553	685.3072	10882.25	10027.7
830.0001	687.4097	10754	9901.55
830.1449	689.5115	10689.1	9834
830.2898	691.6127	10610.35	9759.05
830.4346	693.7132	10514.5	9657.75
830.5794	695.8131	10439.25	9560.65
830.7243	697.9123	10358.95	9504.9
830.8691	700.0109	10311.15	9455.9
831.014	702.1089	10290.75	9437.65
831.1588	704.2061	10301.8	9446.9
831.3037	706.3028	10287.6	9428.45
831.4486	708.3987	10339.25	9483.8
831.5935	710.4941	10449.85	9594.85
831.7383	712.5887	10652.75	9794.95
831.8832	714.6827	10976.95	10117.3
832.0281	716.7761	11362.4	10504.75
832.173	718.8688	11799.05	10942.05
832.3179	720.9608	12044.1	11180.65
832.4628	723.0522	12028.75	11169.7
832.6077	725.1429	11771.45	10912.8
832.7527	727.233	11343.65	10484.95
832.8976	729.3224	10974.7	10115.3
833.0425	731.4112	10609.6	9749.75
833.1874	733.4993	10370.95	9508.8
833.3324	735.5867	10192.2	9330.2
833.4773	737.6735	10079.4	9218.75
833.6222	739.7596	10025.55	9166.25
833.7672	741.845	10019.2	9161.8
833.9122	743.9298	10026.6	9162.55
834.0571	746.014	9991.15	9132.85
834.2021	748.0974	9994	9130.5
834.347	750.1802	9998.95	9137.7
834.492	752.2624	10011.6	9151.55
834.637	754.3439	10010.35	9146.3
834.782	756.4247	10063.9	9194.75
834.9269	758.5048	10162.1	9300.75
835.0719	760.5843	10330.65	9470.75
835.2169	762.6631	10593.2	9730.25
835.3619	764.7413	11011.85	10152.2
835.5069	766.8188	11591.4	10727.05
835.6519	768.8956	12068.95	11206.15
835.7969	770.9718	12410.8	11549.2
835.9419	773.0473	12324.7	11464.35
836.0869	775.1221	11985.8	11123.1
836.232	777.1962	11572.75	10707.3
836.377	779.2697	11369.1	10502.5
836.522	781.3426	11430.65	10549.85
836.667	783.4147	11733.75	10869.5
836.8121	785.4862	12066.75	11205.55
836.9571	787.557	12108.9	11245.4
837.1021	789.6271	11723.85	10861.45
837.2472	791.6966	11131.6	10267.05
837.3922	793.7654	10621.7	9756.2
837.5373	795.8335	10280.75	9415.4
837.6823	797.901	10062.35	9199.7
837.8274	799.9678	9994.05	9128.05
837.9724	802.0339	9979.35	9114.3
838.1175	804.0993	10053.85	9180.35
838.2626	806.1641	10021.3	9155.3
838.4076	808.2282	9976.85	9110.25
838.5527	810.2916	9866.25	8998.6
838.6978	812.3544	9749.6	8887.3
838.8428	814.4164	9648.3	8782.5
838.9879	816.4778	9622.6	8756.8
839.133	818.5385	9598.55	8732.45
839.2781	820.5986	9615.7	8748.1
839.4232	822.658	9653.95	8787.4
839.5682	824.7166	9691.35	8826.95
839.7133	826.7747	9811	8946.4
839.8584	828.832	9897.65	9030.95
840.0035	830.8886	10013.85	9145.45
840.1486	832.9446	10162.05	9292.15
840.2937	834.9999	10261.95	9396.7
840.4388	837.0545	10340.75	9469.75
840.5839	839.1085	10437.25	9570.3
840.729	841.1618	10435.3	9565.25
840.8741	843.2143	10428.45	9562.45
841.0192	845.2662	10368.15	9500.75
841.1643	847.3175	10292.5	9426.5
841.3095	849.368	10200.6	9331.95
841.4546	851.4179	10044.45	9179
841.5997	853.467	9859.45	8992.5
841.7448	855.5155	9767.2	8900.7
841.8899	857.5633	9635.1	8766.95
842.0351	859.6105	9510.45	8641.4
842.1802	861.6569	9388.15	8520.7
842.3253	863.7027	9373.1	8502.6
842.4704	865.7478	9328.55	8459.95
842.6156	867.7922	9308.6	8441.8
842.7607	869.8359	9389.65	8520.8
842.9058	871.8789	9511.35	8641.6
843.0509	873.9212	9721.05	8816.45
843.1961	875.9629	9873.5	9004.85
843.3412	878.0039	10045.75	9174.75
843.4863	880.0441	10154.05	9284.05
843.6315	882.0837	10159.55	9289.1
843.7766	884.1226	10001.95	9132.65
843.9218	886.1609	9827.5	8959.7
844.0669	888.1984	9690	8821.65
844.212	890.2352	9597.8	8733
844.3572	892.2714	9537.8	8665.7
844.5023	894.3069	9467.6	8599.15
844.6475	896.3416	9413.35	8543.4
844.7926	898.3757	9389.4	8519.85
844.9377	900.4091	9384.8	8514.25
845.0829	902.4418	9394.5	8522.45
845.228	904.4739	9394.85	8522.75
845.3732	906.5052	9353.4	8485.45
845.5183	908.5358	9245.15	8373.95
845.6635	910.5658	9091	8219.85
845.8086	912.595	8941	8070.6
845.9538	914.6236	8786.95	7919.3
846.0989	916.6515	8754.55	7882.95
846.2441	918.6786	8734.2	7860.6
846.3892	920.7051	8818.4	7944.6
846.5344	922.7309	8914.45	8043.75
846.6795	924.756	8982.5	8109.55
846.8246	926.7804	9074.95	8201.1
846.9698	928.8041	9054.8	8179.75
847.1149	930.8272	9072.55	8200
847.2601	932.8495	9014.75	8141.65
847.4052	934.8711	8924.45	8051.8
847.5504	936.892	8753.85	7882.4
847.6955	938.9123	8549.75	7677
847.8407	940.9318	8401.35	7528.3
847.9858	942.9506	8254.15	7382.65
848.131	944.9688	8154.45	7283
848.2761	946.9862	8143.55	7269.2
848.4213	949.003	8078.75	7206.6
848.5664	951.019	8089.7	7216.95
848.7115	953.0344	8105.7	7231.35
848.8567	955.0491	8151.2	7276
849.0018	957.063	8231.8	7360.05
849.147	959.0763	8318.55	7444.9
849.2921	961.0888	8383.05	7508.25
849.4373	963.1007	8471.6	7598.85
849.5824	965.1119	8529.55	7655.7
849.7275	967.1223	8541.5	7666.05
849.8727	969.1321	8559.6	7687.6
850.0178	971.1412	8600.4	7726.65
850.1629	973.1495	8622.3	7746.25
850.3081	975.1572	8704.9	7799.45
850.4532	977.1641	8682.25	7810.4
850.5983	979.1704	8667.5	7793.3
850.7435	981.1759	8662.5	7787.25
850.8886	983.1808	8701.65	7825.3
851.0337	985.1849	8836.65	7953.35
851.1788	987.1884	9015.85	8139.05
851.324	989.1911	9207.2	8326.65
851.4691	991.1932	9353.95	8475.6
851.6142	993.1945	9401.3	8526.6
851.7593	995.1951	9383.25	8508.85
851.9045	997.1951	9367.85	8486.3
852.0496	999.1943	9284.25	8410.35
852.1947	1001.1928	9212	8336.9
852.3398	1003.1906	9176.3	8302.3
852.4849	1005.1877	9220.05	8345.2
852.63	1007.1841	9185.55	8311.7
852.7751	1009.1798	9046.6	8171.45
852.9202	1011.1748	8867.25	7991.8
853.0653	1013.1691	8654.7	7778.8
853.2104	1015.1627	8430.3	7552.7
853.3555	1017.1556	8233.15	7359.5
853.5006	1019.1477	8119.25	7243.1
853.6457	1021.1392	8040.2	7168.25
853.7908	1023.1299	8055.85	7181.3
853.9359	1025.12	8107.1	7231
854.081	1027.1093	8141.4	7267.2
854.2261	1029.0979	8228.85	7353.15
854.3712	1031.0859	8278	7402.5
854.5163	1033.0731	8300	7424.65
854.6613	1035.0596	8190.85	7315.6
854.8064	1037.0454	8034	7154.55
854.9515	1039.0304	7931.95	7056
855.0965	1041.0148	7805.35	6931.85
855.2416	1042.9985	7708.4	6829.9
855.3867	1044.9814	7667.5	6792.95
855.5317	1046.9636	7614.2	6736.9
855.6768	1048.9452	7586.4	6711.8
855.8219	1050.926	7562.45	6687.2
855.9669	1052.9061	7553.55	6677.5
856.112	1054.8855	7561.15	6684.5
856.257	1056.8642	7607.55	6730.25
856.4021	1058.8421	7638.8	6758.25
856.5471	1060.8194	7659.75	6785
856.6921	1062.7959	7690.95	6815.4
856.8372	1064.7717	7663.05	6788.45
856.9822	1066.7469	7687.2	6812.2
857.1272	1068.7213	7656.3	6777.65
857.2723	1070.695	7634.75	6759.1
857.4173	1072.6679	7539.25	6661.45
857.5623	1074.6402	7499.4	6621.35
857.7073	1076.6117	7473.75	6591.25
857.8523	1078.5826	7490.2	6612.95
857.9973	1080.5527	7552.85	6672.5
858.1423	1082.5221	7705.6	6828.5
858.2873	1084.4908	7967.75	7089.75
858.4323	1086.4587	8190.95	7313.2
858.5773	1088.426	8364.25	7483.8
858.7223	1090.3925	8360.6	7482.05
858.8673	1092.3584	8294.95	7419.3
859.0123	1094.3235	8127.95	7251.25
859.1573	1096.2879	8004.3	7127.15
859.3022	1098.2515	7952.8	7073.95
859.4472	1100.2145	7966.6	7087.5
859.5922	1102.1767	8017.45	7138.1
859.7371	1104.1382	8174.05	7296
859.8821	1106.099	8347.15	7466.05
860.027	1108.0591	8578.6	7702.25
860.172	1110.0185	8727.9	7850.9
860.3169	1111.9771	8740.15	7866.1
860.4619	1113.9351	8511.35	7634.8
860.6068	1115.8923	8165.45	7288.7
860.7517	1117.8488	7810.45	6930.65
860.8967	1119.8045	7513.15	6636.8
861.0416	1121.7596	7322.8	6444.75
861.1865	1123.7139	7264	6386.45
861.3314	1125.6675	7259.75	6381.15
861.4763	1127.6204	7312.2	6435.15
861.6212	1129.5726	7334.95	6453.1
861.7661	1131.524	7377.35	6500.8
861.911	1133.4748	7454.35	6577.25
862.0559	1135.4248	7481.2	6602.2
862.2008	1137.3741	7512.25	6633.75
862.3457	1139.3226	7516.1	6636.15
862.4905	1141.2705	7443.8	6564.05
862.6354	1143.2176	7374.2	6490.2
862.7803	1145.164	7408.45	6527.25
862.9251	1147.1097	7429.55	6548.7
863.07	1149.0546	7430.5	6548.4
863.2148	1150.9989	7323.25	6444.35
863.3597	1152.9424	7147.9	6269.95
863.5045	1154.8852	6952.05	6072.85
863.6493	1156.8272	6795.45	5918.35
863.7942	1158.7686	6711.25	5824.15
863.939	1160.7092	6655.65	5778.3
864.0838	1162.6491	6642.85	5761.15
864.2286	1164.5883	6692.4	5815.65
864.3734	1166.5267	6794.45	5913.75
864.5182	1168.4644	6941.05	6062.95
864.663	1170.4014	7122.75	6241.35
864.8078	1172.3377	7345.9	6466.5
864.9526	1174.2732	7558.5	6681.8
865.0974	1176.2081	7755.2	6876.95
865.2421	1178.1421	7951.9	7069.65
865.3869	1180.0755	8079.15	7200.05
865.5317	1182.0082	8064.15	7183.95
865.6764	1183.9401	7989	7109.95
865.8212	1185.8713	7789.45	6908.9
865.9659	1187.8017	7563.3	6683.9
866.1106	1189.7315	7289.3	6411.1
866.2554	1191.6605	7024.65	6117.05
866.4001	1193.5888	6824.3	5944.05
866.5448	1195.5163	6692.35	5815.65
866.6895	1197.4432	6599.3	5718.55
866.8342	1199.3693	6527.55	5650
866.9789	1201.2947	6464.2	5582.95
867.1236	1203.2193	6437.3	5559.3
867.2683	1205.1432	6470.55	5589.6
