Software Version:	3.9.2.0
Unit SN:	10000200
Spectrometer SN:	6960
Date:	3/14/2024 1:46:33 PM
Data Line Index:	25
Spectral Points:	2048
Integration time (ms):	125
Averages:	20
Delay (ms):	30000
Sequence Number:	1
Processing:	dark subtract
Laser Power (mW):	305
Laser Current (mA):	825
Laser Diode Temp (C):	25.1
Laser Case Temp (C):	28.8
System Temp (C):	28.8
Spectrometer Temp (C):	26.7
CCD Temp (C):	0.007
Secondary Temp (C):	20.01
Heatsink Temp (C):	24.714
CCDPCB Temp (C):	38.03
SecondaryPCB Temp (C):	35.829

Wavelength	RamanShift	Raw Counts	Dark Subtracted
787.061	30.1047	464.35	54.4
787.2016	32.3739	465.25	56.8
787.3422	34.6426	472.6	61.55
787.4828	36.9109	476.4	65.7
787.6235	39.1787	486.3	71.3
787.7642	41.4461	498.6	77.8
787.9049	43.7131	505.15	80
788.0456	45.9796	516.55	88.75
788.1863	48.2456	527.3	96.65
788.3271	50.5112	538.35	102.1
788.4679	52.7764	546.3	108.65
788.6087	55.0411	559.4	119.25
788.7496	57.3054	568.15	123
788.8904	59.5692	580.35	132.5
789.0313	61.8326	595.75	143.65
789.1722	64.0955	608.9	149.15
789.3132	66.3579	628.85	166.7
789.4541	68.6199	650.95	185.05
789.5951	70.8815	680.2	212.5
789.7361	73.1426	765.75	294.75
789.8771	75.4032	977.8	498.6
790.0181	77.6634	1500.85	1017.6
790.1592	79.9231	2741.1	2252.35
790.3003	82.1824	5481.95	4982.75
790.4414	84.4412	10522.8	10005.7
790.5825	86.6995	17667.35	17127.55
790.7237	88.9574	24758.85	24196.45
790.8648	91.2148	29800.5	29221.05
791.006	93.4717	32258.75	31673.25
791.1472	95.7282	32797.15	32205.95
791.2885	97.9842	32791	32197.95
791.4297	100.2398	32285.65	31689.7
791.571	102.4949	31593.25	30990.7
791.7123	104.7495	30848.55	30245.65
791.8536	107.0036	30055.75	29453.35
791.9949	109.2573	29273	28670.15
792.1363	111.5105	28499.2	27892.35
792.2777	113.7632	27793.4	27192.05
792.4191	116.0154	27167.95	26550.9
792.5605	118.2672	26742.75	26131.5
792.7019	120.5185	26269.2	25653.2
792.8434	122.7693	25924.1	25309.6
792.9849	125.0197	25611.45	24994
793.1264	127.2696	25296.75	24676.5
793.2679	129.519	25164.25	24542.95
793.4094	131.7679	24974.05	24352
793.551	134.0163	24767.5	24142.45
793.6926	136.2642	24546.7	23910.85
793.8342	138.5117	24337.3	23692.1
793.9758	140.7587	24032.2	23396.05
794.1175	143.0052	23816.5	23178.25
794.2591	145.2512	23552.6	22915.7
794.4008	147.4967	23301	22662.3
794.5425	149.7417	23159.3	22518.15
794.6842	151.9863	22975.5	22330.7
794.826	154.2304	22938.75	22290.8
794.9677	156.4739	22766.7	22112.9
795.1095	158.717	22646.15	21991.5
795.2513	160.9596	22494.4	21837.6
795.3931	163.2017	22223.85	21563.55
795.535	165.4433	21904.9	21242.4
795.6768	167.6844	21530.4	20864.65
795.8187	169.925	21199.25	20534.1
795.9606	172.1651	20775.4	20107.75
796.1025	174.4047	20543.15	19871.5
796.2445	176.6439	20289.05	19614.2
796.3864	178.8825	19998	19321.15
796.5284	181.1206	19824.4	19145.15
796.6704	183.3582	19637.75	18953.5
796.8124	185.5954	19530.05	18845.65
796.9544	187.832	19424.6	18734.5
797.0965	190.0681	19385.95	18693.15
797.2386	192.3037	19385.35	18692.6
797.3806	194.5388	19376.75	18681.2
797.5228	196.7734	19420.2	18722.9
797.6649	199.0075	19482.45	18781.75
797.807	201.2411	19631.8	18926
797.9492	203.4742	19651.3	18946.05
798.0914	205.7068	19846.35	19139.15
798.2336	207.9389	19893.15	19186.25
798.3758	210.1704	20061.2	19353.85
798.518	212.4015	20142.55	19429.2
798.6603	214.632	20312.3	19594.8
798.8025	216.862	20476.75	19766.7
798.9448	219.0915	20623.25	19920.55
799.0871	221.3205	20792.7	20094.4
799.2294	223.549	21024.9	20334.4
799.3718	225.777	21295.25	20605.8
799.5141	228.0044	21616.65	20922.15
799.6565	230.2314	22010.4	21319.05
799.7989	232.4578	22380.55	21688.1
799.9413	234.6837	22753.4	22056.5
800.0837	236.909	22894.65	22196.6
800.2262	239.1339	22867.4	22143.05
800.3687	241.3582	22654.5	21944.85
800.5111	243.582	22360.2	21625.7
800.6536	245.8053	22038.4	21311.1
800.7961	248.0281	21756	21031.9
800.9387	250.2503	21560.2	20831.55
801.0812	252.472	21417.45	20684.2
801.2238	254.6932	21379.9	20645.95
801.3664	256.9139	21350.35	20615.25
801.509	259.134	21386.65	20644
801.6516	261.3536	21390.9	20651.1
801.7942	263.5727	21492.55	20754.4
801.9369	265.7912	21470.6	20732.65
802.0795	268.0092	21568.75	20824.75
802.2222	270.2267	21528.55	20786.1
802.3649	272.4436	21518.35	20778.5
802.5076	274.6601	21449.8	20699.75
802.6504	276.8759	21368.2	20623
802.7931	279.0913	21290.9	20543.25
802.9359	281.3061	21222.75	20477.25
803.0787	283.5204	21229.65	20478.6
803.2215	285.7341	21292.95	20532.9
803.3643	287.9473	21378.95	20611.75
803.5071	290.16	21575.15	20810.55
803.6499	292.3721	21847.2	21090.55
803.7928	294.5837	22245.55	21489.15
803.9357	296.7947	22578.5	21819.85
804.0786	299.0052	22769.4	22015.65
804.2215	301.2152	22638	21876.7
804.3644	303.4246	22263.85	21504.3
804.5074	305.6334	21698.05	20938.85
804.6503	307.8418	21173.9	20414.4
804.7933	310.0495	20759.85	19999.1
804.9363	312.2568	20372.65	19618.5
805.0793	314.4635	20087	19327
805.2223	316.6696	19962.35	19200.4
805.3653	318.8752	19831.65	19057.95
805.5084	321.0802	19868.1	19107.3
805.6514	323.2847	19951.05	19185.65
805.7945	325.4887	19999.4	19231.25
805.9376	327.692	19936.25	19171.25
806.0807	329.8949	19858.95	19090.4
806.2238	332.0972	19554.65	18784.45
806.367	334.2989	19285.85	18513.45
806.5101	336.5001	18969.55	18194
806.6533	338.7007	18731.15	17957.55
806.7965	340.9008	18645.3	17868.6
806.9397	343.1003	18476.25	17699.45
807.0829	345.2992	18426.25	17649.95
807.2261	347.4976	18375.55	17597.65
807.3693	349.6955	18351.15	17565.4
807.5126	351.8927	18378.45	17593.15
807.6559	354.0895	18295.55	17505.35
807.7991	356.2856	18366.1	17582.8
807.9424	358.4812	18337.2	17553.75
808.0857	360.6763	18335.55	17554.35
808.2291	362.8707	18300.85	17515.6
808.3724	365.0646	18327.9	17541.35
808.5158	367.258	18325.05	17535.05
808.6591	369.4508	18371.45	17577.95
808.8025	371.643	18422.9	17629.4
808.9459	373.8346	18409.1	17614.15
809.0893	376.0257	18393.1	17594.5
809.2327	378.2162	18319.25	17521.5
809.3762	380.4062	18187.2	17384.95
809.5196	382.5956	18038.75	17238.7
809.6631	384.7844	17921.3	17116.55
809.8066	386.9726	17760.8	16952.85
809.9501	389.1603	17699.1	16892.05
810.0936	391.3474	17653.65	16812.95
810.2371	393.5339	17605.25	16796.9
810.3806	395.7199	17547.9	16748.35
810.5241	397.9052	17535.15	16739.2
810.6677	400.09	17567.75	16770.8
810.8113	402.2743	17603.9	16812.9
810.9548	404.4579	17704.95	16912.55
811.0984	406.641	17890.65	17097.9
811.2421	408.8235	18080.05	17287.45
811.3857	411.0054	18359.95	17564.1
811.5293	413.1868	18756	17957
811.673	415.3675	19069.6	18271.1
811.8166	417.5477	19197.1	18396.55
811.9603	419.7273	19188.5	18388.55
812.104	421.9064	19083.05	18277.25
812.2477	424.0848	18961.5	18159.55
812.3914	426.2627	18721.25	17917.15
812.5351	428.4399	18407.45	17598.25
812.6788	430.6166	18019.25	17203.6
812.8226	432.7928	17616.75	16803.5
812.9663	434.9683	17327.25	16513.1
813.1101	437.1432	17090.7	16271.15
813.2539	439.3176	16861.5	16044.6
813.3977	441.4914	16747.45	15931.7
813.5415	443.6645	16736.7	15919.1
813.6853	445.8371	16652.5	15832.6
813.8291	448.0091	16519.35	15698.8
813.973	450.1806	16485.8	15666.5
814.1168	452.3514	16429.7	15610.6
814.2607	454.5216	16417.5	15586.85
814.4046	456.6913	16325.35	15506.9
814.5485	458.8603	16355.95	15534.45
814.6924	461.0288	16440.25	15618
814.8363	463.1967	16434.55	15611.65
814.9802	465.3639	16545.05	15720.45
815.1241	467.5306	16605.15	15779.35
815.2681	469.6967	16677.15	15853.05
815.412	471.8622	16773.2	15948.45
815.556	474.0271	16897.05	16072.7
815.7	476.1914	16934.55	16105.4
815.844	478.3551	16952.6	16126.4
815.988	480.5182	16912.05	16086.3
816.132	482.6807	16910.55	16083.3
816.276	484.8426	17058.85	16232.4
816.4201	487.0039	17310.7	16483.5
816.5641	489.1647	17708.85	16881.4
816.7082	491.3248	18123.35	17298.05
816.8522	493.4843	18316.9	17487.55
816.9963	495.6432	18300.4	17473.1
817.1404	497.8015	18162	17330.8
817.2845	499.9592	18113.95	17287.45
817.4286	502.1163	18031.15	17203
817.5727	504.2728	17734.95	16905.2
817.7168	506.4287	17411.8	16581.85
817.861	508.5839	17001.1	16166.1
818.0051	510.7386	16649.1	15818.75
818.1493	512.8927	16462.75	15625
818.2935	515.0461	16338.65	15506.85
818.4377	517.199	16322.25	15492.05
818.5818	519.3512	16334.2	15499.75
818.726	521.5029	16452.15	15614.55
818.8703	523.6539	16532.85	15700.95
819.0145	525.8043	16582.45	15748.1
819.1587	527.9541	16537.65	15700.95
819.303	530.1033	16505.95	15669.75
819.4472	532.2519	16478.4	15641.7
819.5915	534.3999	16588.05	15748.25
819.7357	536.5472	16805.2	15965.6
819.88	538.694	17221.15	16381.85
820.0243	540.8401	17753.2	16913.25
820.1686	542.9856	18178.8	17334.5
820.3129	545.1305	18322.45	17481.95
820.4572	547.2748	18139.1	17296.6
820.6016	549.4185	17776.35	16933.95
820.7459	551.5615	17447.85	16606.2
820.8902	553.704	17319.45	16476.8
821.0346	555.8458	17214.6	16372.6
821.1789	557.987	17256.7	16413
821.3233	560.1276	17260.05	16413
821.4677	562.2675	17284	16442.8
821.6121	564.4069	17453.2	16611.35
821.7565	566.5456	17505	16664.05
821.9009	568.6837	17462.95	16619.8
822.0453	570.8212	17133	16292
822.1897	572.958	16713.35	15870.8
822.3342	575.0942	16367.95	15527.8
822.4786	577.2299	16072.4	15230.15
822.6231	579.3648	15995.5	15152.6
822.7675	581.4992	16057.2	15215.15
822.912	583.6329	16251.5	15410.35
823.0565	585.766	16430.6	15591.4
823.201	587.8985	16525.3	15684.1
823.3454	590.0304	16552.05	15685.35
823.4899	592.1616	16486.45	15641.2
823.6345	594.2922	16345.4	15501.8
823.779	596.4222	16151.8	15306.5
823.9235	598.5515	15958.7	15112.85
824.068	600.6802	15762.7	14916.1
824.2126	602.8083	15561.85	14716
824.3571	604.9358	15510	14662.8
824.5017	607.0626	15446.95	14598.3
824.6462	609.1888	15390.05	14542.95
824.7908	611.3144	15417.1	14570.55
824.9354	613.4393	15284.9	14436.4
825.08	615.5636	15257.65	14411.65
825.2246	617.6873	15140.9	14293.35
825.3692	619.8103	15073.25	14223.1
825.5138	621.9327	14948.05	14096.3
825.6584	624.0544	14857.1	14007.7
825.803	626.1756	14810.05	13964.45
825.9477	628.2961	14729.65	13879.85
826.0923	630.4159	14669.05	13819.75
826.237	632.5351	14593.2	13741.3
826.3816	634.6537	14522.95	13671.7
826.5263	636.7716	14476.8	13626.15
826.6709	638.8889	14443.65	13590.65
826.8156	641.0056	14487.6	13636.7
826.9603	643.1216	14476.7	13622.95
827.105	645.237	14483.9	13628.9
827.2497	647.3518	14443.3	13588.55
827.3944	649.4659	14426.75	13574.35
827.5391	651.5793	14393.6	13539.55
827.6838	653.6922	14347.2	13494.55
827.8285	655.8043	14318.45	13465.95
827.9733	657.9159	14302.8	13449.1
828.118	660.0268	14216.2	13359.7
828.2627	662.137	14171.9	13317.55
828.4075	664.2466	14129.45	13272.3
828.5522	666.3556	14100.85	13246.15
828.697	668.4639	14070.65	13211.45
828.8418	670.5716	14102.55	13248.2
828.9865	672.6786	14126.15	13267.05
829.1313	674.785	14144.4	13287.05
829.2761	676.8907	14204.8	13346.35
829.4209	678.9958	14274.85	13419.55
829.5657	681.1002	14239.85	13380.95
829.7105	683.204	14187.5	13326.1
829.8553	685.3072	14118.8	13256.1
830.0001	687.4097	14037.2	13180.7
830.1449	689.5115	13979.3	13119.65
830.2898	691.6127	13931.7	13073.2
830.4346	693.7132	13852.4	12990.7
830.5794	695.8131	13796.7	12926.8
830.7243	697.9123	13770.15	12909.55
830.8691	700.0109	13750.55	12889.85
831.014	702.1089	13752.7	12892
831.1588	704.2061	13696.9	12836.05
831.3037	706.3028	13714.95	12850.85
831.4486	708.3987	13765.2	12904.45
831.5935	710.4941	13814	12948.85
831.7383	712.5887	13944.8	13083.6
831.8832	714.6827	14191.9	13326.8
832.0281	716.7761	14509.95	13649.35
832.173	718.8688	14826.3	13965.95
832.3179	720.9608	14999.45	14131.85
832.4628	723.0522	15060.15	14195.6
832.6077	725.1429	14865.5	14003.2
832.7527	727.233	14629.5	13767.15
832.8976	729.3224	14435.75	13569.75
833.0425	731.4112	14184.1	13318.45
833.1874	733.4993	13989.8	13124.35
833.3324	735.5867	13778.55	12914.1
833.4773	737.6735	13653.35	12783.7
833.6222	739.7596	13499.7	12633.9
833.7672	741.845	13436.1	12570.5
833.9122	743.9298	13383.45	12516.3
834.0571	746.014	13364.55	12500.25
834.2021	748.0974	13367.15	12500.8
834.347	750.1802	13347.15	12483.6
834.492	752.2624	13375.75	12510.2
834.637	754.3439	13355.15	12487.35
834.782	756.4247	13432.8	12560.6
834.9269	758.5048	13552.1	12687.85
835.0719	760.5843	13776.4	12911.85
835.2169	762.6631	14115.05	13248.2
835.3619	764.7413	14576.4	13710.3
835.5069	766.8188	15177.4	14310.25
835.6519	768.8956	15671.7	14802.75
835.7969	770.9718	15997.9	15133.3
835.9419	773.0473	15869.05	15002.5
836.0869	775.1221	15486.75	14619.45
836.232	777.1962	15132.95	14265.05
836.377	779.2697	14908.35	14042.35
836.522	781.3426	14955.3	14077.4
836.667	783.4147	15164.2	14296.4
836.8121	785.4862	15410.55	14540.35
836.9571	787.557	15394.1	14525.55
837.1021	789.6271	14986.45	14115.1
837.2472	791.6966	14386.85	13518.55
837.3922	793.7654	13813.3	12941.7
837.5373	795.8335	13437.5	12568.3
837.6823	797.901	13214.1	12346.15
837.8274	799.9678	13118.4	12246.9
837.9724	802.0339	13079.45	12212.2
838.1175	804.0993	13111.7	12233.8
838.2626	806.1641	13075	12205.3
838.4076	808.2282	12957.55	12088.1
838.5527	810.2916	12881.65	12008.15
838.6978	812.3544	12768.9	11900.15
838.8428	814.4164	12690.45	11821.4
838.9879	816.4778	12709.8	11839.65
839.133	818.5385	12689.35	11816.9
839.2781	820.5986	12748.7	11878.7
839.4232	822.658	12889.1	12017.05
839.5682	824.7166	13007	12138
839.7133	826.7747	13311.15	12444.35
839.8584	828.832	13550.95	12683.4
840.0035	830.8886	13713.7	12842.55
840.1486	832.9446	13835	12965.75
840.2937	834.9999	13827.5	12958.1
840.4388	837.0545	13779.4	12905.6
840.5839	839.1085	13674.8	12803.8
840.729	841.1618	13538.6	12663.6
840.8741	843.2143	13468.35	12597.9
841.0192	845.2662	13332.7	12459.85
841.1643	847.3175	13261.8	12390.8
841.3095	849.368	13117.65	12245.5
841.4546	851.4179	12978.25	12104.95
841.5997	853.467	12829.6	11957.55
841.7448	855.5155	12730.3	11858.1
841.8899	857.5633	12637.3	11767.55
842.0351	859.6105	12480.85	11609.8
842.1802	861.6569	12383.9	11509.15
842.3253	863.7027	12334.05	11460.85
842.4704	865.7478	12288.25	11413.35
842.6156	867.7922	12255.95	11385.8
842.7607	869.8359	12291.55	11421
842.9058	871.8789	12368.5	11492.55
843.0509	873.9212	12525.35	11617.85
843.1961	875.9629	12625.55	11749.6
843.3412	878.0039	12822.35	11950.3
843.4863	880.0441	12893.6	12022.15
843.6315	882.0837	12902.05	12028.9
843.7766	884.1226	12804.35	11929.8
843.9218	886.1609	12703.55	11832.05
844.0669	888.1984	12641.55	11768.4
844.212	890.2352	12634.1	11762.5
844.3572	892.2714	12603.75	11729.3
844.5023	894.3069	12568.9	11694.25
844.6475	896.3416	12442.05	11566.65
844.7926	898.3757	12346.1	11471.7
844.9377	900.4091	12331.25	11455.25
845.0829	902.4418	12329.35	11450.85
845.228	904.4739	12314.1	11437.3
845.3732	906.5052	12330.45	11451.65
845.5183	908.5358	12231.2	11357.05
845.6635	910.5658	12069.5	11190.95
845.8086	912.595	11896.6	11021.05
845.9538	914.6236	11729.75	10855.25
846.0989	916.6515	11640.45	10766.65
846.2441	918.6786	11597.7	10722.65
846.3892	920.7051	11636.45	10759.7
846.5344	922.7309	11693.5	10818.25
846.6795	924.756	11720.95	10844
846.8246	926.7804	11840.15	10965.1
846.9698	928.8041	11779.1	10900.1
847.1149	930.8272	11813.75	10938.75
847.2601	932.8495	11760.5	10885.2
847.4052	934.8711	11688.15	10812
847.5504	936.892	11568.55	10693.05
847.6955	938.9123	11423.85	10547.05
847.8407	940.9318	11318.7	10442.45
847.9858	942.9506	11203.2	10325.55
848.131	944.9688	11126.6	10248.55
848.2761	946.9862	11059.65	10182.7
848.4213	949.003	10958.75	10083.8
848.5664	951.019	10945.2	10069.8
848.7115	953.0344	10909.5	10030.95
848.8567	955.0491	10919.95	10044.35
849.0018	957.063	10988.7	10112.9
849.147	959.0763	11111.2	10235.3
849.2921	961.0888	11088.15	10209.45
849.4373	963.1007	11178.25	10299.1
849.5824	965.1119	11214.55	10337.3
849.7275	967.1223	11220.45	10342.3
849.8727	969.1321	11211.65	10334
850.0178	971.1412	11214.9	10337.4
850.1629	973.1495	11217.7	10341.25
850.3081	975.1572	11274.5	10362.2
850.4532	977.1641	11268.45	10391.2
850.5983	979.1704	11226.15	10347.85
850.7435	981.1759	11186.85	10306.65
850.8886	983.1808	11242.25	10365.7
851.0337	985.1849	11339.75	10452.75
851.1788	987.1884	11449.4	10569.95
851.324	989.1911	11589.35	10705.6
851.4691	991.1932	11725.05	10848.25
851.6142	993.1945	11778.2	10900.45
851.7593	995.1951	11694.9	10818.65
851.9045	997.1951	11674.95	10794.35
852.0496	999.1943	11570.75	10691.4
852.1947	1001.1928	11537.35	10658.4
852.3398	1003.1906	11522.35	10645.4
852.4849	1005.1877	11599	10717.4
852.63	1007.1841	11599.45	10722
852.7751	1009.1798	11526.05	10648.1
852.9202	1011.1748	11359.35	10478.95
853.0653	1013.1691	11166.75	10288.6
853.2104	1015.1627	10938.65	10058.65
853.3555	1017.1556	10682.75	9805.55
853.5006	1019.1477	10570.8	9690.95
853.6457	1021.1392	10477.7	9601.15
853.7908	1023.1299	10490.1	9611.55
853.9359	1025.12	10494.55	9613.7
854.081	1027.1093	10559.95	9683
854.2261	1029.0979	10630.9	9751.45
854.3712	1031.0859	10713.7	9837
854.5163	1033.0731	10695.55	9815.7
854.6613	1035.0596	10618.25	9741.45
854.8064	1037.0454	10477.8	9598.55
854.9515	1039.0304	10359.85	9482.2
855.0965	1041.0148	10230.25	9353.55
855.2416	1042.9985	10092.2	9211.05
855.3867	1044.9814	10058.45	9180.55
855.5317	1046.9636	10000.65	9119.85
855.6768	1048.9452	9965.2	9086.85
855.8219	1050.926	9983.4	9105
855.9669	1052.9061	9959.35	9080.6
856.112	1054.8855	9962.35	9082.95
856.257	1056.8642	10000.95	9122.45
856.4021	1058.8421	10039.05	9156.55
856.5471	1060.8194	10076.4	9198.2
856.6921	1062.7959	10072.45	9193.6
856.8372	1064.7717	10090.75	9210.7
856.9822	1066.7469	10111.15	9232.4
857.1272	1068.7213	10126.85	9244.85
857.2723	1070.695	10119.65	9239.8
857.4173	1072.6679	10067.9	9187.35
857.5623	1074.6402	10025.7	9145
857.7073	1076.6117	10025.6	9140.8
857.8523	1078.5826	9971.35	9092.45
857.9973	1080.5527	9980.9	9100.9
858.1423	1082.5221	10014.95	9135.85
858.2873	1084.4908	10171.5	9291.8
858.4323	1086.4587	10311.1	9431.05
858.5773	1088.426	10454.15	9574.3
858.7223	1090.3925	10425.75	9541.3
858.8673	1092.3584	10388.1	9511.85
859.0123	1094.3235	10277.3	9399.05
859.1573	1096.2879	10191.75	9311.45
859.3022	1098.2515	10215.05	9334.2
859.4472	1100.2145	10302	9425.1
859.5922	1102.1767	10411.35	9526.85
859.7371	1104.1382	10591.45	9709.95
859.8821	1106.099	10808.9	9926.2
860.027	1108.0591	11009.8	10129.4
860.172	1110.0185	11165.15	10282.4
860.3169	1111.9771	11194.2	10315.05
860.4619	1113.9351	10976.7	10096.85
860.6068	1115.8923	10691.45	9811.35
860.7517	1117.8488	10396.25	9515.45
860.8967	1119.8045	10164.5	9284.7
861.0416	1121.7596	10031.75	9149.15
861.1865	1123.7139	9935.3	9054.45
861.3314	1125.6675	9967.35	9087.9
861.4763	1127.6204	9989.2	9109.15
861.6212	1129.5726	9961.95	9080
861.7661	1131.524	9942.7	9063.55
861.911	1133.4748	9859.3	8978.4
862.0559	1135.4248	9818.65	8935.85
862.2008	1137.3741	9759.6	8880.45
862.3457	1139.3226	9702	8819.45
862.4905	1141.2705	9652.2	8772.95
862.6354	1143.2176	9584.7	8697.85
862.7803	1145.164	9538.1	8655.45
862.9251	1147.1097	9532.1	8652.4
863.07	1149.0546	9501.45	8619.55
863.2148	1150.9989	9399.2	8519.55
863.3597	1152.9424	9248.75	8368.8
863.5045	1154.8852	9083.7	8203.3
863.6493	1156.8272	8993.35	8111.95
863.7942	1158.7686	8948.2	8060.65
863.939	1160.7092	8910.2	8028.2
864.0838	1162.6491	8911.7	8028.65
864.2286	1164.5883	9011.65	8132
864.3734	1166.5267	9085.8	8204.65
864.5182	1168.4644	9234.1	8351.5
864.663	1170.4014	9423.3	8536.65
864.8078	1172.3377	9646.55	8766.05
864.9526	1174.2732	9899.1	9016.95
865.0974	1176.2081	10173.95	9295.45
865.2421	1178.1421	10462.7	9577.5
865.3869	1180.0755	10762.55	9884.05
865.5317	1182.0082	10887.35	10004.9
865.6764	1183.9401	10959.65	10076.6
865.8212	1185.8713	10804.2	9921.6
865.9659	1187.8017	10546.05	9663.15
