Software Version:	3.9.2.0
Unit SN:	10000200
Spectrometer SN:	6960
Date:	3/14/2024 2:03:05 PM
Data Line Index:	25
Spectral Points:	2048
Integration time (ms):	125
Averages:	20
Delay (ms):	30000
Sequence Number:	1
Processing:	dark subtract
Laser Power (mW):	300
Laser Current (mA):	825
Laser Diode Temp (C):	25.1
Laser Case Temp (C):	29
System Temp (C):	29
Spectrometer Temp (C):	26.8
CCD Temp (C):	0.016
Secondary Temp (C):	20.008
Heatsink Temp (C):	24.857
CCDPCB Temp (C):	38.386
SecondaryPCB Temp (C):	35.996

Wavelength	RamanShift	Raw Counts	Dark Subtracted
787.061	30.1047	455.3	43.75
787.2016	32.3739	451.2	43.15
787.3422	34.6426	457.6	48.05
787.4828	36.9109	463.35	50.4
787.6235	39.1787	472.15	57.5
787.7642	41.4461	478.1	56.1
787.9049	43.7131	490.65	67.4
788.0456	45.9796	497.75	70.3
788.1863	48.2456	508.8	77.65
788.3271	50.5112	515.35	78.9
788.4679	52.7764	522.55	84.85
788.6087	55.0411	530.3	88.6
788.7496	57.3054	541.35	95
788.8904	59.5692	553.45	103.75
789.0313	61.8326	565.85	112.8
789.1722	64.0955	577.9	119.95
789.3132	66.3579	592.35	129.9
789.4541	68.6199	606.85	141.25
789.5951	70.8815	637.1	167.7
789.7361	73.1426	698.45	227.25
789.8771	75.4032	871.3	393.2
790.0181	77.6634	1282.8	798.65
790.1592	79.9231	2260	1770.6
790.3003	82.1824	4406	3908.35
790.4414	84.4412	8366.35	7850.2
790.5825	86.6995	13956.35	13416.55
790.7237	88.9574	19616.05	19055.55
790.8648	91.2148	23728.05	23152.7
791.006	93.4717	25729.6	25148.2
791.1472	95.7282	26309.8	25720.75
791.2885	97.9842	26390.15	25794.95
791.4297	100.2398	25993.6	25398.6
791.571	102.4949	25529.6	24927.15
791.7123	104.7495	24866.9	24261.45
791.8536	107.0036	24153.6	23548.55
791.9949	109.2573	23464.3	22862.8
792.1363	111.5105	22743	22141.6
792.2777	113.7632	22092.35	21486.8
792.4191	116.0154	21482	20863.15
792.5605	118.2672	21024.2	20417.05
792.7019	120.5185	20510.15	19897.65
792.8434	122.7693	20172.4	19559.1
792.9849	125.0197	19897.35	19279
793.1264	127.2696	19650.85	19032.8
793.2679	129.519	19538.25	18918.05
793.4094	131.7679	19357.1	18733.95
793.551	134.0163	19257.2	18632.2
793.6926	136.2642	19128.8	18495.5
793.8342	138.5117	19000.8	18357.55
793.9758	140.7587	18792.3	18155.5
794.1175	143.0052	18671.7	18032.3
794.2591	145.2512	18486.2	17846.55
794.4008	147.4967	18298.55	17655.75
794.5425	149.7417	18187.5	17540.5
794.6842	151.9863	18042.75	17398.05
794.826	154.2304	17972.25	17323.7
794.9677	156.4739	17864.8	17210.25
795.1095	158.717	17828.1	17177
795.2513	160.9596	17693.7	17035.35
795.3931	163.2017	17433.25	16773.05
795.535	165.4433	17163.1	16502.6
795.6768	167.6844	16840.2	16179.35
795.8187	169.925	16536.85	15871.3
795.9606	172.1651	16195.05	15525.35
796.1025	174.4047	15948.85	15276.25
796.2445	176.6439	15695.8	15022.05
796.3864	178.8825	15455.8	14778.5
796.5284	181.1206	15307.35	14630
796.6704	183.3582	15106.95	14421.8
796.8124	185.5954	15004	14319.85
796.9544	187.832	14890.5	14202.3
797.0965	190.0681	14872.65	14182.95
797.2386	192.3037	14856.15	14160.95
797.3806	194.5388	14834.5	14141.1
797.5228	196.7734	14825.15	14123.9
797.6649	199.0075	14902.9	14201
797.807	201.2411	15027.6	14322.85
797.9492	203.4742	15052.05	14350.1
798.0914	205.7068	15155.65	14449.05
798.2336	207.9389	15249.25	14543.9
798.3758	210.1704	15338.35	14630.6
798.518	212.4015	15450.35	14739.05
798.6603	214.632	15599.55	14888
798.8025	216.862	15755.4	15048.35
798.9448	219.0915	15934.25	15235.25
799.0871	221.3205	16163.1	15465.85
799.2294	223.549	16373.2	15680.2
799.3718	225.777	16693.25	16001.2
799.5141	228.0044	17064.85	16370.95
799.6565	230.2314	17568.05	16876.75
799.7989	232.4578	18027.05	17331.85
799.9413	234.6837	18388.45	17685.65
800.0837	236.909	18621.2	17918.85
800.2262	239.1339	18539.4	17813.1
800.3687	241.3582	18291.2	17584.15
800.5111	243.582	17918.95	17180.3
800.6536	245.8053	17509.45	16779.8
800.7961	248.0281	17148.35	16425.45
800.9387	250.2503	16832.7	16101
801.0812	252.472	16633.5	15899.75
801.2238	254.6932	16534.85	15800.2
801.3664	256.9139	16382.1	15641.25
801.509	259.134	16271.05	15529.05
801.6516	261.3536	16189.1	15450.9
801.7942	263.5727	16160.2	15419.7
801.9369	265.7912	16024.9	15280.5
802.0795	268.0092	15922.6	15181.35
802.2222	270.2267	15874.35	15135.25
802.3649	272.4436	15779.7	15036.05
802.5076	274.6601	15714.7	14964.95
802.6504	276.8759	15654.05	14909.2
802.7931	279.0913	15674.2	14928.65
802.9359	281.3061	15704.15	14960.2
803.0787	283.5204	15772.8	15019.4
803.2215	285.7341	15909.55	15152.05
803.3643	287.9473	16075.45	15311
803.5071	290.16	16304.05	15542.6
803.6499	292.3721	16609.2	15854
803.7928	294.5837	17041.6	16287.45
803.9357	296.7947	17378.65	16620.65
804.0786	299.0052	17539.55	16784.45
804.2215	301.2152	17400.85	16641.7
804.3644	303.4246	17034.2	16276.4
804.5074	305.6334	16458.65	15705.45
804.6503	307.8418	15950.6	15192.45
804.7933	310.0495	15571.45	14812.65
804.9363	312.2568	15312.3	14551.1
805.0793	314.4635	15103.3	14342.7
805.2223	316.6696	15064.8	14302.25
805.3653	318.8752	15069.2	14297.7
805.5084	321.0802	15095.35	14334.9
805.6514	323.2847	15217.8	14454.25
805.7945	325.4887	15245.95	14481.25
805.9376	327.692	15205.45	14439.7
806.0807	329.8949	15079.4	14311.5
806.2238	332.0972	14830.05	14064.25
806.367	334.2989	14565.75	13793.45
806.5101	336.5001	14267.95	13494.55
806.6533	338.7007	14077.35	13303.3
806.7965	340.9008	13961	13188.85
806.9397	343.1003	13863.4	13086.75
807.0829	345.2992	13835.6	13059.6
807.2261	347.4976	13777.7	13002.35
807.3693	349.6955	13768.8	12987
807.5126	351.8927	13819.6	13033.15
807.6559	354.0895	13834.95	13040.75
807.7991	356.2856	13859	13077.05
807.9424	358.4812	13865.95	13082.45
808.0857	360.6763	13855.9	13071.75
808.2291	362.8707	13821.35	13037.5
808.3724	365.0646	13850.45	13063.25
808.5158	367.258	13775.2	12982.2
808.6591	369.4508	13814	13021
808.8025	371.643	13815.6	13025.8
808.9459	373.8346	13768.65	12975.4
809.0893	376.0257	13750.45	12951.65
809.2327	378.2162	13681.8	12884.35
809.3762	380.4062	13541.7	12740.65
809.5196	382.5956	13418.6	12617.45
809.6631	384.7844	13322.5	12521.4
809.8066	386.9726	13207.85	12405.05
809.9501	389.1603	13137.65	12335.9
810.0936	391.3474	13085.6	12250.1
810.2371	393.5339	13071.7	12269.2
810.3806	395.7199	13003.25	12200.9
810.5241	397.9052	13009.7	12214.55
810.6677	400.09	13014.95	12219.25
810.8113	402.2743	13043.15	12247.4
810.9548	404.4579	13052.55	12258.8
811.0984	406.641	13211.5	12414.35
811.2421	408.8235	13378.8	12579.85
811.3857	411.0054	13714.5	12920.85
811.5293	413.1868	14153.4	13356.2
811.673	415.3675	14502.9	13704.8
811.8166	417.5477	14684.05	13887.95
811.9603	419.7273	14738.95	13939.1
812.104	421.9064	14623.15	13814.8
812.2477	424.0848	14492.25	13684.8
812.3914	426.2627	14248.2	13440.25
812.5351	428.4399	13998.8	13190.15
812.6788	430.6166	13660.7	12849.95
812.8226	432.7928	13307	12491.1
812.9663	434.9683	12973.6	12158.55
813.1101	437.1432	12781.85	11966.35
813.2539	439.3176	12616.95	11804.7
813.3977	441.4914	12502.2	11685.45
813.5415	443.6645	12496.95	11679.8
813.6853	445.8371	12432.3	11612.3
813.8291	448.0091	12326.1	11507.4
813.973	450.1806	12274.45	11456.55
814.1168	452.3514	12214.5	11395.15
814.2607	454.5216	12197.75	11366.5
814.4046	456.6913	12153.8	11330.85
814.5485	458.8603	12143.7	11321.85
814.6924	461.0288	12169.3	11349.2
814.8363	463.1967	12189	11368.8
814.9802	465.3639	12352.6	11529
815.1241	467.5306	12455.15	11632.75
815.2681	469.6967	12579.35	11758.95
815.412	471.8622	12737	11917.05
815.556	474.0271	12912.8	12089
815.7	476.1914	12972.7	12146.2
815.844	478.3551	12942.45	12118.4
815.988	480.5182	12855.65	12031.25
816.132	482.6807	12815.45	11991.45
816.276	484.8426	12862.65	12037.9
816.4201	487.0039	13071.05	12246.45
816.5641	489.1647	13403.95	12574.7
816.7082	491.3248	13806.25	12981.5
816.8522	493.4843	14004.2	13180.05
816.9963	495.6432	14039.55	13215.5
817.1404	497.8015	13933.75	13106.45
817.2845	499.9592	13941.15	13114.4
817.4286	502.1163	13917.85	13090.2
817.5727	504.2728	13735.35	12904.1
817.7168	506.4287	13448.3	12617.15
817.861	508.5839	13057.55	12228.95
818.0051	510.7386	12697.7	11869.75
818.1493	512.8927	12494.05	11656.35
818.2935	515.0461	12358.7	11525.45
818.4377	517.199	12258.2	11424.45
818.5818	519.3512	12166.65	11333.45
818.726	521.5029	12180.15	11343.3
818.8703	523.6539	12136.3	11301.05
819.0145	525.8043	12189.1	11355.25
819.1587	527.9541	12192.25	11357.25
819.303	530.1033	12235.7	11400.05
819.4472	532.2519	12280.35	11445.3
819.5915	534.3999	12448.95	11613.45
819.7357	536.5472	12724.8	11886.15
819.88	538.694	13193.45	12358.1
820.0243	540.8401	13788.8	12952.55
820.1686	542.9856	14310.3	13470.2
820.3129	545.1305	14474.4	13636
820.4572	547.2748	14293.7	13456.65
820.6016	549.4185	13926.7	13084.8
820.7459	551.5615	13537.55	12696.95
820.8902	553.704	13350.4	12508.9
821.0346	555.8458	13227.25	12386.5
821.1789	557.987	13166	12327.95
821.3233	560.1276	13062.85	12219.6
821.4677	562.2675	12971.2	12130.1
821.6121	564.4069	12848.55	12006.45
821.7565	566.5456	12705.7	11864.3
821.9009	568.6837	12550	11706.15
822.0453	570.8212	12335.9	11496.75
822.1897	572.958	12140.2	11298.25
822.3342	575.0942	11984.25	11145.05
822.4786	577.2299	11883.1	11041.1
822.6231	579.3648	11879.8	11037.75
822.7675	581.4992	12004.05	11160.85
822.912	583.6329	12188.3	11345.65
823.0565	585.766	12374.75	11536.95
823.201	587.8985	12511.9	11671.15
823.3454	590.0304	12490.85	11640.45
823.4899	592.1616	12460.65	11614.3
823.6345	594.2922	12344.4	11503.25
823.779	596.4222	12213.25	11369.85
823.9235	598.5515	12066.9	11222.95
824.068	600.6802	11923.35	11081.4
824.2126	602.8083	11737.3	10893.85
824.3571	604.9358	11638.2	10791.8
824.5017	607.0626	11566.7	10721.95
824.6462	609.1888	11463.7	10617.2
824.7908	611.3144	11363.75	10517.55
824.9354	613.4393	11199.25	10349.55
825.08	615.5636	11075.55	10229.05
825.2246	617.6873	10965.5	10118.8
825.3692	619.8103	10893.2	10046.25
825.5138	621.9327	10827.05	9974.95
825.6584	624.0544	10818.6	9970.9
825.803	626.1756	10820.05	9972.6
825.9477	628.2961	10771.65	9925.7
826.0923	630.4159	10728.6	9877.95
826.237	632.5351	10699.55	9851.15
826.3816	634.6537	10615.55	9766.55
826.5263	636.7716	10587.75	9735.8
826.6709	638.8889	10585.95	9736.55
826.8156	641.0056	10578.7	9729.35
826.9603	643.1216	10549	9698.05
827.105	645.237	10592.55	9739.85
827.2497	647.3518	10595.55	9741.5
827.3944	649.4659	10616.6	9763
827.5391	651.5793	10594.95	9741.8
827.6838	653.6922	10583.75	9732.1
827.8285	655.8043	10531.55	9678.7
827.9733	657.9159	10494.45	9639.55
828.118	660.0268	10435.85	9581.1
828.2627	662.137	10364.7	9510
828.4075	664.2466	10307.85	9452.85
828.5522	666.3556	10282.15	9431.9
828.697	668.4639	10289	9433.45
828.8418	670.5716	10308.2	9457.35
828.9865	672.6786	10393.45	9537.1
829.1313	674.785	10441.65	9583.4
829.2761	676.8907	10530.7	9676.75
829.4209	678.9958	10590.9	9736
829.5657	681.1002	10559.55	9702.05
829.7105	683.204	10539.25	9680.45
829.8553	685.3072	10468.4	9611.85
830.0001	687.4097	10390.85	9533.95
830.1449	689.5115	10341.7	9485.3
830.2898	691.6127	10264.5	9410.1
830.4346	693.7132	10152.3	9294.2
830.5794	695.8131	10139.9	9257.85
830.7243	697.9123	10079	9218.8
830.8691	700.0109	10001.5	9139.65
831.014	702.1089	9960.3	9100.6
831.1588	704.2061	9947.65	9088.15
831.3037	706.3028	9991.7	9133.1
831.4486	708.3987	10048.2	9187.9
831.5935	710.4941	10095.75	9235.7
831.7383	712.5887	10280.95	9420.55
831.8832	714.6827	10552.6	9689.75
832.0281	716.7761	10909.8	10050.7
832.173	718.8688	11263.4	10402.2
832.3179	720.9608	11449.3	10585.1
832.4628	723.0522	11425.5	10559.25
832.6077	725.1429	11199.65	10338.9
832.7527	727.233	10855.4	9994.6
832.8976	729.3224	10534.05	9672.85
833.0425	731.4112	10229.9	9365
833.1874	733.4993	10012.95	9147.55
833.3324	735.5867	9874.7	9011.65
833.4773	737.6735	9810.75	8948.6
833.6222	739.7596	9765.05	8900.55
833.7672	741.845	9722.2	8858.7
833.9122	743.9298	9710.3	8842.7
834.0571	746.014	9725.85	8860.4
834.2021	748.0974	9715.3	8850.45
834.347	750.1802	9706.05	8842.7
834.492	752.2624	9725.9	8863.45
834.637	754.3439	9716.8	8849.85
834.782	756.4247	9781.95	8909.35
834.9269	758.5048	9817.6	8952.85
835.0719	760.5843	9964.35	9101.25
835.2169	762.6631	10200.4	9334.3
835.3619	764.7413	10570.3	9705.6
835.5069	766.8188	11033.7	10168.5
835.6519	768.8956	11441.15	10573.1
835.7969	770.9718	11731.3	10868.35
835.9419	773.0473	11634.5	10770.6
836.0869	775.1221	11306.3	10442.5
836.232	777.1962	10963.3	10096.55
836.377	779.2697	10782.2	9911.15
836.522	781.3426	10845.1	9960.55
836.667	783.4147	11086.15	10219.65
836.8121	785.4862	11415.05	10550.1
836.9571	787.557	11429.1	10564.5
837.1021	789.6271	11112.75	10244.8
837.2472	791.6966	10615.5	9749.2
837.3922	793.7654	10132.1	9266.65
837.5373	795.8335	9836.05	8967.9
837.6823	797.901	9661	8795.9
837.8274	799.9678	9605.8	8736.7
837.9724	802.0339	9608.35	8739.7
838.1175	804.0993	9664.9	8789.25
838.2626	806.1641	9666.8	8800.55
838.4076	808.2282	9594.8	8728.4
838.5527	810.2916	9495.95	8624.85
838.6978	812.3544	9408.7	8541.9
838.8428	814.4164	9315.85	8449.15
838.9879	816.4778	9294.25	8426.4
839.133	818.5385	9263	8393.05
839.2781	820.5986	9305.45	8438.85
839.4232	822.658	9331.1	8462.05
839.5682	824.7166	9360.8	8494.15
839.7133	826.7747	9468.5	8602.2
839.8584	828.832	9546.85	8679.8
840.0035	830.8886	9637.15	8765.9
840.1486	832.9446	9758.75	8887.7
840.2937	834.9999	9845.65	8978.5
840.4388	837.0545	9916.7	9043.65
840.5839	839.1085	9950.3	9083.4
840.729	841.1618	9969.15	9096.75
840.8741	843.2143	9955.15	9088.1
841.0192	845.2662	9899.15	9031
841.1643	847.3175	9838.4	8969.15
841.3095	849.368	9715.45	8844.95
841.4546	851.4179	9632.6	8763.65
841.5997	853.467	9479.3	8610.65
841.7448	855.5155	9339.8	8468.85
841.8899	857.5633	9253.75	8383.3
842.0351	859.6105	9154.8	8286.5
842.1802	861.6569	9059	8189.25
842.3253	863.7027	9003.75	8134.15
842.4704	865.7478	9009.55	8137.35
842.6156	867.7922	9004.8	8133.9
842.7607	869.8359	9038.05	8166.05
842.9058	871.8789	9140.2	8270
843.0509	873.9212	9303.6	8397.75
843.1961	875.9629	9424.95	8554.7
843.3412	878.0039	9581.35	8709.55
843.4863	880.0441	9664.5	8794.35
843.6315	882.0837	9683.7	8808.75
843.7766	884.1226	9557.15	8684.3
843.9218	886.1609	9408.6	8538.1
844.0669	888.1984	9260.3	8388.8
844.212	890.2352	9213.5	8344.9
844.3572	892.2714	9123.25	8243.65
844.5023	894.3069	9118.25	8244.25
844.6475	896.3416	9058.35	8185.95
844.7926	898.3757	9021.35	8150.25
844.9377	900.4091	9034.05	8162.3
845.0829	902.4418	9029.45	8153.65
845.228	904.4739	9022.85	8149.75
845.3732	906.5052	9001.15	8128.85
845.5183	908.5358	8898.55	8028.5
845.6635	910.5658	8758.05	7884.85
845.8086	912.595	8611.45	7739.4
845.9538	914.6236	8501.95	7630.05
846.0989	916.6515	8496.7	7623.9
846.2441	918.6786	8471.8	7594.95
846.3892	920.7051	8522.1	7647.55
846.5344	922.7309	8600.65	7728.15
846.6795	924.756	8662.5	7789.1
846.8246	926.7804	8730.95	7853.95
846.9698	928.8041	8719.25	7844.1
847.1149	930.8272	8723.1	7848.85
847.2601	932.8495	8657.35	7782.95
847.4052	934.8711	8583.65	7708.35
847.5504	936.892	8439.15	7567.4
847.6955	938.9123	8287.7	7415.65
847.8407	940.9318	8143.75	7269.65
847.9858	942.9506	8034.55	7158.1
848.131	944.9688	7962.3	7089.35
848.2761	946.9862	7911.05	7035.9
848.4213	949.003	7863.95	6985.85
848.5664	951.019	7852.3	6977.95
848.7115	953.0344	7874.85	6997.15
848.8567	955.0491	7897.3	7022.2
849.0018	957.063	7971.35	7096.2
849.147	959.0763	8061.6	7184.65
849.2921	961.0888	8074.05	7198.65
849.4373	963.1007	8153.75	7276.85
849.5824	965.1119	8183.15	7308.05
849.7275	967.1223	8209.15	7332.35
849.8727	969.1321	8223.25	7346.15
850.0178	971.1412	8257.45	7381.95
850.1629	973.1495	8264.75	7389.7
850.3081	975.1572	8327.05	7414.6
850.4532	977.1641	8329.4	7452.25
850.5983	979.1704	8300	7423.1
850.7435	981.1759	8278.25	7398.9
850.8886	983.1808	8338.85	7461
851.0337	985.1849	8430.6	7545.05
851.1788	987.1884	8577.6	7700.6
851.324	989.1911	8749.4	7870.6
851.4691	991.1932	8878.2	8000.55
851.6142	993.1945	8934.3	8057.75
851.7593	995.1951	8875.95	7998.35
851.9045	997.1951	8853.6	7971.95
852.0496	999.1943	8781.3	7908.15
852.1947	1001.1928	8723.75	7847.5
852.3398	1003.1906	8711.15	7833.55
852.4849	1005.1877	8750.4	7871.8
852.63	1007.1841	8693.65	7818
852.7751	1009.1798	8598.4	7721.2
852.9202	1011.1748	8432.75	7555.05
853.0653	1013.1691	8247.3	7370
853.2104	1015.1627	8036.6	7157.7
853.3555	1017.1556	7855.5	6980.2
853.5006	1019.1477	7793.8	6916.85
853.6457	1021.1392	7728.35	6853.1
853.7908	1023.1299	7708.55	6831.3
853.9359	1025.12	7756.55	6877.05
854.081	1027.1093	7773.9	6897.2
854.2261	1029.0979	7864.5	6989.8
854.3712	1031.0859	7914	7037
854.5163	1033.0731	7899.2	7020.95
854.6613	1035.0596	7800.95	6923.2
854.8064	1037.0454	7689.05	6810.95
854.9515	1039.0304	7588.1	6708.95
855.0965	1041.0148	7472.75	6596.6
855.2416	1042.9985	7414.25	6537.5
855.3867	1044.9814	7357.85	6483.85
855.5317	1046.9636	7327.55	6450.35
855.6768	1048.9452	7279.05	6403.85
855.8219	1050.926	7293.15	6417.1
855.9669	1052.9061	7263.05	6387.65
856.112	1054.8855	7247.9	6369.3
856.257	1056.8642	7279.25	6402.15
856.4021	1058.8421	7305.3	6422.8
856.5471	1060.8194	7318.9	6442.55
856.6921	1062.7959	7347.15	6469.35
856.8372	1064.7717	7366.35	6485.4
856.9822	1066.7469	7340.6	6462.15
857.1272	1068.7213	7328.1	6449.2
857.2723	1070.695	7285.95	6408.2
857.4173	1072.6679	7216.3	6338.15
857.5623	1074.6402	7169.85	6291.45
857.7073	1076.6117	7155.45	6272.3
857.8523	1078.5826	7163.4	6286.35
857.9973	1080.5527	7219.35	6338.9
858.1423	1082.5221	7364.15	6485.2
858.2873	1084.4908	7542.85	6663.2
858.4323	1086.4587	7743.3	6863.1
858.5773	1088.426	7870.9	6992.55
858.7223	1090.3925	7905.55	7020.05
858.8673	1092.3584	7818.55	6940.9
859.0123	1094.3235	7662.55	6785.55
859.1573	1096.2879	7564.25	6687.55
859.3022	1098.2515	7528.65	6649.05
859.4472	1100.2145	7559	6680.05
859.5922	1102.1767	7595.95	6716.3
859.7371	1104.1382	7705.35	6825.9
859.8821	1106.099	7859.5	6981.45
860.027	1108.0591	8053.7	7176.45
860.172	1110.0185	8182.15	7301.1
860.3169	1111.9771	8190.65	7313.3
860.4619	1113.9351	7963.9	7084.6
860.6068	1115.8923	7675.05	6797.85
860.7517	1117.8488	7366.5	6485.85
860.8967	1119.8045	7120.9	6241.55
861.0416	1121.7596	6980	6100.4
861.1865	1123.7139	6922.35	6044.05
861.3314	1125.6675	6931.95	6053.35
861.4763	1127.6204	6973.15	6092.6
861.6212	1129.5726	7002.75	6121.55
861.7661	1131.524	7031.3	6152.7
861.911	1133.4748	7074.2	6197.65
862.0559	1135.4248	7093.8	6212.75
862.2008	1137.3741	7099.2	6220.25
862.3457	1139.3226	7081.45	6201.9
862.4905	1141.2705	7061.35	6182.85
862.6354	1143.2176	7003.55	6120.2
862.7803	1145.164	7027.9	6147.65
862.9251	1147.1097	7025.35	6147
863.07	1149.0546	7006.55	6124
863.2148	1150.9989	6929.2	6049.7
863.3597	1152.9424	6777.05	5895.85
863.5045	1154.8852	6615.65	5733.95
863.6493	1156.8272	6481.75	5604.8
863.7942	1158.7686	6416.75	5529.1
863.939	1160.7092	6386.55	5506.35
864.0838	1162.6491	6373.4	5493.1
864.2286	1164.5883	6420.4	5540.85
864.3734	1166.5267	6487.1	5605.85
864.5182	1168.4644	6594.2	5713.65
864.663	1170.4014	6770.25	5886.55
864.8078	1172.3377	6960.2	6084.3
864.9526	1174.2732	7142.55	6262.4
865.0974	1176.2081	7319.7	6442.25
865.2421	1178.1421	7448.8	6564.45
865.3869	1180.0755	7555.9	6675.65
865.5317	1182.0082	7567.8	6688.1
865.6764	1183.9401	7506.65	6625.5
865.8212	1185.8713	7325.6	6444.35
865.9659	1187.8017	7102.65	6223.4
866.1106	1189.7315	6868.7	5990.9
866.2554	1191.6605	6686.4	5778.55
866.4001	1193.5888	6492.85	5612.2
866.5448	1195.5163	6383.85	5502.7
866.6895	1197.4432	6303.4	5420.05
866.8342	1199.3693	6230.5	5351.6
866.9789	1201.2947	6186.5	5304.2
867.1236	1203.2193	6176.4	5296.25
867.2683	1205.1432	6226	5347
867.413	1207.0664	6264.35	5385.5
