Software Version:	3.9.2.0
Unit SN:	10000200
Spectrometer SN:	6960
Date:	3/14/2024 1:09:17 PM
Data Line Index:	25
Spectral Points:	2048
Integration time (ms):	125
Averages:	20
Delay (ms):	30000
Sequence Number:	1
Processing:	dark subtract
Laser Power (mW):	305
Laser Current (mA):	823
Laser Diode Temp (C):	25
Laser Case Temp (C):	28.1
System Temp (C):	28.1
Spectrometer Temp (C):	25.9
CCD Temp (C):	-0.002
Secondary Temp (C):	20.008
Heatsink Temp (C):	23.99
CCDPCB Temp (C):	37.574
SecondaryPCB Temp (C):	35.306

Wavelength	RamanShift	Raw Counts	Dark Subtracted
787.061	30.1047	444.8	32.7
787.2016	32.3739	444.6	34.3
787.3422	34.6426	450.3	39.15
787.4828	36.9109	453.65	39.55
787.6235	39.1787	462.3	43.7
787.7642	41.4461	469.35	47.5
787.9049	43.7131	476.55	49.65
788.0456	45.9796	482.75	52.2
788.1863	48.2456	488.15	54.55
788.3271	50.5112	499.65	62
788.4679	52.7764	503.4	65.3
788.6087	55.0411	512.35	69.95
788.7496	57.3054	520.9	74.15
788.8904	59.5692	530.85	81.2
789.0313	61.8326	538.7	85.3
789.1722	64.0955	548.65	90.9
789.3132	66.3579	560.45	96.75
789.4541	68.6199	578.3	113
789.5951	70.8815	601.75	131.5
789.7361	73.1426	662.75	191
789.8771	75.4032	806.9	331.05
790.0181	77.6634	1180.4	698.45
790.1592	79.9231	2038.8	1551.3
790.3003	82.1824	3881.9	3386.55
790.4414	84.4412	7211.65	6705.6
790.5825	86.6995	11762.55	11239.25
790.7237	88.9574	16224.75	15689.45
790.8648	91.2148	19277.75	18731.6
791.006	93.4717	20714.85	20163
791.1472	95.7282	20923.8	20366.6
791.2885	97.9842	20770.2	20211.65
791.4297	100.2398	20223.1	19662.8
791.571	102.4949	19618.45	19054.9
791.7123	104.7495	18984.15	18416.45
791.8536	107.0036	18301	17733.5
791.9949	109.2573	17699.55	17131.7
792.1363	111.5105	17151.2	16581.65
792.2777	113.7632	16666.6	16092.35
792.4191	116.0154	16227.1	15645.55
792.5605	118.2672	15921.05	15344.25
792.7019	120.5185	15629.45	15055.2
792.8434	122.7693	15401.2	14822.3
792.9849	125.0197	15216.7	14634
793.1264	127.2696	14983	14399.2
793.2679	129.519	14864.55	14281.45
793.4094	131.7679	14678.7	14090.55
793.551	134.0163	14467.85	13874.4
793.6926	136.2642	14244.3	13646.7
793.8342	138.5117	13997.85	13396.45
793.9758	140.7587	13717.4	13116.45
794.1175	143.0052	13468.8	12863.45
794.2591	145.2512	13206.25	12605.15
794.4008	147.4967	12952.8	12348.85
794.5425	149.7417	12789.2	12180.65
794.6842	151.9863	12635.45	12026.2
794.826	154.2304	12562.15	11947.75
794.9677	156.4739	12445.75	11825.2
795.1095	158.717	12386.95	11766.25
795.2513	160.9596	12290.5	11666.2
795.3931	163.2017	12109.4	11482.15
795.535	165.4433	11889.45	11260.9
795.6768	167.6844	11671.45	11042.3
795.8187	169.925	11439.25	10807.05
795.9606	172.1651	11165.7	10531.5
796.1025	174.4047	10976.6	10334.65
796.2445	176.6439	10804.35	10162.5
796.3864	178.8825	10624.6	9980.55
796.5284	181.1206	10508.8	9859.55
796.6704	183.3582	10405	9753.6
796.8124	185.5954	10351.45	9700
796.9544	187.832	10285.75	9630.1
797.0965	190.0681	10267.25	9609.05
797.2386	192.3037	10248.35	9587.75
797.3806	194.5388	10208.6	9543.25
797.5228	196.7734	10234.75	9567.6
797.6649	199.0075	10266.45	9595.9
797.807	201.2411	10355.7	9681.85
797.9492	203.4742	10410.85	9735.8
798.0914	205.7068	10517.75	9844
798.2336	207.9389	10604	9929.6
798.3758	210.1704	10713.3	10035.8
798.518	212.4015	10757.5	10075.65
798.6603	214.632	10849.45	10167.55
798.8025	216.862	10970.2	10293.05
798.9448	219.0915	11011.5	10344.35
799.0871	221.3205	11075.1	10411.2
799.2294	223.549	11113.6	10454.75
799.3718	225.777	11190.75	10532.2
799.5141	228.0044	11239.7	10578.35
799.6565	230.2314	11323	10665.55
799.7989	232.4578	11403.85	10739.85
799.9413	234.6837	11483.75	10815.2
800.0837	236.909	11511.2	10843.25
800.2262	239.1339	11499.45	10807.95
800.3687	241.3582	11446.4	10766.5
800.5111	243.582	11412.75	10703.95
800.6536	245.8053	11340.45	10642
800.7961	248.0281	11285.75	10590
800.9387	250.2503	11280.25	10584.3
801.0812	252.472	11295.05	10592.65
801.2238	254.6932	11355.5	10649.8
801.3664	256.9139	11394.4	10687.95
801.509	259.134	11552.4	10840.9
801.6516	261.3536	11707.3	10998.55
801.7942	263.5727	11933	11221.4
801.9369	265.7912	12085	11374.95
802.0795	268.0092	12315.6	11604.3
802.2222	270.2267	12477.45	11765.25
802.3649	272.4436	12584.85	11870
802.5076	274.6601	12612.05	11888.9
802.6504	276.8759	12574.95	11859.4
802.7931	279.0913	12519.55	11804.1
802.9359	281.3061	12428.05	11707.45
803.0787	283.5204	12389.6	11664.8
803.2215	285.7341	12376.4	11651.4
803.3643	287.9473	12353.75	11626.6
803.5071	290.16	12385.5	11653.2
803.6499	292.3721	12443.75	11716.6
803.7928	294.5837	12562.25	11833.2
803.9357	296.7947	12665.4	11938.55
804.0786	299.0052	12803.05	12073.15
804.2215	301.2152	12793.3	12061.5
804.3644	303.4246	12729.25	12000.65
804.5074	305.6334	12467.45	11737.6
804.6503	307.8418	12220.5	11490
804.7933	310.0495	11897.7	11164
804.9363	312.2568	11603.3	10872.6
805.0793	314.4635	11267.35	10533.35
805.2223	316.6696	11046.1	10310.7
805.3653	318.8752	10870.8	10128.85
805.5084	321.0802	10791.05	10053.75
805.6514	323.2847	10787.75	10050.35
805.7945	325.4887	10810	10072.65
805.9376	327.692	10812.3	10073.5
806.0807	329.8949	10797.15	10054.5
806.2238	332.0972	10709	9967.75
806.367	334.2989	10576.75	9830.3
806.5101	336.5001	10350.15	9603.8
806.6533	338.7007	10196.85	9449.9
806.7965	340.9008	10082.9	9334.35
806.9397	343.1003	9954.5	9202.8
807.0829	345.2992	9862.25	9109.4
807.2261	347.4976	9757.4	9003.85
807.3693	349.6955	9698.7	8941.95
807.5126	351.8927	9671.35	8914.7
807.6559	354.0895	9575.75	8810.35
807.7991	356.2856	9582.15	8823.4
807.9424	358.4812	9523.4	8763.7
808.0857	360.6763	9523.2	8761.25
808.2291	362.8707	9500.4	8741.1
808.3724	365.0646	9499.95	8737.8
808.5158	367.258	9539.4	8776.15
808.6591	369.4508	9574.6	8805.55
808.8025	371.643	9678.9	8910.5
808.9459	373.8346	9720	8949.65
809.0893	376.0257	9785.6	9012.35
809.2327	378.2162	9831.35	9054.6
809.3762	380.4062	9839.1	9062.8
809.5196	382.5956	9753.85	8973
809.6631	384.7844	9639.6	8862.7
809.8066	386.9726	9558.85	8779.8
809.9501	389.1603	9484.1	8704.45
810.0936	391.3474	9424.95	8611.75
810.2371	393.5339	9379.75	8599.5
810.3806	395.7199	9365.35	8591.3
810.5241	397.9052	9402.15	8630.95
810.6677	400.09	9441	8671.5
810.8113	402.2743	9555.05	8786.2
810.9548	404.4579	9660.3	8889.4
811.0984	406.641	9820.6	9050.05
811.2421	408.8235	9922.4	9151.6
811.3857	411.0054	10039.4	9267.75
811.5293	413.1868	10167.3	9393.4
811.673	415.3675	10216.3	9440.55
811.8166	417.5477	10222.85	9444.8
811.9603	419.7273	10196.25	9414.6
812.104	421.9064	10109.4	9323.7
812.2477	424.0848	10037	9253.75
812.3914	426.2627	9906.1	9120.35
812.5351	428.4399	9739.15	8950.8
812.6788	430.6166	9518.45	8727.35
812.8226	432.7928	9261.95	8470.55
812.9663	434.9683	9046.1	8254.8
813.1101	437.1432	8866.85	8069.55
813.2539	439.3176	8734.7	7938.3
813.3977	441.4914	8655.35	7860.95
813.5415	443.6645	8596.7	7798.2
813.6853	445.8371	8568	7769.75
813.8291	448.0091	8527.2	7728.95
813.973	450.1806	8508.2	7708.55
814.1168	452.3514	8491.1	7692.15
814.2607	454.5216	8504.4	7694.75
814.4046	456.6913	8503.45	7702.75
814.5485	458.8603	8531.25	7731.7
814.6924	461.0288	8556.15	7755.05
814.8363	463.1967	8543.55	7742.2
814.9802	465.3639	8567.75	7764.35
815.1241	467.5306	8550.7	7746.6
815.2681	469.6967	8549.9	7745.75
815.412	471.8622	8562	7759.1
815.556	474.0271	8564.25	7759.95
815.7	476.1914	8596.9	7789.4
815.844	478.3551	8598.25	7791.1
815.988	480.5182	8621.8	7816.75
816.132	482.6807	8667.7	7858.75
816.276	484.8426	8805.1	7998.15
816.4201	487.0039	9034.4	8225.65
816.5641	489.1647	9317.2	8508.95
816.7082	491.3248	9548.65	8742.1
816.8522	493.4843	9610.25	8801.7
816.9963	495.6432	9554.7	8745.05
817.1404	497.8015	9452.1	8639.2
817.2845	499.9592	9356.7	8546.05
817.4286	502.1163	9204.5	8394.55
817.5727	504.2728	8998.25	8182.5
817.7168	506.4287	8758.6	7945.7
817.861	508.5839	8578.05	7764
818.0051	510.7386	8398.05	7587.15
818.1493	512.8927	8335.45	7515.25
818.2935	515.0461	8306.05	7491.5
818.4377	517.199	8355.6	7541.35
818.5818	519.3512	8478.35	7661.5
818.726	521.5029	8671.7	7850.4
818.8703	523.6539	8877.05	8061.5
819.0145	525.8043	8979.05	8161.9
819.1587	527.9541	8913.25	8093.35
819.303	530.1033	8780.25	7959.9
819.4472	532.2519	8637.2	7817.4
819.5915	534.3999	8567.75	7745.45
819.7357	536.5472	8601.8	7781.85
819.88	538.694	8735.8	7913.5
820.0243	540.8401	8910.35	8084.1
820.1686	542.9856	9069.6	8244.35
820.3129	545.1305	9080.55	8257.85
820.4572	547.2748	9024.3	8201.8
820.6016	549.4185	8896.1	8071.05
820.7459	551.5615	8804.75	7980.5
820.8902	553.704	8794.5	7970.8
821.0346	555.8458	8829.5	8005.85
821.1789	557.987	8948.3	8122.3
821.3233	560.1276	9105.2	8278.25
821.4677	562.2675	9384.45	8559.05
821.6121	564.4069	9763.65	8941.3
821.7565	566.5456	10082.7	9259.1
821.9009	568.6837	10227.1	9400
822.0453	570.8212	9950.55	9127.25
822.1897	572.958	9465.7	8639.55
822.3342	575.0942	8946.9	8124.3
822.4786	577.2299	8609.25	7783.9
822.6231	579.3648	8456.8	7631.25
822.7675	581.4992	8408.65	7584.15
822.912	583.6329	8444.8	7620.45
823.0565	585.766	8573.45	7746.8
823.201	587.8985	8682.7	7854.9
823.3454	590.0304	8772.55	7920.15
823.4899	592.1616	8745.75	7912.6
823.6345	594.2922	8660.65	7829.75
823.779	596.4222	8483.35	7653.2
823.9235	598.5515	8343.25	7512.1
824.068	600.6802	8216.55	7387.7
824.2126	602.8083	8077.4	7245.7
824.3571	604.9358	8072.25	7238.75
824.5017	607.0626	8072.05	7239.85
824.6462	609.1888	8152.5	7318.8
824.7908	611.3144	8254.85	7422.65
824.9354	613.4393	8363.3	7530.45
825.08	615.5636	8450.15	7616.95
825.2246	617.6873	8511.3	7677.4
825.3692	619.8103	8455.6	7620.1
825.5138	621.9327	8314.4	7478.4
825.6584	624.0544	8136.4	7303.05
825.803	626.1756	8000.6	7165.3
825.9477	628.2961	7871.2	7035.9
826.0923	630.4159	7807.35	6969.85
826.237	632.5351	7796.95	6961.6
826.3816	634.6537	7788.7	6952.6
826.5263	636.7716	7775.25	6938.3
826.6709	638.8889	7789	6953.65
826.8156	641.0056	7793.4	6954.3
826.9603	643.1216	7777.5	6939.85
827.105	645.237	7770.5	6928.6
827.2497	647.3518	7690.45	6849.75
827.3944	649.4659	7634.9	6798.05
827.5391	651.5793	7601.45	6761.2
827.6838	653.6922	7553.05	6714.75
827.8285	655.8043	7537.65	6697.7
827.9733	657.9159	7544.6	6704.75
828.118	660.0268	7533.55	6690.25
828.2627	662.137	7516.65	6673.9
828.4075	664.2466	7505.2	6663.05
828.5522	666.3556	7510.6	6669.25
828.697	668.4639	7477.7	6632.65
828.8418	670.5716	7458.9	6617.3
828.9865	672.6786	7403.3	6556.85
829.1313	674.785	7359.4	6514.35
829.2761	676.8907	7326.6	6483.55
829.4209	678.9958	7336.25	6491.15
829.5657	681.1002	7313.9	6468.6
829.7105	683.204	7298.2	6448.15
829.8553	685.3072	7296.55	6452.95
830.0001	687.4097	7264.3	6417.6
830.1449	689.5115	7234.45	6386.85
830.2898	691.6127	7234.85	6389.35
830.4346	693.7132	7245.1	6396.65
830.5794	695.8131	7236.8	6376.7
830.7243	697.9123	7245	6396.9
830.8691	700.0109	7281.15	6435.1
831.014	702.1089	7305.95	6458.5
831.1588	704.2061	7334	6485.3
831.3037	706.3028	7391.8	6541.95
831.4486	708.3987	7423.6	6573.55
831.5935	710.4941	7412.6	6564.6
831.7383	712.5887	7449.35	6598.85
831.8832	714.6827	7516.65	6663.85
832.0281	716.7761	7579.8	6730.6
832.173	718.8688	7689.8	6839.35
832.3179	720.9608	7794.35	6940.05
832.4628	723.0522	7893.2	7039.5
832.6077	725.1429	7931.9	7080
832.7527	727.233	7984.95	7135.55
832.8976	729.3224	8067.75	7214.65
833.0425	731.4112	8019.35	7165.95
833.1874	733.4993	7914.45	7059.85
833.3324	735.5867	7743.1	6888.45
833.4773	737.6735	7566.55	6713.2
833.6222	739.7596	7427.1	6572.65
833.7672	741.845	7305.45	6452.3
833.9122	743.9298	7252.6	6397.75
834.0571	746.014	7215.95	6362.05
834.2021	748.0974	7203.5	6348.25
834.347	750.1802	7198.55	6345.15
834.492	752.2624	7192.7	6339.1
834.637	754.3439	7227.85	6371.3
834.782	756.4247	7291.8	6429.2
834.9269	758.5048	7411.05	6555.1
835.0719	760.5843	7588.65	6733.3
835.2169	762.6631	7832.05	6976.95
835.3619	764.7413	8254.55	7398.7
835.5069	766.8188	8753.15	7895.65
835.6519	768.8956	9201.65	8345.05
835.7969	770.9718	9522.55	8665.4
835.9419	773.0473	9521.9	8666.7
836.0869	775.1221	9348.95	8492.35
836.232	777.1962	9143.5	8286.45
836.377	779.2697	9124.35	8266.05
836.522	781.3426	9186.3	8321.3
836.667	783.4147	9287.25	8428.85
836.8121	785.4862	9325.5	8469.6
836.9571	787.557	9175.9	8317.25
837.1021	789.6271	8853.4	7994.7
837.2472	791.6966	8366.05	7507.6
837.3922	793.7654	7907.45	7048.15
837.5373	795.8335	7560.1	6702.6
837.6823	797.901	7312.4	6455
837.8274	799.9678	7200.55	6340.25
837.9724	802.0339	7120.7	6262.85
838.1175	804.0993	7106.45	6237.55
838.2626	806.1641	7031.25	6170.4
838.4076	808.2282	7002.55	6143.05
838.5527	810.2916	6930.75	6067.25
838.6978	812.3544	6863.65	6004.35
838.8428	814.4164	6826.15	5967.1
838.9879	816.4778	6843.75	5984.55
839.133	818.5385	6857.8	5997.75
839.2781	820.5986	6947.75	6088.15
839.4232	822.658	7128.2	6268.3
839.5682	824.7166	7349.3	6488.7
839.7133	826.7747	7724.45	6864.85
839.8584	828.832	8128.8	7268.55
840.0035	830.8886	8449.2	7587.45
840.1486	832.9446	8626.5	7763.8
840.2937	834.9999	8546.6	7686.25
840.4388	837.0545	8320.8	7457.55
840.5839	839.1085	8025.1	7164.4
840.729	841.1618	7783.6	6918.05
840.8741	843.2143	7591.05	6728.7
841.0192	845.2662	7411.35	6548.4
841.1643	847.3175	7300.9	6439
841.3095	849.368	7222.1	6358.15
841.4546	851.4179	7164.65	6305.15
841.5997	853.467	7084	6221.4
841.7448	855.5155	7038.3	6172.8
841.8899	857.5633	6981.5	6118.15
842.0351	859.6105	6920.7	6059.35
842.1802	861.6569	6869	6005.45
842.3253	863.7027	6782.85	5920.15
842.4704	865.7478	6748.7	5884.3
842.6156	867.7922	6706.25	5840.25
842.7607	869.8359	6701	5836.35
842.9058	871.8789	6719.75	5853.2
843.0509	873.9212	6786.1	5887.25
843.1961	875.9629	6795.75	5930.45
843.3412	878.0039	6892.65	6025.65
843.4863	880.0441	6932.45	6069.95
843.6315	882.0837	6988.3	6124.55
843.7766	884.1226	7001	6134.5
843.9218	886.1609	7060.45	6196.3
844.0669	888.1984	7135.95	6269.35
844.212	890.2352	7262.25	6397.4
844.3572	892.2714	7303.25	6433.45
844.5023	894.3069	7260.05	6393.7
844.6475	896.3416	7136.05	6270.45
844.7926	898.3757	7000.65	6134.3
844.9377	900.4091	6910.2	6044.5
845.0829	902.4418	6900.2	6029.7
845.228	904.4739	6930.95	6063
845.3732	906.5052	6958.75	6091.6
845.5183	908.5358	6944.15	6077.3
845.6635	910.5658	6868.5	5999.85
845.8086	912.595	6698.95	5832.25
845.9538	914.6236	6537.35	5670.2
846.0989	916.6515	6429.65	5564.6
846.2441	918.6786	6364	5494.1
846.3892	920.7051	6334.2	5465.15
846.5344	922.7309	6363.6	5496.6
846.6795	924.756	6347	5478.3
846.8246	926.7804	6416.9	5548.5
846.9698	928.8041	6440.95	5570.65
847.1149	930.8272	6471.95	5603.6
847.2601	932.8495	6456.95	5587.3
847.4052	934.8711	6458.85	5591
847.5504	936.892	6409.15	5541.3
847.6955	938.9123	6419.15	5551.7
847.8407	940.9318	6442.4	5572.95
847.9858	942.9506	6447.95	5576.8
848.131	944.9688	6414.75	5543.3
848.2761	946.9862	6333.55	5464
848.4213	949.003	6239.5	5370.95
848.5664	951.019	6158.35	5290.7
848.7115	953.0344	6093.7	5224.15
848.8567	955.0491	6085.65	5214.6
849.0018	957.063	6096.3	5228.4
849.147	959.0763	6144.7	5276.35
849.2921	961.0888	6173.5	5300
849.4373	963.1007	6193.8	5322.8
849.5824	965.1119	6204.2	5333.95
849.7275	967.1223	6218.9	5347
849.8727	969.1321	6176.2	5307.6
850.0178	971.1412	6154.95	5283.15
850.1629	973.1495	6156.3	5287.85
850.3081	975.1572	6180.4	5277.7
850.4532	977.1641	6146.05	5275
850.5983	979.1704	6155.15	5283.75
850.7435	981.1759	6135.85	5263.25
850.8886	983.1808	6121.8	5251
851.0337	985.1849	6146.05	5262.7
851.1788	987.1884	6161.25	5288.65
851.324	989.1911	6247.8	5373
851.4691	991.1932	6288.05	5414.55
851.6142	993.1945	6302.3	5431.6
851.7593	995.1951	6292.85	5421.5
851.9045	997.1951	6294.2	5418.05
852.0496	999.1943	6233.4	5363.75
852.1947	1001.1928	6243.45	5371.75
852.3398	1003.1906	6273.55	5399.1
852.4849	1005.1877	6371.5	5498.4
852.63	1007.1841	6430.9	5557.7
852.7751	1009.1798	6471.6	5600
852.9202	1011.1748	6402.75	5531.6
853.0653	1013.1691	6310	5436.85
853.2104	1015.1627	6158.45	5285.85
853.3555	1017.1556	6017	5145.1
853.5006	1019.1477	5921.7	5048.55
853.6457	1021.1392	5821.5	4950.6
853.7908	1023.1299	5797.65	4923.85
853.9359	1025.12	5802.9	4926.85
854.081	1027.1093	5848.25	4977.65
854.2261	1029.0979	5943.3	5072.4
854.3712	1031.0859	6029.55	5154.4
854.5163	1033.0731	6060.15	5185.5
854.6613	1035.0596	6038.05	5165.6
854.8064	1037.0454	5954.7	5081.65
854.9515	1039.0304	5887.6	5014.15
855.0965	1041.0148	5788.55	4914.45
855.2416	1042.9985	5714	4838.9
855.3867	1044.9814	5661.15	4787.45
855.5317	1046.9636	5622	4746.4
855.6768	1048.9452	5603.3	4730.45
855.8219	1050.926	5646.95	4773.1
855.9669	1052.9061	5678.95	4804.85
856.112	1054.8855	5698.8	4825.6
856.257	1056.8642	5746.55	4873.85
856.4021	1058.8421	5754.3	4875.3
856.5471	1060.8194	5768.95	4894.5
856.6921	1062.7959	5782.5	4909.35
856.8372	1064.7717	5823.75	4949.45
856.9822	1066.7469	5900.65	5027.05
857.1272	1068.7213	5939.15	5062.3
857.2723	1070.695	6012.15	5139.7
857.4173	1072.6679	6038.3	5162.6
857.5623	1074.6402	6064.2	5191.2
857.7073	1076.6117	6058.75	5177.55
857.8523	1078.5826	5960.3	5086.15
857.9973	1080.5527	5880.55	5002.75
858.1423	1082.5221	5795.2	4919.9
858.2873	1084.4908	5744.2	4869.35
858.4323	1086.4587	5757.15	4882.35
858.5773	1088.426	5750.15	4876
858.7223	1090.3925	5755.9	4876.55
858.8673	1092.3584	5773.4	4900.15
859.0123	1094.3235	5803.75	4930
859.1573	1096.2879	5839.4	4964.45
859.3022	1098.2515	5957.7	5081.35
859.4472	1100.2145	6078.8	5204.85
859.5922	1102.1767	6202.1	5325.7
859.7371	1104.1382	6391.65	5517.7
859.8821	1106.099	6563.4	5685.5
860.027	1108.0591	6732.6	5857.65
860.172	1110.0185	6863.9	5986.8
860.3169	1111.9771	6945.5	6070.65
860.4619	1113.9351	6898.75	6022.45
860.6068	1115.8923	6843.3	5966.15
860.7517	1117.8488	6742.25	5864.1
860.8967	1119.8045	6600.85	5725.45
861.0416	1121.7596	6465.9	5589.25
861.1865	1123.7139	6357.05	5481.75
861.3314	1125.6675	6298.75	5423.85
861.4763	1127.6204	6294.3	5419.8
861.6212	1129.5726	6260.3	5384.1
861.7661	1131.524	6221.85	5348.55
861.911	1133.4748	6141.85	5266.35
862.0559	1135.4248	5999.55	5120.85
862.2008	1137.3741	5859.75	4983.05
862.3457	1139.3226	5764.15	4885.15
862.4905	1141.2705	5724.45	4848.9
862.6354	1143.2176	5667.75	4783.7
862.7803	1145.164	5627.95	4749.25
862.9251	1147.1097	5595.9	4718.9
863.07	1149.0546	5529.3	4651.3
863.2148	1150.9989	5432.35	4555.3
863.3597	1152.9424	5351.25	4476.75
863.5045	1154.8852	5283.4	4405.2
863.6493	1156.8272	5244.7	4368.5
863.7942	1158.7686	5245.8	4360.6
863.939	1160.7092	5268.45	4392.05
864.0838	1162.6491	5295.25	4414.65
864.2286	1164.5883	5363.65	4485.5
864.3734	1166.5267	5447.3	4569.5
864.5182	1168.4644	5570.45	4694.2
864.663	1170.4014	5719.25	4838.6
864.8078	1172.3377	5872.5	4996.5
864.9526	1174.2732	6085.2	5209.45
865.0974	1176.2081	6394.65	5519
865.2421	1178.1421	6772.25	5889.4
865.3869	1180.0755	7195.9	6319.4
865.5317	1182.0082	7490.35	6611.45
865.6764	1183.9401	7635.1	6755.95
865.8212	1185.8713	7551.05	6672.4
865.9659	1187.8017	7257.25	6380.25
866.1106	1189.7315	6960.35	6083.35
866.2554	1191.6605	6648.5	5743.8
866.4001	1193.5888	6388.4	5511.45
866.5448	1195.5163	6274.15	5396.6
866.6895	1197.4432	6168.65	5289.2
866.8342	1199.3693	6119.25	5241.55
866.9789	1201.2947	6091.3	5208.45
867.1236	1203.2193	6060.85	5183.95
867.2683	1205.1432	6071.2	5191.05
867.413	1207.0664	6045.1	5167.6
867.5576	1208.9889	6043	5160.9
867.7023	1210.9106	6021.5	5144.3
867.847	1212.8316	6033.35	5156.1
867.9916	1214.7519	6076.3	5189.55
868.1363	1216.6715	6115.35	5235.9
868.2809	1218.5903	6134.95	5258
868.4255	1220.5084	6201.5	5324.2
868.5701	1222.4257	6289.95	5411.2
868.7148	1224.3424	6316.55	5439.5
868.8594	1226.2583	6434.55	5552.3
869.004	1228.1735	6559.55	5679.45
869.1486	1230.0879	6673.9	5793.9
