Software Version:	3.9.2.0
Unit SN:	10000200
Spectrometer SN:	6960
Date:	3/14/2024 1:57:35 PM
Data Line Index:	25
Spectral Points:	2048
Integration time (ms):	125
Averages:	20
Delay (ms):	30000
Sequence Number:	1
Processing:	dark subtract
Laser Power (mW):	305
Laser Current (mA):	825
Laser Diode Temp (C):	25.1
Laser Case Temp (C):	29
System Temp (C):	29
Spectrometer Temp (C):	26.8
CCD Temp (C):	-0.003
Secondary Temp (C):	20.028
Heatsink Temp (C):	24.854
CCDPCB Temp (C):	38.363
SecondaryPCB Temp (C):	35.818

Wavelength	RamanShift	Raw Counts	Dark Subtracted
787.061	30.1047	460.95	52.35
787.2016	32.3739	462.2	56.5
787.3422	34.6426	470.1	61.55
787.4828	36.9109	476.55	66.15
787.6235	39.1787	481.85	67.85
787.7642	41.4461	492.9	74.8
787.9049	43.7131	503.2	82.85
788.0456	45.9796	509.5	82.45
788.1863	48.2456	520.65	91.05
788.3271	50.5112	526.15	91.45
788.4679	52.7764	538.7	102.35
788.6087	55.0411	547.45	110
788.7496	57.3054	559.8	114.45
788.8904	59.5692	569.95	122.2
789.0313	61.8326	579.6	126.55
789.1722	64.0955	590.6	130.25
789.3132	66.3579	612.55	148.65
789.4541	68.6199	628.9	164.65
789.5951	70.8815	661.45	194.65
789.7361	73.1426	732.95	261.4
789.8771	75.4032	921.85	444.8
790.0181	77.6634	1389.95	906.55
790.1592	79.9231	2504.7	2015.5
790.3003	82.1824	4938.9	4441.3
790.4414	84.4412	9461.2	8943.95
790.5825	86.6995	15825.5	15287.1
790.7237	88.9574	22244.4	21681
790.8648	91.2148	26842.2	26261.1
791.006	93.4717	29117.4	28532.6
791.1472	95.7282	29772.5	29182.55
791.2885	97.9842	29804.6	29213.6
791.4297	100.2398	29412.95	28814.85
791.571	102.4949	28911.2	28310.15
791.7123	104.7495	28191.95	27588.05
791.8536	107.0036	27449	26843.45
791.9949	109.2573	26716.7	26108.35
792.1363	111.5105	25967.6	25362.8
792.2777	113.7632	25225.35	24617.05
792.4191	116.0154	24607.8	23992.1
792.5605	118.2672	24151.3	23539.45
792.7019	120.5185	23637.65	23026.05
792.8434	122.7693	23266.5	22649.1
792.9849	125.0197	22965.3	22346.05
793.1264	127.2696	22655.25	22034.55
793.2679	129.519	22541.65	21919.8
793.4094	131.7679	22373.8	21748.1
793.551	134.0163	22261.8	21629.3
793.6926	136.2642	22145.75	21513.45
793.8342	138.5117	21936.7	21291.35
793.9758	140.7587	21742.05	21104.25
794.1175	143.0052	21615.85	20973.5
794.2591	145.2512	21409.45	20768.55
794.4008	147.4967	21170.05	20529.45
794.5425	149.7417	21025.8	20382.35
794.6842	151.9863	20883.1	20233.8
794.826	154.2304	20856.35	20207.05
794.9677	156.4739	20699.05	20041.35
795.1095	158.717	20669.3	20015.25
795.2513	160.9596	20497.4	19836.65
795.3931	163.2017	20238.05	19578.7
795.535	165.4433	19970.9	19304.95
795.6768	167.6844	19644.25	18979.3
795.8187	169.925	19325	18656.95
795.9606	172.1651	18892.4	18217.3
796.1025	174.4047	18645.75	17969.9
796.2445	176.6439	18357.3	17680.5
796.3864	178.8825	18124.5	17444.7
796.5284	181.1206	17949.05	17268
796.6704	183.3582	17733.45	17044.75
796.8124	185.5954	17621	16930.6
796.9544	187.832	17541.15	16851.35
797.0965	190.0681	17456.25	16765.15
797.2386	192.3037	17439.1	16742.2
797.3806	194.5388	17442.45	16743.7
797.5228	196.7734	17469.1	16767.9
797.6649	199.0075	17524.2	16822.05
797.807	201.2411	17666.8	16960
797.9492	203.4742	17654.35	16946.6
798.0914	205.7068	17802.7	17092.3
798.2336	207.9389	17898.7	17190.75
798.3758	210.1704	18052.5	17340.9
798.518	212.4015	18109.8	17391.55
798.6603	214.632	18331.4	17617.85
798.8025	216.862	18455.05	17745.35
798.9448	219.0915	18658.3	17954.65
799.0871	221.3205	18874.4	18173.55
799.2294	223.549	19120.85	18426
799.3718	225.777	19471.95	18780.05
799.5141	228.0044	19878.65	19186.7
799.6565	230.2314	20375.55	19682.5
799.7989	232.4578	20843.6	20151.85
799.9413	234.6837	21210.9	20507.3
800.0837	236.909	21461.8	20757.65
800.2262	239.1339	21414.55	20687.25
800.3687	241.3582	21112.2	20400.6
800.5111	243.582	20705.75	19960.9
800.6536	245.8053	20289.65	19559.2
800.7961	248.0281	19951.35	19224.55
800.9387	250.2503	19612.4	18880.45
801.0812	252.472	19424.1	18691.3
801.2238	254.6932	19330.25	18594.3
801.3664	256.9139	19183.75	18440.75
801.509	259.134	19109.7	18365
801.6516	261.3536	19035.85	18295.7
801.7942	263.5727	18998.9	18257.15
801.9369	265.7912	18887.15	18145.9
802.0795	268.0092	18860.55	18117.35
802.2222	270.2267	18738.75	17996.8
802.3649	272.4436	18658.3	17913.4
802.5076	274.6601	18610.25	17856.15
802.6504	276.8759	18549.6	17801.85
802.7931	279.0913	18546.3	17797.1
802.9359	281.3061	18521.75	17770.55
803.0787	283.5204	18637.3	17886.05
803.2215	285.7341	18698.3	17943.8
803.3643	287.9473	18883.3	18116.3
803.5071	290.16	19172.3	18409.7
803.6499	292.3721	19453.6	18695
803.7928	294.5837	19896.45	19137.65
803.9357	296.7947	20282.95	19522.3
804.0786	299.0052	20479.75	19720.85
804.2215	301.2152	20270	19507.95
804.3644	303.4246	19878.35	19120.1
804.5074	305.6334	19302.7	18544.35
804.6503	307.8418	18764.3	18001.7
804.7933	310.0495	18320.1	17559.25
804.9363	312.2568	18038.15	17278.65
805.0793	314.4635	17811.55	17047.65
805.2223	316.6696	17737.1	16971.4
805.3653	318.8752	17712.8	16940.25
805.5084	321.0802	17765.35	17001.7
805.6514	323.2847	17890.6	17124
805.7945	325.4887	17953.95	17185.45
805.9376	327.692	17879.85	17113.15
806.0807	329.8949	17749.25	16982.3
806.2238	332.0972	17454.5	16682.65
806.367	334.2989	17188.2	16413.35
806.5101	336.5001	16873.05	16100.75
806.6533	338.7007	16680.85	15904.7
806.7965	340.9008	16520.6	15743.95
806.9397	343.1003	16443.45	15664.3
807.0829	345.2992	16380.9	15602.25
807.2261	347.4976	16344.8	15565.75
807.3693	349.6955	16294.7	15513.6
807.5126	351.8927	16432.2	15646.55
807.6559	354.0895	16363.7	15572.6
807.7991	356.2856	16410.9	15623.75
807.9424	358.4812	16396.65	15608.25
808.0857	360.6763	16407.35	15618
808.2291	362.8707	16377.65	15589.55
808.3724	365.0646	16404.25	15612.75
808.5158	367.258	16402.75	15613
808.6591	369.4508	16402.55	15609.55
808.8025	371.643	16455.7	15661.45
808.9459	373.8346	16394.05	15599.05
809.0893	376.0257	16331.45	15531.35
809.2327	378.2162	16214	15413.6
809.3762	380.4062	16113.1	15311
809.5196	382.5956	15963.45	15157.9
809.6631	384.7844	15847.3	15043.35
809.8066	386.9726	15727.5	14924.4
809.9501	389.1603	15680.65	14878.45
810.0936	391.3474	15657.15	14818.1
810.2371	393.5339	15583.85	14777.45
810.3806	395.7199	15522.65	14722.85
810.5241	397.9052	15526.5	14732.35
810.6677	400.09	15513.2	14716.2
810.8113	402.2743	15556.75	14758.65
810.9548	404.4579	15581.25	14788.9
811.0984	406.641	15731.5	14933.9
811.2421	408.8235	15935.3	15141.7
811.3857	411.0054	16265.5	15473
811.5293	413.1868	16710.75	15913.9
811.673	415.3675	17115.9	16316
811.8166	417.5477	17319.3	16522.05
811.9603	419.7273	17355.85	16557.2
812.104	421.9064	17226.15	16418.6
812.2477	424.0848	17053.95	16249.95
812.3914	426.2627	16814.6	16006.9
812.5351	428.4399	16500.4	15688.25
812.6788	430.6166	16147	15334.1
812.8226	432.7928	15741.2	14925.1
812.9663	434.9683	15433.15	14618.35
813.1101	437.1432	15214.55	14397.85
813.2539	439.3176	15026.25	14210.55
813.3977	441.4914	14903.7	14084.7
813.5415	443.6645	14876.25	14055.8
813.6853	445.8371	14809.5	13989.5
813.8291	448.0091	14728.35	13912.75
813.973	450.1806	14670.75	13851.8
814.1168	452.3514	14577.3	13757.2
814.2607	454.5216	14572.5	13743.6
814.4046	456.6913	14469.85	13648
814.5485	458.8603	14479.45	13657.6
814.6924	461.0288	14539.95	13720.3
814.8363	463.1967	14554.45	13732.4
814.9802	465.3639	14692.05	13869.35
815.1241	467.5306	14795.35	13968.9
815.2681	469.6967	14964	14141.05
815.412	471.8622	15105.95	14281.4
815.556	474.0271	15272.65	14449.05
815.7	476.1914	15343.3	14514.45
815.844	478.3551	15288	14463.35
815.988	480.5182	15205.45	14381
816.132	482.6807	15181.25	14356.75
816.276	484.8426	15252.05	14425.85
816.4201	487.0039	15497.7	14672.7
816.5641	489.1647	15900.3	15071.7
816.7082	491.3248	16278.4	15451.8
816.8522	493.4843	16505.25	15677.25
816.9963	495.6432	16495.3	15665.85
817.1404	497.8015	16395.1	15561.35
817.2845	499.9592	16419.45	15591.2
817.4286	502.1163	16368	15539.35
817.5727	504.2728	16156.15	15324.1
817.7168	506.4287	15835.55	15007.1
817.861	508.5839	15398.55	14567.1
818.0051	510.7386	15041.1	14210.3
818.1493	512.8927	14819.75	13977.5
818.2935	515.0461	14668	13836.4
818.4377	517.199	14562.2	13728.4
818.5818	519.3512	14500.45	13669.85
818.726	521.5029	14522.85	13682.5
818.8703	523.6539	14520.6	13684.55
819.0145	525.8043	14533.55	13698.9
819.1587	527.9541	14584.5	13746.8
819.303	530.1033	14565.5	13728.75
819.4472	532.2519	14645.05	13810.45
819.5915	534.3999	14785.6	13945.55
819.7357	536.5472	15099.8	14259.95
819.88	538.694	15593.85	14755.05
820.0243	540.8401	16234.85	15394.85
820.1686	542.9856	16743.15	15902.15
820.3129	545.1305	16908.35	16065.3
820.4572	547.2748	16748.6	15906.9
820.6016	549.4185	16319.8	15475
820.7459	551.5615	15899.35	15057.5
820.8902	553.704	15706.9	14860.8
821.0346	555.8458	15571.95	14727.7
821.1789	557.987	15556.9	14713.95
821.3233	560.1276	15432.7	14585.25
821.4677	562.2675	15373.4	14530.65
821.6121	564.4069	15253.95	14412.95
821.7565	566.5456	15156.95	14314.95
821.9009	568.6837	15033.7	14190.45
822.0453	570.8212	14774	13933.65
822.1897	572.958	14524.85	13679.55
822.3342	575.0942	14332.35	13492.65
822.4786	577.2299	14205.9	13358.8
822.6231	579.3648	14198.15	13353.95
822.7675	581.4992	14268.5	13424.95
822.912	583.6329	14493.75	13654.95
823.0565	585.766	14716.55	13874.1
823.201	587.8985	14827.35	13987.75
823.3454	590.0304	14807	13938.5
823.4899	592.1616	14739.15	13892.9
823.6345	594.2922	14629.9	13785.3
823.779	596.4222	14470.8	13626.8
823.9235	598.5515	14300.95	13451.7
824.068	600.6802	14126.6	13281.05
824.2126	602.8083	13958.35	13113.75
824.3571	604.9358	13863.45	13015.2
824.5017	607.0626	13769.2	12921.2
824.6462	609.1888	13697	12846.8
824.7908	611.3144	13563	12712.85
824.9354	613.4393	13394.15	12542.55
825.08	615.5636	13246.55	12397.25
825.2246	617.6873	13124.5	12276.8
825.3692	619.8103	13048.9	12198.2
825.5138	621.9327	12991.75	12138.85
825.6584	624.0544	12975.2	12126.8
825.803	626.1756	12953.9	12104.8
825.9477	628.2961	12926.2	12076.15
826.0923	630.4159	12864.8	12015.85
826.237	632.5351	12805	11952.45
826.3816	634.6537	12741.4	11892
826.5263	636.7716	12721.9	11867.65
826.6709	638.8889	12665.6	11813.4
826.8156	641.0056	12702.8	11849.8
826.9603	643.1216	12676.35	11825.75
827.105	645.237	12733	11878.75
827.2497	647.3518	12702.95	11848.75
827.3944	649.4659	12715	11862.6
827.5391	651.5793	12684.75	11831.8
827.6838	653.6922	12684.05	11829.35
827.8285	655.8043	12670.55	11817.05
827.9733	657.9159	12619.2	11762.55
828.118	660.0268	12521.45	11667.05
828.2627	662.137	12448.65	11592.4
828.4075	664.2466	12375.65	11519.3
828.5522	666.3556	12354.85	11500.05
828.697	668.4639	12354.35	11496.85
828.8418	670.5716	12405.65	11550.35
828.9865	672.6786	12490.05	11635.9
829.1313	674.785	12533.45	11676.35
829.2761	676.8907	12618.15	11763.45
829.4209	678.9958	12673.9	11817.55
829.5657	681.1002	12652.9	11793.05
829.7105	683.204	12635.6	11774.4
829.8553	685.3072	12541.1	11681.75
830.0001	687.4097	12449.2	11589.6
830.1449	689.5115	12368.45	11507.4
830.2898	691.6127	12297.7	11441
830.4346	693.7132	12225.65	11364.35
830.5794	695.8131	12188.35	11305.7
830.7243	697.9123	12118.9	11258.5
830.8691	700.0109	12061.15	11201.15
831.014	702.1089	12009.05	11148.6
831.1588	704.2061	12035.55	11175
831.3037	706.3028	12044.05	11179.6
831.4486	708.3987	12053.7	11195
831.5935	710.4941	12146.5	11285.2
831.7383	712.5887	12331.95	11469.85
831.8832	714.6827	12628.1	11762.1
832.0281	716.7761	12988.6	12125.7
832.173	718.8688	13346.7	12486.1
832.3179	720.9608	13534.4	12668.6
832.4628	723.0522	13585.4	12720.1
832.6077	725.1429	13294.3	12433.75
832.7527	727.233	12939.55	12074.75
832.8976	729.3224	12608.1	11745.1
833.0425	731.4112	12287.2	11422.2
833.1874	733.4993	12070.55	11205.3
833.3324	735.5867	11935.2	11067.4
833.4773	737.6735	11838.8	10970.65
833.6222	739.7596	11768.1	10902.35
833.7672	741.845	11718.05	10852.95
833.9122	743.9298	11690.4	10821.45
834.0571	746.014	11689.05	10824.65
834.2021	748.0974	11700.05	10833.6
834.347	750.1802	11674.6	10807.85
834.492	752.2624	11700.45	10836.8
834.637	754.3439	11675.3	10811.05
834.782	756.4247	11739.05	10864.2
834.9269	758.5048	11799.35	10934.8
835.0719	760.5843	11995.4	11130.6
835.2169	762.6631	12232.25	11364.5
835.3619	764.7413	12681.95	11815.85
835.5069	766.8188	13226.4	12359.7
835.6519	768.8956	13644.1	12773.9
835.7969	770.9718	13950.55	13082.45
835.9419	773.0473	13803.65	12938.1
836.0869	775.1221	13458.05	12594.1
836.232	777.1962	13041.85	12172.45
836.377	779.2697	12878.7	12011.05
836.522	781.3426	12920.8	12036.35
836.667	783.4147	13192.15	12324.05
836.8121	785.4862	13503.95	12639.45
836.9571	787.557	13528.3	12661.6
837.1021	789.6271	13172.85	12303.8
837.2472	791.6966	12592.3	11723.35
837.3922	793.7654	12087.3	11219.4
837.5373	795.8335	11782.8	10914.3
837.6823	797.901	11598.25	10730.4
837.8274	799.9678	11533.1	10660.95
837.9724	802.0339	11524.7	10657.25
838.1175	804.0993	11579.55	10699.9
838.2626	806.1641	11568.8	10700.8
838.4076	808.2282	11491.1	10621.15
838.5527	810.2916	11401.95	10531
838.6978	812.3544	11272.15	10402.6
838.8428	814.4164	11176.05	10307.15
838.9879	816.4778	11184.5	10315.4
839.133	818.5385	11140.05	10272.3
839.2781	820.5986	11175.2	10307.6
839.4232	822.658	11235.15	10363.7
839.5682	824.7166	11266.35	10395.35
839.7133	826.7747	11415.45	10549.8
839.8584	828.832	11527	10657.45
840.0035	830.8886	11610.7	10738.2
840.1486	832.9446	11746.05	10873.9
840.2937	834.9999	11809.35	10940.3
840.4388	837.0545	11873.65	10999.4
840.5839	839.1085	11876.7	11004.45
840.729	841.1618	11886.2	11009.8
840.8741	843.2143	11862.3	10993.85
841.0192	845.2662	11779.75	10907.7
841.1643	847.3175	11701.7	10832.95
841.3095	849.368	11585.1	10712.9
841.4546	851.4179	11463.6	10591.25
841.5997	853.467	11321.4	10449.95
841.7448	855.5155	11198.35	10325.7
841.8899	857.5633	11106.9	10233.8
842.0351	859.6105	10980.1	10108.2
842.1802	861.6569	10901	10030.05
842.3253	863.7027	10816.95	9944.75
842.4704	865.7478	10784.4	9911.2
842.6156	867.7922	10801.25	9929.4
842.7607	869.8359	10846.15	9973.75
842.9058	871.8789	10948.15	10071.4
843.0509	873.9212	11123.6	10217.55
843.1961	875.9629	11243.45	10371.9
843.3412	878.0039	11412.6	10538.25
843.4863	880.0441	11528.1	10656
843.6315	882.0837	11508.5	10633.85
843.7766	884.1226	11395.95	10517.9
843.9218	886.1609	11217.5	10345.9
844.0669	888.1984	11093.25	10220.75
844.212	890.2352	11051.5	10180.7
844.3572	892.2714	10958.5	10082.25
844.5023	894.3069	10929.9	10053.6
844.6475	896.3416	10845.1	9971.65
844.7926	898.3757	10803.95	9929.75
844.9377	900.4091	10800.35	9926.4
845.0829	902.4418	10826.1	9950.1
845.228	904.4739	10827.2	9949.9
845.3732	906.5052	10788.45	9913.85
845.5183	908.5358	10685.3	9809.7
845.6635	910.5658	10522.5	9646.15
845.8086	912.595	10359.2	9482.75
845.9538	914.6236	10230.95	9358.7
846.0989	916.6515	10173.3	9299.1
846.2441	918.6786	10179.2	9303.3
846.3892	920.7051	10246.8	9373.25
846.5344	922.7309	10314.9	9438.3
846.6795	924.756	10375.45	9498.7
846.8246	926.7804	10458.75	9579.9
846.9698	928.8041	10407.6	9529.5
847.1149	930.8272	10448.95	9573.25
847.2601	932.8495	10380.9	9502.2
847.4052	934.8711	10279.7	9401.9
847.5504	936.892	10125.8	9250.55
847.6955	938.9123	9970.05	9092.3
847.8407	940.9318	9807.35	8932.65
847.9858	942.9506	9689.8	8811.75
848.131	944.9688	9611.1	8735.6
848.2761	946.9862	9565.25	8691.4
848.4213	949.003	9476.15	8599.9
848.5664	951.019	9502.25	8625.65
848.7115	953.0344	9492.85	8615.9
848.8567	955.0491	9545.3	8666.7
849.0018	957.063	9594.6	8717.35
849.147	959.0763	9683.55	8807.15
849.2921	961.0888	9724.95	8846.5
849.4373	963.1007	9788.85	8911.55
849.5824	965.1119	9830.05	8952.15
849.7275	967.1223	9852.9	8973.4
849.8727	969.1321	9898.15	9021.25
850.0178	971.1412	9908.15	9031.85
850.1629	973.1495	9929.05	9053.55
850.3081	975.1572	9973.5	9059.4
850.4532	977.1641	9982.8	9105
850.5983	979.1704	9923.95	9046.5
850.7435	981.1759	9920.8	9039.85
850.8886	983.1808	9977.85	9099.8
851.0337	985.1849	10065	9178
851.1788	987.1884	10232.3	9352.75
851.324	989.1911	10417.8	9537.65
851.4691	991.1932	10544.4	9664.5
851.6142	993.1945	10567.15	9687.3
851.7593	995.1951	10541.8	9663.25
851.9045	997.1951	10504.35	9620.1
852.0496	999.1943	10407.75	9530.15
852.1947	1001.1928	10350.35	9471.95
852.3398	1003.1906	10321.15	9441.9
852.4849	1005.1877	10365.8	9485.05
852.63	1007.1841	10303.95	9424.75
852.7751	1009.1798	10213.95	9333.6
852.9202	1011.1748	10049.75	9170.4
853.0653	1013.1691	9828.4	8948.6
853.2104	1015.1627	9624.05	8746.55
853.3555	1017.1556	9440	8562.25
853.5006	1019.1477	9344.75	8465.5
853.6457	1021.1392	9250.5	8369.8
853.7908	1023.1299	9232.05	8354.75
853.9359	1025.12	9255.75	8373.15
854.081	1027.1093	9321.15	8442.8
854.2261	1029.0979	9391.75	8515.65
854.3712	1031.0859	9428.65	8549.2
854.5163	1033.0731	9458.85	8580.95
854.6613	1035.0596	9332.1	8452.4
854.8064	1037.0454	9188.8	8310.6
854.9515	1039.0304	9094.1	8214.1
855.0965	1041.0148	8930.4	8050.75
855.2416	1042.9985	8855.35	7975.75
855.3867	1044.9814	8816.3	7937.3
855.5317	1046.9636	8759.3	7879.8
855.6768	1048.9452	8718.5	7839.5
855.8219	1050.926	8720.45	7842.4
855.9669	1052.9061	8701.45	7823
856.112	1054.8855	8685.75	7804.95
856.257	1056.8642	8720.65	7840.85
856.4021	1058.8421	8760.05	7879.35
856.5471	1060.8194	8780.35	7904.3
856.6921	1062.7959	8812.5	7933.5
856.8372	1064.7717	8808.8	7928.55
856.9822	1066.7469	8789.55	7906.7
857.1272	1068.7213	8772.45	7892.15
857.2723	1070.695	8733.85	7852.7
857.4173	1072.6679	8664.05	7784.6
857.5623	1074.6402	8587.9	7708.4
857.7073	1076.6117	8581.95	7699
857.8523	1078.5826	8611.1	7730.9
857.9973	1080.5527	8650.9	7767.35
858.1423	1082.5221	8789.55	7910.75
858.2873	1084.4908	8979.9	8099.7
858.4323	1086.4587	9203.4	8320
858.5773	1088.426	9335.95	8453.25
858.7223	1090.3925	9322.35	8435.15
858.8673	1092.3584	9259.05	8381.05
859.0123	1094.3235	9106.9	8228.45
859.1573	1096.2879	8988.8	8110.1
859.3022	1098.2515	8970.5	8088.4
859.4472	1100.2145	8966.35	8086.3
859.5922	1102.1767	9046	8164.15
859.7371	1104.1382	9180.75	8301.05
859.8821	1106.099	9370.3	8489.5
860.027	1108.0591	9569.3	8687.85
860.172	1110.0185	9712.3	8829.55
860.3169	1111.9771	9697.55	8817.45
860.4619	1113.9351	9484.9	8604.2
860.6068	1115.8923	9154.3	8271.55
860.7517	1117.8488	8832.55	7948.25
860.8967	1119.8045	8558.85	7681.2
861.0416	1121.7596	8407.3	7526.35
861.1865	1123.7139	8324.5	7442.9
861.3314	1125.6675	8366.25	7484.5
861.4763	1127.6204	8409.4	7530.2
861.6212	1129.5726	8429.15	7546.1
861.7661	1131.524	8426	7544.7
861.911	1133.4748	8462.05	7581.65
862.0559	1135.4248	8474.15	7592.25
862.2008	1137.3741	8489.3	7609.05
862.3457	1139.3226	8445.1	7563.65
862.4905	1141.2705	8418.2	7538.75
862.6354	1143.2176	8342.35	7455.6
862.7803	1145.164	8336.9	7452.8
862.9251	1147.1097	8376.05	7494.4
863.07	1149.0546	8355.85	7473.55
863.2148	1150.9989	8252.7	7370.3
863.3597	1152.9424	8100.25	7218.6
863.5045	1154.8852	7903.7	7020.6
863.6493	1156.8272	7753.95	6875.65
863.7942	1158.7686	7705.8	6818.95
863.939	1160.7092	7664	6779.15
864.0838	1162.6491	7682.35	6799.7
864.2286	1164.5883	7720.85	6841.5
864.3734	1166.5267	7771.2	6886.6
864.5182	1168.4644	7926.25	7045.45
864.663	1170.4014	8099.3	7212.95
864.8078	1172.3377	8328.45	7448.45
864.9526	1174.2732	8516.8	7632.85
865.0974	1176.2081	8715.1	7833.55
865.2421	1178.1421	8875.65	7992
865.3869	1180.0755	9018.95	8139.95
865.5317	1182.0082	9060.55	8178.65
865.6764	1183.9401	8990.45	8108.3
865.8212	1185.8713	8830.3	7947.75
865.9659	1187.8017	8589.55	7708.7
866.1106	1189.7315	8341	7457.8
866.2554	1191.6605	8102.3	7191.7
866.4001	1193.5888	7887.15	7002.65
866.5448	1195.5163	7791	6909.45
866.6895	1197.4432	7696.8	6813.8
