Software Version:	3.9.2.0
Unit SN:	10000200
Spectrometer SN:	6960
Date:	3/14/2024 1:10:06 PM
Data Line Index:	25
Spectral Points:	2048
Integration time (ms):	125
Averages:	20
Delay (ms):	30000
Sequence Number:	1
Processing:	dark subtract
Laser Power (mW):	305
Laser Current (mA):	823
Laser Diode Temp (C):	25.1
Laser Case Temp (C):	28.1
System Temp (C):	28.1
Spectrometer Temp (C):	26
CCD Temp (C):	0.005
Secondary Temp (C):	20.008
Heatsink Temp (C):	24.028
CCDPCB Temp (C):	36.974
SecondaryPCB Temp (C):	35.24

Wavelength	RamanShift	Raw Counts	Dark Subtracted
787.061	30.1047	434.3	23.8
787.2016	32.3739	432.6	24.6
787.3422	34.6426	438.1	28.25
787.4828	36.9109	440.5	28.9
787.6235	39.1787	446.2	29.8
787.7642	41.4461	452.4	30.05
787.9049	43.7131	457.9	34.15
788.0456	45.9796	465.85	38.15
788.1863	48.2456	472.1	38.85
788.3271	50.5112	481.4	45.2
788.4679	52.7764	483.1	43.65
788.6087	55.0411	489.45	48.45
788.7496	57.3054	500.3	54.2
788.8904	59.5692	504.35	53.5
789.0313	61.8326	513.05	59.1
789.1722	64.0955	520.6	63.1
789.3132	66.3579	534.05	69.65
789.4541	68.6199	545.35	78.15
789.5951	70.8815	564.25	95.75
789.7361	73.1426	608.9	137.4
789.8771	75.4032	711.4	234.7
790.0181	77.6634	979.1	496.15
790.1592	79.9231	1586.4	1100.85
790.3003	82.1824	2902.35	2406.95
790.4414	84.4412	5205.5	4701.75
790.5825	86.6995	8359.6	7837.35
790.7237	88.9574	11474.35	10935.4
790.8648	91.2148	13706.45	13162.9
791.006	93.4717	14755.35	14203
791.1472	95.7282	14974.4	14420.1
791.2885	97.9842	14902.5	14345.3
791.4297	100.2398	14550.75	13990.55
791.571	102.4949	14170.05	13608.75
791.7123	104.7495	13738.8	13170.15
791.8536	107.0036	13314.8	12743.25
791.9949	109.2573	12922.45	12356.3
792.1363	111.5105	12543.3	11972.6
792.2777	113.7632	12222.05	11651.5
792.4191	116.0154	11951.45	11370.75
792.5605	118.2672	11762.95	11186.7
792.7019	120.5185	11564.35	10988.65
792.8434	122.7693	11426.95	10848.7
792.9849	125.0197	11273.7	10693.5
793.1264	127.2696	11147.75	10564.25
793.2679	129.519	11049.75	10462.4
793.4094	131.7679	10969.35	10380.05
793.551	134.0163	10817.85	10226.05
793.6926	136.2642	10669.95	10075.2
793.8342	138.5117	10510.5	9907.85
793.9758	140.7587	10319.9	9719.55
794.1175	143.0052	10187.15	9584.75
794.2591	145.2512	10035.6	9432.95
794.4008	147.4967	9851.95	9247.45
794.5425	149.7417	9735.95	9128.7
794.6842	151.9863	9624	9013.4
794.826	154.2304	9570.05	8954.7
794.9677	156.4739	9511.5	8891.7
795.1095	158.717	9470.4	8852.2
795.2513	160.9596	9403.8	8781.15
795.3931	163.2017	9290.75	8664.35
795.535	165.4433	9164.4	8537.1
795.6768	167.6844	9017.75	8387
795.8187	169.925	8868.4	8237
795.9606	172.1651	8708.65	8068.55
796.1025	174.4047	8578.6	7938.4
796.2445	176.6439	8450.3	7811.3
796.3864	178.8825	8336.7	7693.35
796.5284	181.1206	8279.45	7632.85
796.6704	183.3582	8206.8	7556.65
796.8124	185.5954	8166.1	7510.55
796.9544	187.832	8130.3	7473.4
797.0965	190.0681	8099.3	7440.7
797.2386	192.3037	8111.15	7448.85
797.3806	194.5388	8090.75	7427.95
797.5228	196.7734	8107.1	7441.9
797.6649	199.0075	8147.9	7477.25
797.807	201.2411	8187.25	7514.35
797.9492	203.4742	8212.75	7536.4
798.0914	205.7068	8302.95	7626.8
798.2336	207.9389	8326.95	7650.2
798.3758	210.1704	8417	7739.6
798.518	212.4015	8452.45	7772.15
798.6603	214.632	8510.45	7826.95
798.8025	216.862	8582.05	7905.8
798.9448	219.0915	8602.15	7928.75
799.0871	221.3205	8626.95	7960.15
799.2294	223.549	8680.55	8021
799.3718	225.777	8720.4	8060.55
799.5141	228.0044	8748.5	8084.85
799.6565	230.2314	8786.15	8123.7
799.7989	232.4578	8848.3	8186.3
799.9413	234.6837	8866.05	8194
800.0837	236.909	8929.45	8256.6
800.2262	239.1339	8925.35	8231.5
800.3687	241.3582	8889.25	8209.15
800.5111	243.582	8862.2	8156.35
800.6536	245.8053	8800.85	8104.4
800.7961	248.0281	8769.7	8077
800.9387	250.2503	8761.3	8066.7
801.0812	252.472	8776.75	8074.55
801.2238	254.6932	8838.2	8134.5
801.3664	256.9139	8851.4	8144.4
801.509	259.134	8932	8221.3
801.6516	261.3536	9032.9	8327.55
801.7942	263.5727	9159	8449.4
801.9369	265.7912	9277.85	8568.1
802.0795	268.0092	9412.3	8700.2
802.2222	270.2267	9508.95	8793.5
802.3649	272.4436	9582.3	8869
802.5076	274.6601	9610.75	8889.85
802.6504	276.8759	9584.3	8869.05
802.7931	279.0913	9535.85	8816.05
802.9359	281.3061	9489	8767.7
803.0787	283.5204	9470.75	8752.95
803.2215	285.7341	9471.2	8745.65
803.3643	287.9473	9458.4	8730.85
803.5071	290.16	9491.95	8757.3
803.6499	292.3721	9504.5	8777.4
803.7928	294.5837	9584.45	8853.45
803.9357	296.7947	9656.05	8930.15
804.0786	299.0052	9740.2	9008.95
804.2215	301.2152	9723.15	8988.75
804.3644	303.4246	9637.15	8910.5
804.5074	305.6334	9497.95	8767.45
804.6503	307.8418	9335.45	8603.3
804.7933	310.0495	9136.45	8404.7
804.9363	312.2568	8943.3	8211.7
805.0793	314.4635	8731.5	7997.85
805.2223	316.6696	8587.3	7855.3
805.3653	318.8752	8463.3	7717.45
805.5084	321.0802	8414.6	7677
805.6514	323.2847	8417	7676.4
805.7945	325.4887	8440.8	7702.45
805.9376	327.692	8432	7692.2
806.0807	329.8949	8426.65	7686.5
806.2238	332.0972	8362.35	7616.7
806.367	334.2989	8261.25	7512.3
806.5101	336.5001	8153.3	7403.7
806.6533	338.7007	8035.9	7289.1
806.7965	340.9008	7971.75	7224.8
806.9397	343.1003	7844.5	7094.3
807.0829	345.2992	7813.05	7061.45
807.2261	347.4976	7763.4	7009.5
807.3693	349.6955	7683.75	6926.55
807.5126	351.8927	7679.75	6921.35
807.6559	354.0895	7660.45	6891.2
807.7991	356.2856	7623.45	6866.05
807.9424	358.4812	7578.85	6819.15
808.0857	360.6763	7574.15	6813.8
808.2291	362.8707	7557.1	6796.3
808.3724	365.0646	7584.15	6821.25
808.5158	367.258	7584.45	6819.45
808.6591	369.4508	7609.2	6839.8
808.8025	371.643	7660.85	6890.4
808.9459	373.8346	7690.25	6918.6
809.0893	376.0257	7748	6972.85
809.2327	378.2162	7770.9	6997.4
809.3762	380.4062	7761.5	6983.95
809.5196	382.5956	7712.3	6935.9
809.6631	384.7844	7669.85	6893.35
809.8066	386.9726	7560	6780.05
809.9501	389.1603	7500.2	6721.7
810.0936	391.3474	7499.7	6686.7
810.2371	393.5339	7468.1	6687.45
810.3806	395.7199	7418.15	6643.65
810.5241	397.9052	7459	6686.3
810.6677	400.09	7475.9	6703.85
810.8113	402.2743	7546.1	6774.8
810.9548	404.4579	7642.05	6870.6
811.0984	406.641	7728.7	6958.1
811.2421	408.8235	7826.9	7051.75
811.3857	411.0054	7875.5	7101.2
811.5293	413.1868	8011.5	7236.85
811.673	415.3675	8058.7	7282.65
811.8166	417.5477	8050.6	7274
811.9603	419.7273	7974.1	7194.75
812.104	421.9064	7904.15	7116.95
812.2477	424.0848	7846	7062.45
812.3914	426.2627	7771.95	6983.05
812.5351	428.4399	7650.9	6864.2
812.6788	430.6166	7508.3	6715.5
812.8226	432.7928	7332.15	6536.85
812.9663	434.9683	7181.75	6391.55
813.1101	437.1432	7079.25	6283.65
813.2539	439.3176	6972.25	6175.9
813.3977	441.4914	6937.15	6141.15
813.5415	443.6645	6911.85	6114.1
813.6853	445.8371	6876.75	6078.25
813.8291	448.0091	6830.4	6035.35
813.973	450.1806	6840.4	6043.4
814.1168	452.3514	6826.6	6025.35
814.2607	454.5216	6851.6	6043.45
814.4046	456.6913	6818.65	6016.6
814.5485	458.8603	6816.15	6014.75
814.6924	461.0288	6861.95	6061.8
814.8363	463.1967	6843.9	6040.7
814.9802	465.3639	6825.25	6021.55
815.1241	467.5306	6810.75	6007.95
815.2681	469.6967	6810.85	6007.3
815.412	471.8622	6820.45	6015.4
815.556	474.0271	6846.85	6044.05
815.7	476.1914	6836.55	6030.05
815.844	478.3551	6841.6	6037.15
815.988	480.5182	6847.4	6040.2
816.132	482.6807	6882.85	6074.4
816.276	484.8426	6959.65	6151.5
816.4201	487.0039	7122	6313.5
816.5641	489.1647	7296.95	6487.45
816.7082	491.3248	7448.5	6639.95
816.8522	493.4843	7484.3	6673.85
816.9963	495.6432	7450.75	6643.65
817.1404	497.8015	7371.55	6559.85
817.2845	499.9592	7306.45	6496.15
817.4286	502.1163	7214.85	6406.3
817.5727	504.2728	7045.55	6234.5
817.7168	506.4287	6928.4	6116.45
817.861	508.5839	6797.4	5983.75
818.0051	510.7386	6690.75	5878.45
818.1493	512.8927	6654	5833.15
818.2935	515.0461	6623.95	5808.5
818.4377	517.199	6666.15	5852
818.5818	519.3512	6747.1	5932.9
818.726	521.5029	6860.35	6040.45
818.8703	523.6539	6982.25	6163.55
819.0145	525.8043	7051.45	6234.5
819.1587	527.9541	6998.35	6179.4
819.303	530.1033	6912	6092.75
819.4472	532.2519	6802.95	5986.65
819.5915	534.3999	6762.35	5940.45
819.7357	536.5472	6779.45	5962.6
819.88	538.694	6853.85	6033.75
820.0243	540.8401	6972.4	6152.5
820.1686	542.9856	7069.6	6246.3
820.3129	545.1305	7072	6249.75
820.4572	547.2748	7042.85	6218.55
820.6016	549.4185	6970.95	6148.8
820.7459	551.5615	6915.1	6090.4
820.8902	553.704	6886.85	6060.5
821.0346	555.8458	6941.65	6115.35
821.1789	557.987	6986.85	6161.6
821.3233	560.1276	7095.35	6267.9
821.4677	562.2675	7276.6	6452.2
821.6121	564.4069	7504.55	6679.2
821.7565	566.5456	7719.7	6897.7
821.9009	568.6837	7790.8	6964.6
822.0453	570.8212	7616.15	6792.6
822.1897	572.958	7305.95	6477.15
822.3342	575.0942	6991.45	6167.8
822.4786	577.2299	6785.45	5960.45
822.6231	579.3648	6675	5848.75
822.7675	581.4992	6613.55	5787.2
822.912	583.6329	6661.4	5834.7
823.0565	585.766	6706.8	5879.2
823.201	587.8985	6794.2	5968.45
823.3454	590.0304	6853.85	6002.3
823.4899	592.1616	6818.4	5986.3
823.6345	594.2922	6762.5	5933.15
823.779	596.4222	6682.55	5853.05
823.9235	598.5515	6568.7	5739.15
824.068	600.6802	6487.4	5655.65
824.2126	602.8083	6401.85	5570.35
824.3571	604.9358	6385.65	5552.35
824.5017	607.0626	6394.2	5563.65
824.6462	609.1888	6440.05	5605.6
824.7908	611.3144	6487.9	5653.9
824.9354	613.4393	6533.3	5701.55
825.08	615.5636	6610.65	5775.2
825.2246	617.6873	6631.05	5796.65
825.3692	619.8103	6593.25	5758.85
825.5138	621.9327	6537.2	5699.8
825.6584	624.0544	6426.85	5591.4
825.803	626.1756	6310.85	5475.85
825.9477	628.2961	6245.35	5410.95
826.0923	630.4159	6184.65	5349.7
826.237	632.5351	6174.65	5339.6
826.3816	634.6537	6166.85	5328.8
826.5263	636.7716	6158.65	5321.5
826.6709	638.8889	6177.05	5339.35
826.8156	641.0056	6167.9	5330
826.9603	643.1216	6171.95	5333.05
827.105	645.237	6165.2	5322.9
827.2497	647.3518	6109.55	5269.85
827.3944	649.4659	6094.8	5253.4
827.5391	651.5793	6060	5219.25
827.6838	653.6922	6030.05	5192.55
827.8285	655.8043	6004.25	5162.2
827.9733	657.9159	5997.3	5156.55
828.118	660.0268	5971.95	5128.3
828.2627	662.137	5990.35	5147.65
828.4075	664.2466	5986.1	5141.3
828.5522	666.3556	5970.25	5129.05
828.697	668.4639	5956.35	5110.15
828.8418	670.5716	5930.9	5089.35
828.9865	672.6786	5912.5	5068.9
829.1313	674.785	5876.2	5032.5
829.2761	676.8907	5864.95	5019.85
829.4209	678.9958	5860.9	5018.95
829.5657	681.1002	5842.5	4998.05
829.7105	683.204	5832.6	4981.95
829.8553	685.3072	5827.45	4981.05
830.0001	687.4097	5791.9	4947.35
830.1449	689.5115	5787.15	4941
830.2898	691.6127	5792	4946.2
830.4346	693.7132	5772.2	4925.85
830.5794	695.8131	5789.35	4935.25
830.7243	697.9123	5800.55	4950.95
830.8691	700.0109	5791.3	4944.3
831.014	702.1089	5802.95	4956.6
831.1588	704.2061	5831.35	4983.65
831.3037	706.3028	5865.75	5016.5
831.4486	708.3987	5899.6	5052.2
831.5935	710.4941	5885.3	5035.8
831.7383	712.5887	5906.7	5056.3
831.8832	714.6827	5954.95	5102.1
832.0281	716.7761	5978.4	5128.75
832.173	718.8688	6059.35	5206.45
832.3179	720.9608	6128.35	5273.5
832.4628	723.0522	6192.5	5339.35
832.6077	725.1429	6210.05	5361.6
832.7527	727.233	6220.1	5369.25
832.8976	729.3224	6294.9	5444.9
833.0425	731.4112	6275.2	5419.75
833.1874	733.4993	6185.6	5330.2
833.3324	735.5867	6062.4	5208.9
833.4773	737.6735	5951.3	5096.4
833.6222	739.7596	5852.9	4998.15
833.7672	741.845	5795.75	4942.4
833.9122	743.9298	5764.1	4906.7
834.0571	746.014	5728.9	4875.25
834.2021	748.0974	5728.6	4873.5
834.347	750.1802	5723.65	4867.8
834.492	752.2624	5733.35	4882.3
834.637	754.3439	5748.05	4891.4
834.782	756.4247	5786.25	4924
834.9269	758.5048	5842.85	4988.35
835.0719	760.5843	5948.3	5094.25
835.2169	762.6631	6091.8	5238.75
835.3619	764.7413	6345.2	5489.7
835.5069	766.8188	6691.4	5833.15
835.6519	768.8956	6957.95	6098.25
835.7969	770.9718	7164.9	6310.95
835.9419	773.0473	7136.2	6280.4
836.0869	775.1221	7054.3	6197.5
836.232	777.1962	6902.65	6045.7
836.377	779.2697	6879.2	6018.15
836.522	781.3426	6961.75	6094.7
836.667	783.4147	7007.7	6148.9
836.8121	785.4862	7011.95	6156.25
836.9571	787.557	6929.15	6070
837.1021	789.6271	6721.3	5861.85
837.2472	791.6966	6404.05	5544.8
837.3922	793.7654	6098.7	5238.25
837.5373	795.8335	5882.75	5022.1
837.6823	797.901	5739.55	4881.15
837.8274	799.9678	5661.2	4800.1
837.9724	802.0339	5592.95	4733.45
838.1175	804.0993	5571.35	4704
838.2626	806.1641	5525.3	4664.55
838.4076	808.2282	5510.5	4653.15
838.5527	810.2916	5480.3	4619.05
838.6978	812.3544	5431.6	4571.6
838.8428	814.4164	5398.25	4539.95
838.9879	816.4778	5408.35	4545.15
839.133	818.5385	5437	4575.05
839.2781	820.5986	5491.95	4631.3
839.4232	822.658	5582.15	4720.95
839.5682	824.7166	5737.85	4877.95
839.7133	826.7747	5982.15	5122.7
839.8584	828.832	6222.85	5361.4
840.0035	830.8886	6427.65	5565.4
840.1486	832.9446	6532.4	5668.6
840.2937	834.9999	6453.45	5594.85
840.4388	837.0545	6312.8	5449.3
840.5839	839.1085	6125.8	5264.25
840.729	841.1618	5978.4	5113.65
840.8741	843.2143	5859	4997.1
841.0192	845.2662	5739.3	4877
841.1643	847.3175	5694.7	4834.85
841.3095	849.368	5617.6	4755.15
841.4546	851.4179	5594.65	4734.9
841.5997	853.467	5529.15	4666.6
841.7448	855.5155	5522.7	4657.35
841.8899	857.5633	5461.4	4599.25
842.0351	859.6105	5410.2	4548.6
842.1802	861.6569	5380.65	4516.6
842.3253	863.7027	5359	4494.6
842.4704	865.7478	5330.5	4468.05
842.6156	867.7922	5296.05	4432.1
842.7607	869.8359	5288.4	4422.95
842.9058	871.8789	5285.45	4420.35
843.0509	873.9212	5332.2	4433.4
843.1961	875.9629	5327.9	4462.4
843.3412	878.0039	5389.7	4525.95
843.4863	880.0441	5397.65	4534
843.6315	882.0837	5436.55	4572.3
843.7766	884.1226	5454.25	4587.9
843.9218	886.1609	5502.9	4638.5
844.0669	888.1984	5566.65	4702.3
844.212	890.2352	5631.2	4768.75
844.3572	892.2714	5649.7	4781.55
844.5023	894.3069	5632.5	4767.05
844.6475	896.3416	5536.85	4669.5
844.7926	898.3757	5455.65	4589.75
844.9377	900.4091	5391.7	4524.6
845.0829	902.4418	5387.75	4516.8
845.228	904.4739	5392.1	4523.75
845.3732	906.5052	5429.9	4564.6
845.5183	908.5358	5415.95	4551.5
845.6635	910.5658	5361.6	4494.2
845.8086	912.595	5266.5	4401.15
845.9538	914.6236	5134.35	4269.05
846.0989	916.6515	5067.3	4200.3
846.2441	918.6786	5009.35	4141.8
846.3892	920.7051	5015.25	4146.45
846.5344	922.7309	5039.25	4173.85
846.6795	924.756	5029.9	4162.45
846.8246	926.7804	5069.7	4199.75
846.9698	928.8041	5060.75	4192.4
847.1149	930.8272	5073.25	4201.75
847.2601	932.8495	5062.9	4192.55
847.4052	934.8711	5077.05	4208.85
847.5504	936.892	5051.3	4182.2
847.6955	938.9123	5042.4	4171.55
847.8407	940.9318	5069.95	4199.45
847.9858	942.9506	5061.7	4193
848.131	944.9688	5049.4	4181
848.2761	946.9862	4998.55	4128.2
848.4213	949.003	4918.25	4050.6
848.5664	951.019	4852.4	3983.3
848.7115	953.0344	4832.05	3961
848.8567	955.0491	4798.4	3928.8
849.0018	957.063	4804.25	3934.5
849.147	959.0763	4859.05	3990.65
849.2921	961.0888	4866.3	3993.2
849.4373	963.1007	4893.55	4023.95
849.5824	965.1119	4900.55	4029.9
849.7275	967.1223	4867.8	3997.5
849.8727	969.1321	4869.95	3999.35
850.0178	971.1412	4862.1	3990.9
850.1629	973.1495	4853.15	3982.8
850.3081	975.1572	4875.35	3971.75
850.4532	977.1641	4858.25	3988.5
850.5983	979.1704	4835.7	3965.05
850.7435	981.1759	4814.65	3941.55
850.8886	983.1808	4813.4	3939.85
851.0337	985.1849	4830.75	3947.6
851.1788	987.1884	4851.1	3980.8
851.324	989.1911	4895.75	4023
851.4691	991.1932	4912	4039.35
851.6142	993.1945	4902.85	4031.45
851.7593	995.1951	4897.9	4026.05
851.9045	997.1951	4880.05	4001.65
852.0496	999.1943	4865.4	3996
852.1947	1001.1928	4873.05	4000.9
852.3398	1003.1906	4878	4006.5
852.4849	1005.1877	4944.55	4071.6
852.63	1007.1841	4999.4	4126.4
852.7751	1009.1798	5013.35	4143.25
852.9202	1011.1748	4968	4095.45
853.0653	1013.1691	4917.55	4045.3
853.2104	1015.1627	4806.8	3932.5
853.3555	1017.1556	4708.4	3837.1
853.5006	1019.1477	4644.9	3771.1
853.6457	1021.1392	4573.4	3704.2
853.7908	1023.1299	4548.85	3677
853.9359	1025.12	4573	3699.25
854.081	1027.1093	4590.05	3717.7
854.2261	1029.0979	4653.35	3782.6
854.3712	1031.0859	4702.6	3831.1
854.5163	1033.0731	4722.05	3849.15
854.6613	1035.0596	4694.45	3824
854.8064	1037.0454	4650.35	3778.05
854.9515	1039.0304	4579	3706.8
855.0965	1041.0148	4529.25	3655.85
855.2416	1042.9985	4491.15	3615.1
855.3867	1044.9814	4449.85	3576.15
855.5317	1046.9636	4420.8	3548.75
855.6768	1048.9452	4388.25	3516.35
855.8219	1050.926	4439.35	3567.95
855.9669	1052.9061	4450.75	3579.65
856.112	1054.8855	4458.15	3585.1
856.257	1056.8642	4474.3	3599.1
856.4021	1058.8421	4495.3	3616.15
856.5471	1060.8194	4509.75	3636.05
856.6921	1062.7959	4513	3638.4
856.8372	1064.7717	4536.6	3662
856.9822	1066.7469	4568.95	3696.5
857.1272	1068.7213	4622.8	3745.7
857.2723	1070.695	4632.45	3759.05
857.4173	1072.6679	4667.85	3792.2
857.5623	1074.6402	4684.6	3811.25
857.7073	1076.6117	4676.05	3795.8
857.8523	1078.5826	4622.2	3747.2
857.9973	1080.5527	4535.7	3659.25
858.1423	1082.5221	4466.15	3589.6
858.2873	1084.4908	4473.7	3600.3
858.4323	1086.4587	4456.9	3580.15
858.5773	1088.426	4478.9	3602.9
858.7223	1090.3925	4464.85	3583.25
858.8673	1092.3584	4491.2	3616.45
859.0123	1094.3235	4479.45	3604.6
859.1573	1096.2879	4533.6	3656.75
859.3022	1098.2515	4580.7	3704.15
859.4472	1100.2145	4658.75	3783.15
859.5922	1102.1767	4745.1	3867.1
859.7371	1104.1382	4859.15	3986.05
859.8821	1106.099	4992.05	4114.7
860.027	1108.0591	5082.9	4208.55
860.172	1110.0185	5170.05	4292.05
860.3169	1111.9771	5202.8	4328.6
860.4619	1113.9351	5178.05	4300.2
860.6068	1115.8923	5137.65	4264.25
860.7517	1117.8488	5077.6	4196.85
860.8967	1119.8045	4983.25	4107.15
861.0416	1121.7596	4884.2	4007.5
861.1865	1123.7139	4813.7	3939.1
861.3314	1125.6675	4766.9	3890.5
861.4763	1127.6204	4798.3	3921
861.6212	1129.5726	4786.4	3907.75
861.7661	1131.524	4735.45	3860.35
861.911	1133.4748	4672.4	3796.5
862.0559	1135.4248	4573.15	3694.35
862.2008	1137.3741	4516.75	3639.4
862.3457	1139.3226	4432.65	3553.2
862.4905	1141.2705	4413.1	3534.75
862.6354	1143.2176	4367.65	3484.6
862.7803	1145.164	4358.55	3482.8
862.9251	1147.1097	4323.65	3446.55
863.07	1149.0546	4279.2	3401.55
863.2148	1150.9989	4222	3347.45
863.3597	1152.9424	4164.05	3286.55
863.5045	1154.8852	4111.2	3236.9
863.6493	1156.8272	4085.8	3211.5
863.7942	1158.7686	4106	3224.1
863.939	1160.7092	4095.45	3217.4
864.0838	1162.6491	4133.8	3255.3
864.2286	1164.5883	4175.4	3300.25
864.3734	1166.5267	4236.55	3359.5
864.5182	1168.4644	4297.1	3417.8
864.663	1170.4014	4387.75	3506.05
864.8078	1172.3377	4489.6	3611.75
864.9526	1174.2732	4626.25	3749.75
865.0974	1176.2081	4822.7	3945.05
865.2421	1178.1421	5056.85	4174.6
865.3869	1180.0755	5318.95	4443.95
865.5317	1182.0082	5513.55	4635.7
865.6764	1183.9401	5590.5	4712.95
865.8212	1185.8713	5511.25	4634.4
865.9659	1187.8017	5336.95	4458.45
866.1106	1189.7315	5151	4276.05
866.2554	1191.6605	4950.2	4044.65
866.4001	1193.5888	4792.3	3914.45
866.5448	1195.5163	4690.55	3813.5
866.6895	1197.4432	4629.35	3752.3
866.8342	1199.3693	4611.05	3735.85
866.9789	1201.2947	4567.45	3682.15
867.1236	1203.2193	4565.55	3687.75
867.2683	1205.1432	4560.55	3680.7
867.413	1207.0664	4546.15	3670.75
867.5576	1208.9889	4529.2	3647.75
867.7023	1210.9106	4517.35	3640.9
867.847	1212.8316	4526.35	3651.15
867.9916	1214.7519	4572.7	3684.95
868.1363	1216.6715	4573.25	3695.85
868.2809	1218.5903	4616.35	3737.15
868.4255	1220.5084	4655.1	3776.85
868.5701	1222.4257	4703.7	3826.15
868.7148	1224.3424	4713.35	3837.2
868.8594	1226.2583	4785.5	3901.5
869.004	1228.1735	4873.45	3994
869.1486	1230.0879	4948.2	4067.85
869.2932	1232.0016	5068.85	4192
869.4377	1233.9146	5135.8	4255.05
869.5823	1235.8269	5162.35	4288.4
869.7269	1237.7384	5125.65	4247.6
