Software Version:	3.9.2.0
Unit SN:	10000200
Spectrometer SN:	6960
Date:	3/14/2024 2:10:10 PM
Data Line Index:	25
Spectral Points:	2048
Integration time (ms):	125
Averages:	20
Delay (ms):	30000
Sequence Number:	1
Processing:	dark subtract
Laser Power (mW):	300
Laser Current (mA):	824
Laser Diode Temp (C):	25.1
Laser Case Temp (C):	29
System Temp (C):	29.1
Spectrometer Temp (C):	26.9
CCD Temp (C):	0.009
Secondary Temp (C):	20.004
Heatsink Temp (C):	24.897
CCDPCB Temp (C):	38.063
SecondaryPCB Temp (C):	35.84

Wavelength	RamanShift	Raw Counts	Dark Subtracted
787.061	30.1047	451.85	42.9
787.2016	32.3739	450.3	43.3
787.3422	34.6426	453.9	43.15
787.4828	36.9109	459.1	47
787.6235	39.1787	468	50.85
787.7642	41.4461	476.5	56.6
787.9049	43.7131	487.35	63.6
788.0456	45.9796	493.3	65
788.1863	48.2456	501.4	69.1
788.3271	50.5112	509.45	74.05
788.4679	52.7764	518.55	79.85
788.6087	55.0411	529.35	85.05
788.7496	57.3054	538.7	90
788.8904	59.5692	550.9	102.75
789.0313	61.8326	558.8	106.95
789.1722	64.0955	570.9	114.4
789.3132	66.3579	586.35	123.05
789.4541	68.6199	600.85	135.1
789.5951	70.8815	630.3	164.55
789.7361	73.1426	697.3	226.85
789.8771	75.4032	859.65	383.2
790.0181	77.6634	1262.65	782.15
790.1592	79.9231	2232	1746.3
790.3003	82.1824	4323.8	3826.3
790.4414	84.4412	8179.25	7662.85
790.5825	86.6995	13647.75	13111.05
790.7237	88.9574	19188.55	18631.9
790.8648	91.2148	23209.45	22640.45
791.006	93.4717	25201.5	24622.35
791.1472	95.7282	25760.95	25176.3
791.2885	97.9842	25761.1	25172.4
791.4297	100.2398	25408.1	24815.95
791.571	102.4949	24885.25	24290.9
791.7123	104.7495	24230.9	23634.05
791.8536	107.0036	23514.75	22915.35
791.9949	109.2573	22801.15	22201.95
792.1363	111.5105	22102.45	21498.9
792.2777	113.7632	21357.85	20757.45
792.4191	116.0154	20764.25	20150.3
792.5605	118.2672	20312.5	19706.95
792.7019	120.5185	19813.95	19203.6
792.8434	122.7693	19400.45	18789.05
792.9849	125.0197	19116.35	18504.45
793.1264	127.2696	18864.75	18252.15
793.2679	129.519	18755.55	18137
793.4094	131.7679	18585.35	17969.1
793.551	134.0163	18450.5	17824
793.6926	136.2642	18312.05	17681.7
793.8342	138.5117	18198.1	17559.7
793.9758	140.7587	18054.6	17422.95
794.1175	143.0052	17876.55	17240.8
794.2591	145.2512	17689.65	17053.55
794.4008	147.4967	17513.8	16877
794.5425	149.7417	17412.8	16777.6
794.6842	151.9863	17310.85	16670.4
794.826	154.2304	17240.75	16596.9
794.9677	156.4739	17096.85	16447.1
795.1095	158.717	17030.4	16381.2
795.2513	160.9596	16910.45	16257.1
795.3931	163.2017	16670.3	16014.35
795.535	165.4433	16398.4	15742.05
795.6768	167.6844	16070.35	15412.9
795.8187	169.925	15772.9	15110.55
795.9606	172.1651	15404.3	14739.05
796.1025	174.4047	15138.75	14468.8
796.2445	176.6439	14855	14187.25
796.3864	178.8825	14630.4	13955.15
796.5284	181.1206	14476.05	13797.6
796.6704	183.3582	14317.5	13638.2
796.8124	185.5954	14171.2	13488.2
796.9544	187.832	14063.75	13379.85
797.0965	190.0681	14035.65	13350.65
797.2386	192.3037	14023.35	13333.2
797.3806	194.5388	13994.6	13303.15
797.5228	196.7734	14024.7	13329.4
797.6649	199.0075	14056.15	13358.6
797.807	201.2411	14138.45	13435.8
797.9492	203.4742	14205.4	13505.2
798.0914	205.7068	14290	13588.15
798.2336	207.9389	14386.6	13681.6
798.3758	210.1704	14536.75	13828.85
798.518	212.4015	14629.15	13917.5
798.6603	214.632	14790.7	14081.25
798.8025	216.862	14936.7	14237.35
798.9448	219.0915	15093.35	14397.25
799.0871	221.3205	15305.4	14612.55
799.2294	223.549	15534.7	14847
799.3718	225.777	15876.4	15188.65
799.5141	228.0044	16302.3	15612.6
799.6565	230.2314	16819.95	16134.15
799.7989	232.4578	17294.35	16604.15
799.9413	234.6837	17636.75	16938.15
800.0837	236.909	17877	17176.85
800.2262	239.1339	17829.3	17109.9
800.3687	241.3582	17529.55	16821
800.5111	243.582	17131.15	16396.65
800.6536	245.8053	16742.55	16017.6
800.7961	248.0281	16353.15	15630.75
800.9387	250.2503	16067	15339.65
801.0812	252.472	15847.25	15113.9
801.2238	254.6932	15719.2	14987.45
801.3664	256.9139	15568.15	14833.95
801.509	259.134	15472.2	14733.6
801.6516	261.3536	15385.6	14652.3
801.7942	263.5727	15318.65	14578.8
801.9369	265.7912	15188	14450.9
802.0795	268.0092	15137.8	14401.1
802.2222	270.2267	15024.55	14286.1
802.3649	272.4436	14944.4	14204.8
802.5076	274.6601	14898.35	14151.1
802.6504	276.8759	14874.9	14131.1
802.7931	279.0913	14846.45	14103.4
802.9359	281.3061	14877.75	14130.6
803.0787	283.5204	14956.75	14207.75
803.2215	285.7341	15069.65	14321.7
803.3643	287.9473	15248.45	14485.75
803.5071	290.16	15521.2	14765.3
803.6499	292.3721	15841.4	15090.25
803.7928	294.5837	16252.2	15499.15
803.9357	296.7947	16609.1	15857.1
804.0786	299.0052	16782.9	16027.1
804.2215	301.2152	16618.5	15862.4
804.3644	303.4246	16201.4	15448.75
804.5074	305.6334	15681.3	14931.25
804.6503	307.8418	15131.55	14377.15
804.7933	310.0495	14758.7	14001.1
804.9363	312.2568	14482.4	13729.25
805.0793	314.4635	14310.25	13552.05
805.2223	316.6696	14245.45	13485.05
805.3653	318.8752	14227.5	13460.2
805.5084	321.0802	14325.3	13566
805.6514	323.2847	14412.4	13655.85
805.7945	325.4887	14469.5	13709.1
805.9376	327.692	14411.4	13646.6
806.0807	329.8949	14259.15	13494.2
806.2238	332.0972	14004.35	13240.35
806.367	334.2989	13725.95	12957
806.5101	336.5001	13465.3	12695.15
806.6533	338.7007	13270	12500.65
806.7965	340.9008	13139.95	12372.2
806.9397	343.1003	13036.85	12264.45
807.0829	345.2992	12992.05	12214
807.2261	347.4976	12949.35	12172.2
807.3693	349.6955	12963.15	12185.05
807.5126	351.8927	13011.6	12230.55
807.6559	354.0895	13011.2	12219.75
807.7991	356.2856	13079	12297.85
807.9424	358.4812	13031.7	12249.35
808.0857	360.6763	13054.95	12272.2
808.2291	362.8707	12998.25	12216.45
808.3724	365.0646	13003.5	12213.15
808.5158	367.258	12995.05	12209.95
808.6591	369.4508	12986.8	12196.9
808.8025	371.643	13028.4	12239.9
808.9459	373.8346	13001.5	12207.65
809.0893	376.0257	12939.85	12148.15
809.2327	378.2162	12879.95	12085.3
809.3762	380.4062	12755.45	11955.4
809.5196	382.5956	12605.1	11806.15
809.6631	384.7844	12500.8	11703.35
809.8066	386.9726	12402.5	11601.65
809.9501	389.1603	12323.3	11525.9
810.0936	391.3474	12313.85	11477
810.2371	393.5339	12287.55	11491.65
810.3806	395.7199	12212.5	11418.55
810.5241	397.9052	12223.55	11433.5
810.6677	400.09	12208.1	11418.9
810.8113	402.2743	12246.55	11459
810.9548	404.4579	12286.8	11498.4
811.0984	406.641	12412.25	11619.6
811.2421	408.8235	12634.55	11843.5
811.3857	411.0054	12952.25	12159.8
811.5293	413.1868	13420.2	12624
811.673	415.3675	13777.2	12980.7
811.8166	417.5477	13941.85	13142.85
811.9603	419.7273	13987.05	13188.65
812.104	421.9064	13853.55	13044.7
812.2477	424.0848	13718.1	12913.25
812.3914	426.2627	13510.5	12705.15
812.5351	428.4399	13248.25	12442.6
812.6788	430.6166	12908.2	12098.15
812.8226	432.7928	12513.55	11706.65
812.9663	434.9683	12241.65	11433.75
813.1101	437.1432	12002.95	11188.95
813.2539	439.3176	11825.9	11014.2
813.3977	441.4914	11783.75	10966.85
813.5415	443.6645	11714.8	10900.35
813.6853	445.8371	11675.45	10861.7
813.8291	448.0091	11596.1	10784.75
813.973	450.1806	11534.7	10719.55
814.1168	452.3514	11483.8	10668.5
814.2607	454.5216	11469.5	10647.7
814.4046	456.6913	11406.35	10588.15
814.5485	458.8603	11413.25	10600
814.6924	461.0288	11439.9	10624.1
814.8363	463.1967	11476.75	10659.05
814.9802	465.3639	11608.45	10789.8
815.1241	467.5306	11716.7	10894
815.2681	469.6967	11855.8	11035.65
815.412	471.8622	12041.65	11225.65
815.556	474.0271	12195.4	11376
815.7	476.1914	12241.25	11419.85
815.844	478.3551	12198.2	11378.7
815.988	480.5182	12179.2	11356
816.132	482.6807	12112.7	11292.15
816.276	484.8426	12160.85	11337.05
816.4201	487.0039	12359.8	11536.95
816.5641	489.1647	12740.15	11918.55
816.7082	491.3248	13119.6	12297.4
816.8522	493.4843	13297.9	12476.85
816.9963	495.6432	13315.1	12490.75
817.1404	497.8015	13252.15	12423.35
817.2845	499.9592	13264.25	12441.55
817.4286	502.1163	13210.85	12385.1
817.5727	504.2728	13014.75	12185.3
817.7168	506.4287	12752.15	11926.2
817.861	508.5839	12364.85	11537.45
818.0051	510.7386	11998	11169.45
818.1493	512.8927	11796.4	10957.7
818.2935	515.0461	11635.7	10807.05
818.4377	517.199	11530.9	10699.95
818.5818	519.3512	11458.2	10629.05
818.726	521.5029	11449.5	10613.7
818.8703	523.6539	11420.95	10590.9
819.0145	525.8043	11447.85	10615.75
819.1587	527.9541	11487.75	10655.05
819.303	530.1033	11515.05	10682.35
819.4472	532.2519	11559.35	10728.25
819.5915	534.3999	11760.35	10924.4
819.7357	536.5472	12052.1	11218.9
819.88	538.694	12548.3	11712.15
820.0243	540.8401	13119.8	12283.75
820.1686	542.9856	13654.55	12818.85
820.3129	545.1305	13834.6	12996.4
820.4572	547.2748	13623.95	12787.1
820.6016	549.4185	13222.65	12384.75
820.7459	551.5615	12862.7	12024
820.8902	553.704	12650.45	11812.95
821.0346	555.8458	12562.85	11725.05
821.1789	557.987	12455.1	11617.25
821.3233	560.1276	12383.3	11546.1
821.4677	562.2675	12264.5	11429
821.6121	564.4069	12146.35	11309.45
821.7565	566.5456	11996.7	11160.55
821.9009	568.6837	11834.5	10994.9
822.0453	570.8212	11646.65	10809.9
822.1897	572.958	11430	10592.6
822.3342	575.0942	11267.75	10431.05
822.4786	577.2299	11189.15	10351.85
822.6231	579.3648	11186.35	10347.55
822.7675	581.4992	11294.9	10456.3
822.912	583.6329	11533.1	10691.7
823.0565	585.766	11724.15	10882.7
823.201	587.8985	11829.55	10989.7
823.3454	590.0304	11856.2	11004.3
823.4899	592.1616	11773.7	10929.65
823.6345	594.2922	11657.3	10814.5
823.779	596.4222	11537.35	10693.55
823.9235	598.5515	11378.75	10537.4
824.068	600.6802	11225.5	10386.3
824.2126	602.8083	11035.95	10192.2
824.3571	604.9358	10965.7	10120.65
824.5017	607.0626	10868.25	10026.2
824.6462	609.1888	10776.8	9930
824.7908	611.3144	10675.8	9830.85
824.9354	613.4393	10522.65	9677.15
825.08	615.5636	10341.65	9498.35
825.2246	617.6873	10225.9	9382.7
825.3692	619.8103	10180.55	9334.8
825.5138	621.9327	10114.05	9264.55
825.6584	624.0544	10118.65	9272.6
825.803	626.1756	10118.25	9272.5
825.9477	628.2961	10085.8	9239.05
826.0923	630.4159	10020.3	9173.15
826.237	632.5351	9975.7	9130.15
826.3816	634.6537	9912.7	9065.25
826.5263	636.7716	9886.7	9035.7
826.6709	638.8889	9860.9	9011.4
826.8156	641.0056	9861.6	9015.05
826.9603	643.1216	9836.65	8988.5
827.105	645.237	9886.25	9036.1
827.2497	647.3518	9907.1	9057.4
827.3944	649.4659	9889.15	9043.5
827.5391	651.5793	9905.8	9055.9
827.6838	653.6922	9877.05	9026.75
827.8285	655.8043	9860.6	9009.95
827.9733	657.9159	9833.05	8978.7
828.118	660.0268	9752.05	8899.8
828.2627	662.137	9680.8	8829
828.4075	664.2466	9615.1	8763.6
828.5522	666.3556	9599.85	8747.7
828.697	668.4639	9583.65	8728.35
828.8418	670.5716	9629.95	8778.2
828.9865	672.6786	9713.6	8858.25
829.1313	674.785	9777.65	8922.85
829.2761	676.8907	9846.9	8993.3
829.4209	678.9958	9929.9	9076.25
829.5657	681.1002	9887.15	9034.35
829.7105	683.204	9839.15	8980.4
829.8553	685.3072	9779.3	8924.45
830.0001	687.4097	9686.05	8831.25
830.1449	689.5115	9628.5	8770.75
830.2898	691.6127	9578.95	8724.9
830.4346	693.7132	9493.5	8637.15
830.5794	695.8131	9426.4	8549.55
830.7243	697.9123	9379.8	8521.8
830.8691	700.0109	9312.45	8456.7
831.014	702.1089	9285	8428.4
831.1588	704.2061	9278.95	8420.8
831.3037	706.3028	9303.2	8444.1
831.4486	708.3987	9336.8	8479.35
831.5935	710.4941	9435.85	8579.55
831.7383	712.5887	9588.5	8732.5
831.8832	714.6827	9888.75	9029.15
832.0281	716.7761	10254.6	9397.35
832.173	718.8688	10595.4	9735.4
832.3179	720.9608	10786.05	9923.5
832.4628	723.0522	10776.65	9913.45
832.6077	725.1429	10511.45	9649.05
832.7527	727.233	10130.25	9269.85
832.8976	729.3224	9798.95	8940.3
833.0425	731.4112	9489.3	8627.3
833.1874	733.4993	9303.75	8439.2
833.3324	735.5867	9167.05	8303.75
833.4773	737.6735	9114.2	8250.2
833.6222	739.7596	9055.35	8192.15
833.7672	741.845	9026.7	8163.4
833.9122	743.9298	9003.4	8140.2
834.0571	746.014	9018.1	8158.5
834.2021	748.0974	9032.55	8168.05
834.347	750.1802	9033.35	8173.5
834.492	752.2624	9008	8147.4
834.637	754.3439	9050.4	8187.4
834.782	756.4247	9068.85	8194.6
834.9269	758.5048	9134.75	8274.65
835.0719	760.5843	9284.2	8422.9
835.2169	762.6631	9532.05	8668.3
835.3619	764.7413	9886.25	9024.55
835.5069	766.8188	10369.1	9505.2
835.6519	768.8956	10803.8	9940
835.7969	770.9718	11092.3	10228.95
835.9419	773.0473	10952.75	10088
836.0869	775.1221	10663.8	9800.05
836.232	777.1962	10299.25	9436.1
836.377	779.2697	10103.15	9239.25
836.522	781.3426	10190.35	9316.35
836.667	783.4147	10450.9	9587.4
836.8121	785.4862	10757.45	9894.95
836.9571	787.557	10777.15	9914.2
837.1021	789.6271	10451.6	9588.55
837.2472	791.6966	9916.35	9052.55
837.3922	793.7654	9440.1	8575.65
837.5373	795.8335	9148.25	8283.35
837.6823	797.901	8995.85	8133.25
837.8274	799.9678	8931.85	8063.5
837.9724	802.0339	8940.45	8077.85
838.1175	804.0993	8991.75	8118.2
838.2626	806.1641	8977.85	8110.15
838.4076	808.2282	8928.4	8061.9
838.5527	810.2916	8830.95	7962.1
838.6978	812.3544	8735.9	7871.15
838.8428	814.4164	8656.85	7791.85
838.9879	816.4778	8635.35	7764.75
839.133	818.5385	8604.45	7738.15
839.2781	820.5986	8605.55	7740.15
839.4232	822.658	8676.15	7810.85
839.5682	824.7166	8678.5	7813.25
839.7133	826.7747	8786.4	7919.65
839.8584	828.832	8887.4	8020.75
840.0035	830.8886	8978.5	8112
840.1486	832.9446	9088.8	8219.95
840.2937	834.9999	9177.95	8311.95
840.4388	837.0545	9252.7	8383.45
840.5839	839.1085	9280.95	8414.75
840.729	841.1618	9284.65	8414.2
840.8741	843.2143	9295.8	8429.7
841.0192	845.2662	9257.8	8389.75
841.1643	847.3175	9189.4	8321.85
841.3095	849.368	9087.25	8219.6
841.4546	851.4179	8961.9	8093.85
841.5997	853.467	8831	7964.25
841.7448	855.5155	8708.3	7841.2
841.8899	857.5633	8592.85	7726.85
842.0351	859.6105	8503	7637.5
842.1802	861.6569	8419	7550.8
842.3253	863.7027	8331.75	7461.85
842.4704	865.7478	8319.95	7450.9
842.6156	867.7922	8314.15	7443.75
842.7607	869.8359	8392	7520.75
842.9058	871.8789	8497.95	7629.65
843.0509	873.9212	8671.95	7766.4
843.1961	875.9629	8805.7	7936.55
843.3412	878.0039	8987.8	8118.95
843.4863	880.0441	9056.5	8186.25
843.6315	882.0837	9022.7	8151.45
843.7766	884.1226	8897.65	8028.25
843.9218	886.1609	8747.05	7878.2
844.0669	888.1984	8615.15	7748.05
844.212	890.2352	8554.35	7686.2
844.3572	892.2714	8484.35	7611.25
844.5023	894.3069	8448.8	7576.45
844.6475	896.3416	8399	7529.4
844.7926	898.3757	8375.1	7504.4
844.9377	900.4091	8353.85	7481.9
845.0829	902.4418	8372	7495
845.228	904.4739	8360.55	7488.8
845.3732	906.5052	8362.55	7490.95
845.5183	908.5358	8244.9	7374.2
845.6635	910.5658	8115.55	7243.15
845.8086	912.595	7956.1	7085.75
845.9538	914.6236	7844.25	6973.5
846.0989	916.6515	7804.3	6932.25
846.2441	918.6786	7811.55	6938.35
846.3892	920.7051	7876.1	7004.85
846.5344	922.7309	7989.25	7117
846.6795	924.756	8037	7167.4
846.8246	926.7804	8116.75	7242.65
846.9698	928.8041	8072.05	7196.7
847.1149	930.8272	8065.6	7193.85
847.2601	932.8495	8020.6	7147.9
847.4052	934.8711	7925.4	7050.35
847.5504	936.892	7786.95	6914.65
847.6955	938.9123	7646.05	6770.7
847.8407	940.9318	7489.25	6617.35
847.9858	942.9506	7391	6517.55
848.131	944.9688	7301.25	6429.45
848.2761	946.9862	7291.15	6418.25
848.4213	949.003	7220.45	6348.15
848.5664	951.019	7226.9	6351.5
848.7115	953.0344	7254.55	6381.6
848.8567	955.0491	7288.3	6414.2
849.0018	957.063	7340.8	6468.9
849.147	959.0763	7418.6	6546.9
849.2921	961.0888	7465.35	6588.4
849.4373	963.1007	7518.45	6644.45
849.5824	965.1119	7550.9	6678.2
849.7275	967.1223	7599.55	6727.95
849.8727	969.1321	7598.05	6724.55
850.0178	971.1412	7629.35	6754.55
850.1629	973.1495	7643.65	6769.6
850.3081	975.1572	7703.7	6796.7
850.4532	977.1641	7700.6	6828
850.5983	979.1704	7697.15	6822.25
850.7435	981.1759	7693.2	6813.75
850.8886	983.1808	7735.25	6859.9
851.0337	985.1849	7846.05	6960.9
851.1788	987.1884	7981.95	7104.6
851.324	989.1911	8143.15	7264.75
851.4691	991.1932	8271.9	7396
851.6142	993.1945	8330.3	7455.2
851.7593	995.1951	8295.45	7422.4
851.9045	997.1951	8255.55	7373.85
852.0496	999.1943	8189.65	7317.25
852.1947	1001.1928	8123.7	7248.75
852.3398	1003.1906	8118.15	7243.35
852.4849	1005.1877	8144.25	7266.85
852.63	1007.1841	8103.7	7230.9
852.7751	1009.1798	7987.4	7111.9
852.9202	1011.1748	7813.5	6938.75
853.0653	1013.1691	7651.3	6775.95
853.2104	1015.1627	7458.6	6582.1
853.3555	1017.1556	7269.85	6395.35
853.5006	1019.1477	7187.35	6310.25
853.6457	1021.1392	7144.1	6272.1
853.7908	1023.1299	7132.6	6258
853.9359	1025.12	7169.2	6290.45
854.081	1027.1093	7209.4	6334.5
854.2261	1029.0979	7290.65	6416.15
854.3712	1031.0859	7341.45	6468.55
854.5163	1033.0731	7310.95	6435.85
854.6613	1035.0596	7254.9	6382.4
854.8064	1037.0454	7122.05	6244.55
854.9515	1039.0304	6998.55	6123.65
855.0965	1041.0148	6890	6014.75
855.2416	1042.9985	6815.8	5941.75
855.3867	1044.9814	6787	5910.5
855.5317	1046.9636	6744.7	5867.4
855.6768	1048.9452	6705.75	5832
855.8219	1050.926	6741	5867.25
855.9669	1052.9061	6705.15	5832.35
856.112	1054.8855	6690.9	5814.9
856.257	1056.8642	6729.25	5852.75
856.4021	1058.8421	6763.6	5883.7
856.5471	1060.8194	6778.2	5904.05
856.6921	1062.7959	6797.15	5921.9
856.8372	1064.7717	6799.15	5921.25
856.9822	1066.7469	6813	5934.55
857.1272	1068.7213	6767.35	5886.45
857.2723	1070.695	6711.15	5836.85
857.4173	1072.6679	6654.2	5775.4
857.5623	1074.6402	6612.2	5737.95
857.7073	1076.6117	6606.9	5726.2
857.8523	1078.5826	6640.05	5762.9
857.9973	1080.5527	6697.1	5819
858.1423	1082.5221	6821.5	5943.35
858.2873	1084.4908	7013.15	6135.85
858.4323	1086.4587	7218.75	6341.05
858.5773	1088.426	7352.65	6474.7
858.7223	1090.3925	7337.3	6456.25
858.8673	1092.3584	7288.65	6411.8
859.0123	1094.3235	7131.9	6256.35
859.1573	1096.2879	7022.5	6144.4
859.3022	1098.2515	6980.45	6103.9
859.4472	1100.2145	6998.7	6122.5
859.5922	1102.1767	7051.4	6170.45
859.7371	1104.1382	7172.95	6298.35
859.8821	1106.099	7341.65	6462.4
860.027	1108.0591	7505.15	6627.9
860.172	1110.0185	7673.4	6796.45
860.3169	1111.9771	7654.8	6778
860.4619	1113.9351	7438.9	6560.3
860.6068	1115.8923	7152.95	6274.75
860.7517	1117.8488	6840.85	5961.2
860.8967	1119.8045	6568.2	5692.9
861.0416	1121.7596	6447.55	5569.25
861.1865	1123.7139	6402.5	5526.55
861.3314	1125.6675	6391.3	5513.6
861.4763	1127.6204	6449.75	5571.6
861.6212	1129.5726	6487.4	5608.65
861.7661	1131.524	6512.9	5635.7
861.911	1133.4748	6554.45	5677.1
862.0559	1135.4248	6587	5708.55
862.2008	1137.3741	6585.5	5709.5
862.3457	1139.3226	6579.65	5701.95
862.4905	1141.2705	6525.8	5646.95
862.6354	1143.2176	6479.35	5594.85
862.7803	1145.164	6506.35	5628.75
862.9251	1147.1097	6529.45	5650.3
863.07	1149.0546	6505.4	5626.75
863.2148	1150.9989	6437.7	5556.35
863.3597	1152.9424	6279.25	5400.7
863.5045	1154.8852	6071.3	5193.1
863.6493	1156.8272	5954.8	5078.4
863.7942	1158.7686	5885.3	4999
863.939	1160.7092	5853.15	4973.9
864.0838	1162.6491	5849.85	4970.3
864.2286	1164.5883	5885.05	5008.5
864.3734	1166.5267	5963.65	5083.55
864.5182	1168.4644	6092.8	5212.9
864.663	1170.4014	6256.5	5376.2
864.8078	1172.3377	6454.6	5576.1
864.9526	1174.2732	6629.05	5753.6
865.0974	1176.2081	6800.2	5919.8
865.2421	1178.1421	6921.8	6040.5
865.3869	1180.0755	7048.35	6169.25
865.5317	1182.0082	7052.05	6174.2
865.6764	1183.9401	6997.6	6118.15
865.8212	1185.8713	6798.15	5919.6
865.9659	1187.8017	6565.7	5688.4
866.1106	1189.7315	6352.55	5476.2
866.2554	1191.6605	6141.9	5236.45
866.4001	1193.5888	5992.15	5115.8
866.5448	1195.5163	5887.25	5009.15
866.6895	1197.4432	5777.2	4896.9
866.8342	1199.3693	5702.9	4823.55
866.9789	1201.2947	5674.1	4793.85
867.1236	1203.2193	5670.65	4792.1
867.2683	1205.1432	5691.35	4810.45
867.413	1207.0664	5731.95	4854.05
867.5576	1208.9889	5809.7	4928.95
867.7023	1210.9106	5867.65	4989.15
867.847	1212.8316	5955.2	5076.2
