Software Version:	3.9.2.0
Unit SN:	10000200
Spectrometer SN:	6960
Date:	3/14/2024 12:40:02 PM
Data Line Index:	25
Spectral Points:	2048
Integration time (ms):	125
Averages:	20
Delay (ms):	30000
Sequence Number:	1
Processing:	dark subtract
Laser Power (mW):	305
Laser Current (mA):	823
Laser Diode Temp (C):	25
Laser Case Temp (C):	27
System Temp (C):	27
Spectrometer Temp (C):	24.5
CCD Temp (C):	0.009
Secondary Temp (C):	20
Heatsink Temp (C):	23.076
CCDPCB Temp (C):	36.796
SecondaryPCB Temp (C):	34.106

Wavelength	RamanShift	Raw Counts	Dark Subtracted
787.061	30.1047	418.25	7.85
787.2016	32.3739	415.25	6.4
787.3422	34.6426	418.15	6.25
787.4828	36.9109	421.8	8.05
787.6235	39.1787	424.2	7
787.7642	41.4461	430.05	10.4
787.9049	43.7131	431.6	6.55
788.0456	45.9796	437.3	8.2
788.1863	48.2456	439	4.95
788.3271	50.5112	447.95	12.4
788.4679	52.7764	449.3	11.35
788.6087	55.0411	455.5	14.25
788.7496	57.3054	458.5	13.6
788.8904	59.5692	461.95	12.8
789.0313	61.8326	467.6	14.8
789.1722	64.0955	471.95	15.7
789.3132	66.3579	478.95	17.2
789.4541	68.6199	485.1	19.65
789.5951	70.8815	490.75	22.1
789.7361	73.1426	505.75	33.45
789.8771	75.4032	536	60.45
790.0181	77.6634	601.65	120.45
790.1592	79.9231	741.65	257.5
790.3003	82.1824	1039.55	549.85
790.4414	84.4412	1538.4	1043.5
790.5825	86.6995	2218.1	1713.05
790.7237	88.9574	2850.8	2339.5
790.8648	91.2148	3333	2818.65
791.006	93.4717	3544.7	3022.5
791.1472	95.7282	3596.8	3073.4
791.2885	97.9842	3614.5	3090.05
791.4297	100.2398	3582.45	3053.45
791.571	102.4949	3543.75	3009
791.7123	104.7495	3541.05	3004.85
791.8536	107.0036	3508.25	2972.35
791.9949	109.2573	3467.45	2932.05
792.1363	111.5105	3412.75	2875.35
792.2777	113.7632	3354.1	2815
792.4191	116.0154	3296.05	2747.55
792.5605	118.2672	3221.7	2677.35
792.7019	120.5185	3157.65	2613.2
792.8434	122.7693	3104.5	2557.5
792.9849	125.0197	3048.35	2498.5
793.1264	127.2696	2989.85	2438.7
793.2679	129.519	2957.9	2404.2
793.4094	131.7679	2949.1	2392.8
793.551	134.0163	2937.8	2377.2
793.6926	136.2642	2935.55	2369.6
793.8342	138.5117	2925.05	2354.4
793.9758	140.7587	2916.5	2345.1
794.1175	143.0052	2877.9	2305.45
794.2591	145.2512	2845.7	2273.05
794.4008	147.4967	2813.3	2240
794.5425	149.7417	2788.45	2213
794.6842	151.9863	2755.5	2175.35
794.826	154.2304	2745.2	2164.45
794.9677	156.4739	2740.35	2150.75
795.1095	158.717	2748.9	2160.45
795.2513	160.9596	2758.1	2164.85
795.3931	163.2017	2772.25	2176.3
795.535	165.4433	2784.8	2186.75
795.6768	167.6844	2778.95	2180.1
795.8187	169.925	2764.1	2160.9
795.9606	172.1651	2728.3	2123.3
796.1025	174.4047	2692.5	2083
796.2445	176.6439	2658.85	2046.9
796.3864	178.8825	2648.75	2034.85
796.5284	181.1206	2647.25	2029
796.6704	183.3582	2627.7	2006.15
796.8124	185.5954	2622	1997.9
796.9544	187.832	2611.15	1982.05
797.0965	190.0681	2613.1	1983
797.2386	192.3037	2617.65	1985.05
797.3806	194.5388	2622	1987.65
797.5228	196.7734	2623.8	1985.55
797.6649	199.0075	2636.85	1995.25
797.807	201.2411	2654.6	2011.45
797.9492	203.4742	2669.7	2023.9
798.0914	205.7068	2682.65	2038
798.2336	207.9389	2703.1	2060.2
798.3758	210.1704	2701.7	2054.7
798.518	212.4015	2707	2055.35
798.6603	214.632	2704.7	2050.75
798.8025	216.862	2704.95	2054.75
798.9448	219.0915	2690.5	2048.25
799.0871	221.3205	2700.25	2063.2
799.2294	223.549	2696.1	2065.15
799.3718	225.777	2705.7	2074
799.5141	228.0044	2696.25	2060.65
799.6565	230.2314	2674	2041.85
799.7989	232.4578	2672.95	2040.4
799.9413	234.6837	2659.4	2018.45
800.0837	236.909	2648.85	2006.35
800.2262	239.1339	2675.4	2011.6
800.3687	241.3582	2638.25	1987.7
800.5111	243.582	2661.25	1985
800.6536	245.8053	2664.4	1993.85
800.7961	248.0281	2650.9	1984.5
800.9387	250.2503	2655.25	1985.75
801.0812	252.472	2660.15	1983.8
801.2238	254.6932	2674.75	1996.65
801.3664	256.9139	2663.1	1981.65
801.509	259.134	2682.8	1996.1
801.6516	261.3536	2694.85	2012.9
801.7942	263.5727	2707.7	2025.05
801.9369	265.7912	2740.2	2057.1
802.0795	268.0092	2772.75	2088.15
802.2222	270.2267	2802.9	2114.95
802.3649	272.4436	2839.05	2152.75
802.5076	274.6601	2854.7	2157.35
802.6504	276.8759	2878.95	2188.7
802.7931	279.0913	2883.35	2196
802.9359	281.3061	2899.85	2207.25
803.0787	283.5204	2903.65	2207.65
803.2215	285.7341	2926.2	2225.8
803.3643	287.9473	2932.95	2231.05
803.5071	290.16	2932.45	2225.75
803.6499	292.3721	2898.7	2197.9
803.7928	294.5837	2865.75	2161.15
803.9357	296.7947	2840.45	2140.1
804.0786	299.0052	2838.6	2136.15
804.2215	301.2152	2817	2111.55
804.3644	303.4246	2800.95	2097.8
804.5074	305.6334	2787.3	2083.25
804.6503	307.8418	2776.8	2069.65
804.7933	310.0495	2773.8	2064.2
804.9363	312.2568	2752.3	2044.1
805.0793	314.4635	2712.45	2003.25
805.2223	316.6696	2688.15	1976.5
805.3653	318.8752	2651.55	1931.9
805.5084	321.0802	2623.65	1911
805.6514	323.2847	2604.25	1889.95
805.7945	325.4887	2613.9	1900.2
805.9376	327.692	2619.45	1904.3
806.0807	329.8949	2633.95	1914.8
806.2238	332.0972	2668.95	1949.05
806.367	334.2989	2707.65	1983.05
806.5101	336.5001	2702.8	1978.55
806.6533	338.7007	2676.8	1954.1
806.7965	340.9008	2651.05	1926.2
806.9397	343.1003	2604.65	1877.4
807.0829	345.2992	2578.25	1849.2
807.2261	347.4976	2530.4	1801.3
807.3693	349.6955	2506.95	1773.85
807.5126	351.8927	2493.95	1758.5
807.6559	354.0895	2497.45	1751.5
807.7991	356.2856	2471.55	1735.95
807.9424	358.4812	2461.45	1725.85
808.0857	360.6763	2458.25	1721
808.2291	362.8707	2445.7	1709.55
808.3724	365.0646	2448.05	1706.85
808.5158	367.258	2463.4	1722.6
808.6591	369.4508	2470.8	1723
808.8025	371.643	2490.95	1745.15
808.9459	373.8346	2494	1743.45
809.0893	376.0257	2527.95	1773.85
809.2327	378.2162	2541.3	1789.3
809.3762	380.4062	2559.6	1805.9
809.5196	382.5956	2546.45	1789.3
809.6631	384.7844	2505.1	1749.6
809.8066	386.9726	2474.7	1717.35
809.9501	389.1603	2447.85	1690.2
810.0936	391.3474	2455.45	1665.6
810.2371	393.5339	2427.1	1669.45
810.3806	395.7199	2420.05	1669.1
810.5241	397.9052	2437.8	1690.5
810.6677	400.09	2468.55	1720.3
810.8113	402.2743	2489.3	1742.25
810.9548	404.4579	2509.3	1761.45
811.0984	406.641	2541.1	1789.35
811.2421	408.8235	2564.15	1812.1
811.3857	411.0054	2609.05	1856.65
811.5293	413.1868	2669.9	1914.6
811.673	415.3675	2749.8	1993.05
811.8166	417.5477	2765.1	2004.8
811.9603	419.7273	2693.5	1933.75
812.104	421.9064	2624.1	1857.15
812.2477	424.0848	2555.7	1790.65
812.3914	426.2627	2502.05	1733.8
812.5351	428.4399	2455.9	1685.55
812.6788	430.6166	2427.15	1652.9
812.8226	432.7928	2384.05	1609.3
812.9663	434.9683	2348.5	1574.1
813.1101	437.1432	2334.75	1558.7
813.2539	439.3176	2308.15	1533.7
813.3977	441.4914	2292.45	1514.85
813.5415	443.6645	2304.15	1524.35
813.6853	445.8371	2300.55	1519.05
813.8291	448.0091	2303.45	1522.4
813.973	450.1806	2291.1	1511.85
814.1168	452.3514	2274	1491.8
814.2607	454.5216	2296.05	1504.35
814.4046	456.6913	2275.45	1490.95
814.5485	458.8603	2272.25	1489.65
814.6924	461.0288	2273.95	1490.05
814.8363	463.1967	2268.9	1484.15
814.9802	465.3639	2279.55	1492.25
815.1241	467.5306	2264.8	1479
815.2681	469.6967	2255.8	1470.25
815.412	471.8622	2252.05	1464.9
815.556	474.0271	2243.05	1456.75
815.7	476.1914	2250.45	1460.75
815.844	478.3551	2246.5	1457.55
815.988	480.5182	2239.5	1449.8
816.132	482.6807	2249.7	1457.05
816.276	484.8426	2254.15	1462.55
816.4201	487.0039	2284.6	1494.45
816.5641	489.1647	2318.55	1526.5
816.7082	491.3248	2352.55	1560.25
816.8522	493.4843	2355.55	1563.45
816.9963	495.6432	2350.2	1556.4
817.1404	497.8015	2333.85	1537.95
817.2845	499.9592	2313.55	1520.25
817.4286	502.1163	2265.4	1470.1
817.5727	504.2728	2241.55	1444.55
817.7168	506.4287	2224.9	1431.65
817.861	508.5839	2207.75	1411.75
818.0051	510.7386	2197.35	1403.05
818.1493	512.8927	2207.7	1403.4
818.2935	515.0461	2198.95	1400.55
818.4377	517.199	2209.95	1412.5
818.5818	519.3512	2233.75	1435.55
818.726	521.5029	2285.1	1478.8
818.8703	523.6539	2325.2	1523.95
819.0145	525.8043	2329.45	1527.3
819.1587	527.9541	2306.5	1504.05
819.303	530.1033	2246.5	1443.8
819.4472	532.2519	2199.65	1397.45
819.5915	534.3999	2203.95	1398.9
819.7357	536.5472	2187.05	1380.8
819.88	538.694	2180	1375.65
820.0243	540.8401	2193.3	1386.75
820.1686	542.9856	2200.4	1394.1
820.3129	545.1305	2216.25	1408.4
820.4572	547.2748	2225.85	1417.7
820.6016	549.4185	2228	1418.75
820.7459	551.5615	2216.25	1408.55
820.8902	553.704	2234.7	1424.4
821.0346	555.8458	2247.15	1437.45
821.1789	557.987	2262.6	1451.85
821.3233	560.1276	2272.85	1461.7
821.4677	562.2675	2308.25	1497.75
821.6121	564.4069	2373.25	1561.55
821.7565	566.5456	2393.1	1582.55
821.9009	568.6837	2388.1	1575.95
822.0453	570.8212	2312.15	1499.25
822.1897	572.958	2266	1453
822.3342	575.0942	2243.95	1433.25
822.4786	577.2299	2225.2	1412.75
822.6231	579.3648	2189.1	1375.7
822.7675	581.4992	2171.45	1358.4
822.912	583.6329	2179.45	1364.15
823.0565	585.766	2183.85	1370.95
823.201	587.8985	2214.95	1400.8
823.3454	590.0304	2262.9	1436.5
823.4899	592.1616	2275.2	1458.35
823.6345	594.2922	2286.5	1470.5
823.779	596.4222	2251.4	1433.2
823.9235	598.5515	2198.25	1381.25
824.068	600.6802	2164.8	1345.4
824.2126	602.8083	2127.3	1309.6
824.3571	604.9358	2127.95	1307.65
824.5017	607.0626	2103.35	1282.7
824.6462	609.1888	2123.15	1302.95
824.7908	611.3144	2136.25	1313.75
824.9354	613.4393	2164.65	1344.55
825.08	615.5636	2197.8	1376.4
825.2246	617.6873	2220.5	1399.1
825.3692	619.8103	2254	1430.25
825.5138	621.9327	2251.65	1425.5
825.6584	624.0544	2236.5	1414.7
825.803	626.1756	2188.05	1366.35
825.9477	628.2961	2155.1	1333.5
826.0923	630.4159	2123.85	1298.95
826.237	632.5351	2123.4	1297.85
826.3816	634.6537	2124.85	1299.6
826.5263	636.7716	2117.4	1291.9
826.6709	638.8889	2121.8	1295.45
826.8156	641.0056	2120.15	1294.55
826.9603	643.1216	2127.55	1299.5
827.105	645.237	2143.6	1313.2
827.2497	647.3518	2107.05	1277.65
827.3944	649.4659	2089.15	1262.5
827.5391	651.5793	2085.5	1255.85
827.6838	653.6922	2069	1242.45
827.8285	655.8043	2063.95	1234.2
827.9733	657.9159	2052.6	1220.45
828.118	660.0268	2048	1216.1
828.2627	662.137	2047	1214.7
828.4075	664.2466	2049.4	1216.4
828.5522	666.3556	2029.25	1196.9
828.697	668.4639	2033.35	1195.35
828.8418	670.5716	2036.55	1204.25
828.9865	672.6786	2035.1	1200.95
829.1313	674.785	2023.4	1188.75
829.2761	676.8907	2006.1	1173.55
829.4209	678.9958	2020.25	1186.65
829.5657	681.1002	2006.95	1172.1
829.7105	683.204	2012.2	1173.8
829.8553	685.3072	2010.4	1171.6
830.0001	687.4097	2014.3	1178.4
830.1449	689.5115	2015.5	1178.35
830.2898	691.6127	2010.05	1174.05
830.4346	693.7132	2008.2	1171.8
830.5794	695.8131	2029.95	1178
830.7243	697.9123	2015.5	1176.7
830.8691	700.0109	2017.85	1180
831.014	702.1089	2015.8	1178.4
831.1588	704.2061	2028.45	1191
831.3037	706.3028	2037.7	1197.1
831.4486	708.3987	2067.5	1227
831.5935	710.4941	2074.55	1235.05
831.7383	712.5887	2066.5	1224.3
831.8832	714.6827	2075	1232.5
832.0281	716.7761	2060.15	1220.1
832.173	718.8688	2054.45	1213.4
832.3179	720.9608	2059.25	1214.45
832.4628	723.0522	2063.05	1219.1
832.6077	725.1429	2064.75	1226.4
832.7527	727.233	2103.45	1259.9
832.8976	729.3224	2145.65	1301.45
833.0425	731.4112	2188.25	1345.95
833.1874	733.4993	2188.1	1341.2
833.3324	735.5867	2164.15	1318.75
833.4773	737.6735	2110.9	1265.1
833.6222	739.7596	2083.35	1237.25
833.7672	741.845	2054.8	1210
833.9122	743.9298	2057.4	1208.95
834.0571	746.014	2064.55	1220.4
834.2021	748.0974	2090	1242.8
834.347	750.1802	2065.7	1219
834.492	752.2624	2069.7	1222.95
834.637	754.3439	2051	1202.5
834.782	756.4247	2053.8	1196
834.9269	758.5048	2036.85	1191.05
835.0719	760.5843	2042.3	1195.85
835.2169	762.6631	2053.8	1205.55
835.3619	764.7413	2089.15	1242.35
835.5069	766.8188	2135.3	1283.5
835.6519	768.8956	2202.2	1353
835.7969	770.9718	2239.45	1388.9
835.9419	773.0473	2230.65	1384.15
836.0869	775.1221	2199.95	1351.8
836.232	777.1962	2186.5	1339.6
836.377	779.2697	2236.75	1386
836.522	781.3426	2311	1449.45
836.667	783.4147	2367.25	1516.5
836.8121	785.4862	2350.8	1502.25
836.9571	787.557	2290.95	1440.95
837.1021	789.6271	2195.25	1341.7
837.2472	791.6966	2097.05	1246.45
837.3922	793.7654	2037.15	1184.4
837.5373	795.8335	2003.9	1153
837.6823	797.901	1967.8	1115.5
837.8274	799.9678	1972.8	1118.45
837.9724	802.0339	1972.05	1120.6
838.1175	804.0993	1975.1	1114.8
838.2626	806.1641	1958.25	1103.4
838.4076	808.2282	1953.7	1102.4
838.5527	810.2916	1941	1085.6
838.6978	812.3544	1927.8	1075.95
838.8428	814.4164	1913.75	1063.3
838.9879	816.4778	1934.8	1081.6
839.133	818.5385	1935.9	1082.5
839.2781	820.5986	1952.65	1100.85
839.4232	822.658	1986.05	1129.6
839.5682	824.7166	2041.5	1189.8
839.7133	826.7747	2098.6	1243.8
839.8584	828.832	2139.85	1286.7
840.0035	830.8886	2185.55	1329.9
840.1486	832.9446	2201.15	1346.2
840.2937	834.9999	2180.45	1326.55
840.4388	837.0545	2143.65	1284.85
840.5839	839.1085	2068.25	1212.5
840.729	841.1618	2024.8	1167.45
840.8741	843.2143	1977.3	1122.3
841.0192	845.2662	1952.35	1098.3
841.1643	847.3175	1945.4	1089.7
841.3095	849.368	1931.35	1073.75
841.4546	851.4179	1924	1068.7
841.5997	853.467	1925.1	1067.7
841.7448	855.5155	1925.65	1068.4
841.8899	857.5633	1937.65	1079.9
842.0351	859.6105	1925.05	1068.3
842.1802	861.6569	1921.95	1066.25
842.3253	863.7027	1902.45	1041.8
842.4704	865.7478	1892.45	1036.05
842.6156	867.7922	1895.9	1039.1
842.7607	869.8359	1885.75	1028.75
842.9058	871.8789	1878.1	1020.1
843.0509	873.9212	1905.4	1012.25
843.1961	875.9629	1869.75	1011.7
843.3412	878.0039	1886.35	1025.5
843.4863	880.0441	1889.1	1029.2
843.6315	882.0837	1897.1	1036.5
843.7766	884.1226	1923.35	1061.25
843.9218	886.1609	1947.9	1088.45
844.0669	888.1984	1981.9	1122.25
844.212	890.2352	2017.15	1157.25
844.3572	892.2714	2024.95	1162.45
844.5023	894.3069	2008.4	1147.3
844.6475	896.3416	1966.85	1104.25
844.7926	898.3757	1941.4	1081
844.9377	900.4091	1914.8	1051.8
845.0829	902.4418	1920.6	1054.15
845.228	904.4739	1928.3	1065.05
845.3732	906.5052	1944.55	1081.6
845.5183	908.5358	1935.45	1076.7
845.6635	910.5658	1931.75	1068.85
845.8086	912.595	1899.5	1038.2
845.9538	914.6236	1868.15	1006.3
846.0989	916.6515	1858.35	997.7
846.2441	918.6786	1837.55	975.55
846.3892	920.7051	1826	960.75
846.5344	922.7309	1831.7	968.85
846.6795	924.756	1827.1	964.3
846.8246	926.7804	1830.5	964.1
846.9698	928.8041	1829.4	964.75
847.1149	930.8272	1851.3	989.5
847.2601	932.8495	1849.3	983.1
847.4052	934.8711	1860.25	998.5
847.5504	936.892	1867.15	1003.15
847.6955	938.9123	1868.85	1004.15
847.8407	940.9318	1884.55	1019.85
847.9858	942.9506	1891.85	1025.55
848.131	944.9688	1892.35	1027.75
848.2761	946.9862	1875.9	1011.15
848.4213	949.003	1845.65	979.6
848.5664	951.019	1826.6	960.9
848.7115	953.0344	1816.85	950.35
848.8567	955.0491	1808.9	942.4
849.0018	957.063	1812.05	944.4
849.147	959.0763	1801.6	934.8
849.2921	961.0888	1803.55	935.2
849.4373	963.1007	1796.15	929.2
849.5824	965.1119	1789	923.45
849.7275	967.1223	1780.2	914.1
849.8727	969.1321	1778.85	914.05
850.0178	971.1412	1781.65	914.7
850.1629	973.1495	1761.1	892.8
850.3081	975.1572	1811.2	889.65
850.4532	977.1641	1770.9	906.9
850.5983	979.1704	1768.7	899.2
850.7435	981.1759	1765.25	895.2
850.8886	983.1808	1756.7	889.15
851.0337	985.1849	1752.3	872.3
851.1788	987.1884	1748.2	878.1
851.324	989.1911	1754.6	883.4
851.4691	991.1932	1756.75	886.3
851.6142	993.1945	1758.25	891.25
851.7593	995.1951	1749.2	882.4
851.9045	997.1951	1756.9	882.8
852.0496	999.1943	1748.9	881.35
852.1947	1001.1928	1738.45	870.45
852.3398	1003.1906	1750.55	882.75
852.4849	1005.1877	1767.85	898.55
852.63	1007.1841	1779.3	910.1
852.7751	1009.1798	1794	926.55
852.9202	1011.1748	1785.35	915.95
853.0653	1013.1691	1764.45	892.65
853.2104	1015.1627	1741.5	871.75
853.3555	1017.1556	1721.85	851.15
853.5006	1019.1477	1716.45	845.05
853.6457	1021.1392	1685.45	816.45
853.7908	1023.1299	1676.45	807
853.9359	1025.12	1685.4	815.05
854.081	1027.1093	1683.8	812.4
854.2261	1029.0979	1688.75	822.05
854.3712	1031.0859	1710.55	840
854.5163	1033.0731	1721.65	849.05
854.6613	1035.0596	1709.6	839.7
854.8064	1037.0454	1707.1	834.65
854.9515	1039.0304	1695.8	826.35
855.0965	1041.0148	1683.05	813.05
855.2416	1042.9985	1661.05	789.35
855.3867	1044.9814	1660.25	790.55
855.5317	1046.9636	1651.9	779.35
855.6768	1048.9452	1652.1	782.3
855.8219	1050.926	1661.4	792.7
855.9669	1052.9061	1673.1	803.4
856.112	1054.8855	1677.25	805.9
856.257	1056.8642	1675.4	805.35
856.4021	1058.8421	1677.2	801.9
856.5471	1060.8194	1676.25	804.5
856.6921	1062.7959	1667.75	797.2
856.8372	1064.7717	1673.95	801.05
856.9822	1066.7469	1667.6	795.7
857.1272	1068.7213	1666.05	791.2
857.2723	1070.695	1671	797.95
857.4173	1072.6679	1682.9	808.9
857.5623	1074.6402	1699.3	827.05
857.7073	1076.6117	1701.65	826.65
857.8523	1078.5826	1694	821.1
857.9973	1080.5527	1669.4	793.65
858.1423	1082.5221	1648.15	776.1
858.2873	1084.4908	1628.4	754.4
858.4323	1086.4587	1615.6	741.25
858.5773	1088.426	1603.4	728.95
858.7223	1090.3925	1600.95	722.2
858.8673	1092.3584	1611.65	740.4
859.0123	1094.3235	1611.3	737.05
859.1573	1096.2879	1618.45	742.9
859.3022	1098.2515	1629.6	754.4
859.4472	1100.2145	1649.15	774.75
859.5922	1102.1767	1664.05	786.1
859.7371	1104.1382	1689.15	817.7
859.8821	1106.099	1733.3	858.8
860.027	1108.0591	1760.7	887.7
860.172	1110.0185	1778.1	902.85
860.3169	1111.9771	1804.9	931.1
860.4619	1113.9351	1847.25	972.35
860.6068	1115.8923	1889.6	1015.7
860.7517	1117.8488	1909.3	1033.1
860.8967	1119.8045	1883.05	1010.1
861.0416	1121.7596	1817.4	942
861.1865	1123.7139	1740.35	864.4
861.3314	1125.6675	1697.05	822.15
861.4763	1127.6204	1688.75	813.2
861.6212	1129.5726	1700.55	823.9
861.7661	1131.524	1713.2	838.25
861.911	1133.4748	1681.8	805.5
862.0559	1135.4248	1634.55	756.65
862.2008	1137.3741	1606.95	733.3
862.3457	1139.3226	1581.65	706
862.4905	1141.2705	1580	704.9
862.6354	1143.2176	1588.9	707.5
862.7803	1145.164	1596.65	718.75
862.9251	1147.1097	1593.35	717.8
863.07	1149.0546	1582.65	705.55
863.2148	1150.9989	1567.7	692.25
863.3597	1152.9424	1551.7	673.4
863.5045	1154.8852	1544.6	667.75
863.6493	1156.8272	1537.45	662.5
863.7942	1158.7686	1541.65	657.95
863.939	1160.7092	1529.3	652.85
864.0838	1162.6491	1540.1	662.4
864.2286	1164.5883	1534.15	660.1
864.3734	1166.5267	1551.75	673.2
864.5182	1168.4644	1566.2	689.5
864.663	1170.4014	1573	691.2
864.8078	1172.3377	1597.55	721.6
864.9526	1174.2732	1624.45	748.7
865.0974	1176.2081	1676	799.8
865.2421	1178.1421	1772.15	891
865.3869	1180.0755	1848.3	972.3
865.5317	1182.0082	1892.2	1014.1
865.6764	1183.9401	1890.3	1012.65
865.8212	1185.8713	1828.5	950.75
865.9659	1187.8017	1736.3	861.25
866.1106	1189.7315	1666.7	791.75
866.2554	1191.6605	1637.25	730.35
866.4001	1193.5888	1579.65	701.4
866.5448	1195.5163	1558.45	680.55
866.6895	1197.4432	1537.4	659.75
866.8342	1199.3693	1529.85	653.7
866.9789	1201.2947	1519.5	637.7
867.1236	1203.2193	1505.05	626.65
867.2683	1205.1432	1511.2	632.65
867.413	1207.0664	1506.4	627.45
867.5576	1208.9889	1510	629.7
867.7023	1210.9106	1502.85	625.4
867.847	1212.8316	1496.6	618.5
867.9916	1214.7519	1510.15	621.8
868.1363	1216.6715	1510.55	632.2
868.2809	1218.5903	1515.35	638.85
868.4255	1220.5084	1526	648.25
868.5701	1222.4257	1540	661
868.7148	1224.3424	1548.45	670.25
868.8594	1226.2583	1558	674.8
869.004	1228.1735	1560.25	683.35
869.1486	1230.0879	1589.15	709.45
869.2932	1232.0016	1612	734.85
869.4377	1233.9146	1636.3	755.6
869.5823	1235.8269	1644.2	766.65
869.7269	1237.7384	1645.65	767.65
869.8715	1239.6492	1648.5	769.8
870.016	1241.5592	1658.1	778.95
870.1606	1243.4686	1683.55	805.65
870.3051	1245.3772	1720.4	839.3
870.4496	1247.285	1779.3	899.45
870.5941	1249.1922	1822.65	944.2
870.7387	1251.0986	1873.3	995.15
870.8832	1253.0042	1922.8	1041.1
