Software Version:	3.9.2.0
Unit SN:	10000200
Spectrometer SN:	6960
Date:	3/14/2024 12:32:57 PM
Data Line Index:	25
Spectral Points:	2048
Integration time (ms):	125
Averages:	20
Delay (ms):	30000
Sequence Number:	1
Processing:	dark subtract
Laser Power (mW):	300
Laser Current (mA):	823
Laser Diode Temp (C):	25.1
Laser Case Temp (C):	26.3
System Temp (C):	26.2
Spectrometer Temp (C):	23.8
CCD Temp (C):	0.009
Secondary Temp (C):	20.006
Heatsink Temp (C):	22.754
CCDPCB Temp (C):	36.474
SecondaryPCB Temp (C):	33.495

Wavelength	RamanShift	Raw Counts	Dark Subtracted
787.061	30.1047	417.25	3.75
787.2016	32.3739	413.85	2.4
787.3422	34.6426	417.8	5.05
787.4828	36.9109	423	9.75
787.6235	39.1787	425.8	7.55
787.7642	41.4461	430.95	7.85
787.9049	43.7131	433.5	7.75
788.0456	45.9796	437.3	8.15
788.1863	48.2456	441.2	8.55
788.3271	50.5112	446.75	8.6
788.4679	52.7764	450.8	13.7
788.6087	55.0411	455.25	11.9
788.7496	57.3054	458.15	11.4
788.8904	59.5692	463.95	16.45
789.0313	61.8326	469.45	17.45
789.1722	64.0955	472.9	17.6
789.3132	66.3579	479.8	17.05
789.4541	68.6199	483.85	20.65
789.5951	70.8815	494.1	26.75
789.7361	73.1426	507.5	38.15
789.8771	75.4032	542.1	68.95
790.0181	77.6634	605.4	128.3
790.1592	79.9231	761.2	278.65
790.3003	82.1824	1082.2	594.45
790.4414	84.4412	1629.2	1137.35
790.5825	86.6995	2330.75	1830.9
790.7237	88.9574	3030.45	2524.3
790.8648	91.2148	3525.15	3017.55
791.006	93.4717	3762.6	3248.45
791.1472	95.7282	3820.75	3302.9
791.2885	97.9842	3839.15	3320.15
791.4297	100.2398	3801.45	3279.5
791.571	102.4949	3775	3250.4
791.7123	104.7495	3736.95	3207.4
791.8536	107.0036	3723.2	3192.7
791.9949	109.2573	3669.15	3138.45
792.1363	111.5105	3605.25	3074.75
792.2777	113.7632	3541.05	3006.5
792.4191	116.0154	3482.5	2939.5
792.5605	118.2672	3398.85	2862.75
792.7019	120.5185	3327.7	2791.3
792.8434	122.7693	3243.85	2703.55
792.9849	125.0197	3186.45	2642.8
793.1264	127.2696	3112.95	2566.8
793.2679	129.519	3073.25	2524.15
793.4094	131.7679	3061.5	2509.6
793.551	134.0163	3045.2	2492.75
793.6926	136.2642	3029.95	2468.2
793.8342	138.5117	3025.75	2464.65
793.9758	140.7587	3025.7	2461
794.1175	143.0052	2989.8	2422.25
794.2591	145.2512	2954.9	2390.45
794.4008	147.4967	2926.4	2357
794.5425	149.7417	2868.95	2298.4
794.6842	151.9863	2851.85	2278.55
794.826	154.2304	2836.5	2260.5
794.9677	156.4739	2818.7	2237.75
795.1095	158.717	2820.9	2238.5
795.2513	160.9596	2836.2	2247.7
795.3931	163.2017	2862.3	2273
795.535	165.4433	2885.3	2296.8
795.6768	167.6844	2890.75	2298
795.8187	169.925	2866.55	2270.45
795.9606	172.1651	2823.4	2223.75
796.1025	174.4047	2800.85	2194.3
796.2445	176.6439	2756.5	2150.5
796.3864	178.8825	2737.05	2126.4
796.5284	181.1206	2716.6	2104.45
796.6704	183.3582	2698.45	2083.75
796.8124	185.5954	2703.25	2086.6
796.9544	187.832	2697.05	2078.15
797.0965	190.0681	2689.75	2069.1
797.2386	192.3037	2701.75	2076.1
797.3806	194.5388	2696.7	2070.7
797.5228	196.7734	2702.3	2072.4
797.6649	199.0075	2721.2	2086.4
797.807	201.2411	2727.65	2088.25
797.9492	203.4742	2750.1	2111.35
798.0914	205.7068	2773.6	2133.6
798.2336	207.9389	2778.85	2141.25
798.3758	210.1704	2795.35	2151.8
798.518	212.4015	2798.2	2149.7
798.6603	214.632	2812.35	2163.4
798.8025	216.862	2797.4	2155.2
798.9448	219.0915	2779	2142
799.0871	221.3205	2796.3	2162.9
799.2294	223.549	2791.15	2169.05
799.3718	225.777	2787.85	2162.85
799.5141	228.0044	2776.05	2147.05
799.6565	230.2314	2778.85	2151.85
799.7989	232.4578	2768.75	2140.35
799.9413	234.6837	2776.6	2141.95
800.0837	236.909	2752.25	2114.8
800.2262	239.1339	2754.8	2093.2
800.3687	241.3582	2745.65	2101.45
800.5111	243.582	2754.7	2084.25
800.6536	245.8053	2760.85	2096.5
800.7961	248.0281	2755.55	2096.2
800.9387	250.2503	2763.5	2099.15
801.0812	252.472	2760.1	2090.05
801.2238	254.6932	2768.1	2095.75
801.3664	256.9139	2767.3	2090.9
801.509	259.134	2773.45	2094.45
801.6516	261.3536	2791.85	2113.8
801.7942	263.5727	2808	2130.5
801.9369	265.7912	2843.15	2164.5
802.0795	268.0092	2888.3	2209.1
802.2222	270.2267	2932.4	2253.25
802.3649	272.4436	2961.75	2280.35
802.5076	274.6601	3003.85	2314.05
802.6504	276.8759	2995.2	2309.6
802.7931	279.0913	3022.35	2337.6
802.9359	281.3061	3032.75	2346.75
803.0787	283.5204	3051.45	2359.75
803.2215	285.7341	3075.75	2381.8
803.3643	287.9473	3093.95	2396.15
803.5071	290.16	3098.6	2396.3
803.6499	292.3721	3045	2349.15
803.7928	294.5837	3004.35	2306.65
803.9357	296.7947	2964.85	2266.35
804.0786	299.0052	2955.9	2255.5
804.2215	301.2152	2942.75	2241.6
804.3644	303.4246	2937.5	2239.2
804.5074	305.6334	2919.9	2219.45
804.6503	307.8418	2917.4	2213.55
804.7933	310.0495	2916.55	2211.45
804.9363	312.2568	2890.05	2188.5
805.0793	314.4635	2833.1	2131.3
805.2223	316.6696	2794.2	2087.85
805.3653	318.8752	2759.5	2046.55
805.5084	321.0802	2738.6	2031.7
805.6514	323.2847	2738.35	2029.4
805.7945	325.4887	2725.6	2017.65
805.9376	327.692	2728.75	2016.2
806.0807	329.8949	2765.8	2053.65
806.2238	332.0972	2793	2079.65
806.367	334.2989	2830.8	2114.25
806.5101	336.5001	2837.3	2119.55
806.6533	338.7007	2813.95	2096.9
806.7965	340.9008	2782.95	2066.3
806.9397	343.1003	2713.6	1991.5
807.0829	345.2992	2681.75	1959
807.2261	347.4976	2650	1924.85
807.3693	349.6955	2617.9	1890.85
807.5126	351.8927	2605.6	1877.6
807.6559	354.0895	2585.3	1846.95
807.7991	356.2856	2569.25	1838.25
807.9424	358.4812	2566.3	1835.95
808.0857	360.6763	2555.65	1823.35
808.2291	362.8707	2545.9	1813.3
808.3724	365.0646	2547.75	1811.15
808.5158	367.258	2553.25	1814.7
808.6591	369.4508	2575.2	1834.25
808.8025	371.643	2583.9	1841.05
808.9459	373.8346	2592.6	1849.8
809.0893	376.0257	2633.95	1887.2
809.2327	378.2162	2671.95	1923.65
809.3762	380.4062	2673.65	1922.85
809.5196	382.5956	2655.85	1903.05
809.6631	384.7844	2626.7	1878.95
809.8066	386.9726	2582.1	1830.35
809.9501	389.1603	2546.2	1794.15
810.0936	391.3474	2550	1771.7
810.2371	393.5339	2531.65	1779.45
810.3806	395.7199	2517.75	1769.3
810.5241	397.9052	2544.2	1798.4
810.6677	400.09	2575.2	1828.2
810.8113	402.2743	2601.25	1856.25
810.9548	404.4579	2634.55	1891.8
811.0984	406.641	2661.2	1917.2
811.2421	408.8235	2702.4	1956.9
811.3857	411.0054	2753.75	2003.3
811.5293	413.1868	2796.15	2047.35
811.673	415.3675	2875.25	2122.05
811.8166	417.5477	2899.35	2144.25
811.9603	419.7273	2845.15	2086.95
812.104	421.9064	2757.6	1991.2
812.2477	424.0848	2680.7	1917.7
812.3914	426.2627	2631.15	1868.6
812.5351	428.4399	2571.2	1805.85
812.6788	430.6166	2525.05	1758.1
812.8226	432.7928	2488.55	1717.15
812.9663	434.9683	2456.05	1688.05
813.1101	437.1432	2425.1	1654.4
813.2539	439.3176	2417.75	1647.85
813.3977	441.4914	2405.95	1634.25
813.5415	443.6645	2401.45	1626.25
813.6853	445.8371	2391.8	1615.3
813.8291	448.0091	2399.15	1626.2
813.973	450.1806	2386.2	1610
814.1168	452.3514	2363.5	1585.45
814.2607	454.5216	2381.65	1595.45
814.4046	456.6913	2374.8	1593.7
814.5485	458.8603	2372.2	1595.3
814.6924	461.0288	2380.05	1601.6
814.8363	463.1967	2380	1600
814.9802	465.3639	2377.65	1597.15
815.1241	467.5306	2364.55	1581.45
815.2681	469.6967	2360.9	1580.85
815.412	471.8622	2344.6	1564.2
815.556	474.0271	2340.4	1556.65
815.7	476.1914	2349.4	1563.2
815.844	478.3551	2347	1563.25
815.988	480.5182	2342.7	1558.75
816.132	482.6807	2345.2	1559.65
816.276	484.8426	2349.15	1563.5
816.4201	487.0039	2389.1	1602.45
816.5641	489.1647	2426.9	1638.05
816.7082	491.3248	2480.7	1692.3
816.8522	493.4843	2480.8	1692.2
816.9963	495.6432	2475.9	1685.75
817.1404	497.8015	2449.65	1657.35
817.2845	499.9592	2394.9	1605.75
817.4286	502.1163	2359.7	1570.65
817.5727	504.2728	2329.25	1534.85
817.7168	506.4287	2315.4	1522.45
817.861	508.5839	2292.95	1499.8
818.0051	510.7386	2287	1494.75
818.1493	512.8927	2295.3	1495.4
818.2935	515.0461	2296.35	1501.45
818.4377	517.199	2305.95	1511.85
818.5818	519.3512	2345.05	1549.8
818.726	521.5029	2401.8	1600.6
818.8703	523.6539	2442.05	1645.75
819.0145	525.8043	2449.95	1652.45
819.1587	527.9541	2411.5	1612.75
819.303	530.1033	2355.85	1557.5
819.4472	532.2519	2313.4	1514.85
819.5915	534.3999	2298.1	1499.2
819.7357	536.5472	2274.6	1472.85
819.88	538.694	2283.8	1481.55
820.0243	540.8401	2289.6	1488
820.1686	542.9856	2306.85	1504.5
820.3129	545.1305	2316.7	1514.5
820.4572	547.2748	2329.6	1527.8
820.6016	549.4185	2337.85	1532.25
820.7459	551.5615	2335.8	1533.4
820.8902	553.704	2345.6	1540.1
821.0346	555.8458	2361.1	1558.25
821.1789	557.987	2368.95	1563.85
821.3233	560.1276	2405.05	1599.3
821.4677	562.2675	2440.9	1634.9
821.6121	564.4069	2520.65	1715.35
821.7565	566.5456	2550	1743.95
821.9009	568.6837	2539.4	1730
822.0453	570.8212	2463.95	1655.25
822.1897	572.958	2401.5	1591.55
822.3342	575.0942	2351.1	1543.65
822.4786	577.2299	2329.5	1519.3
822.6231	579.3648	2292.7	1482.2
822.7675	581.4992	2272.85	1462.35
822.912	583.6329	2280.5	1467.85
823.0565	585.766	2296.1	1484.4
823.201	587.8985	2329.9	1519.25
823.3454	590.0304	2364.75	1540.75
823.4899	592.1616	2397.55	1579.45
823.6345	594.2922	2401.5	1587.55
823.779	596.4222	2379.85	1565.4
823.9235	598.5515	2334.2	1519.7
824.068	600.6802	2277.05	1462.2
824.2126	602.8083	2236.45	1420.4
824.3571	604.9358	2229.8	1414
824.5017	607.0626	2211.25	1394.9
824.6462	609.1888	2229.55	1410.5
824.7908	611.3144	2242.65	1423.65
824.9354	613.4393	2269.75	1452.25
825.08	615.5636	2313.7	1496.05
825.2246	617.6873	2350.55	1530.5
825.3692	619.8103	2381.6	1561.15
825.5138	621.9327	2383.15	1562.65
825.6584	624.0544	2369.55	1551.55
825.803	626.1756	2316.5	1498.3
825.9477	628.2961	2272.05	1451.7
826.0923	630.4159	2248.25	1428.05
826.237	632.5351	2233.7	1412.85
826.3816	634.6537	2225.1	1403.1
826.5263	636.7716	2218.9	1395.95
826.6709	638.8889	2201.4	1377.9
826.8156	641.0056	2225.1	1402.05
826.9603	643.1216	2231.2	1405.75
827.105	645.237	2246.1	1419.95
827.2497	647.3518	2227.15	1401.6
827.3944	649.4659	2199.2	1375.7
827.5391	651.5793	2179.4	1353.65
827.6838	653.6922	2174.05	1348.15
827.8285	655.8043	2155.1	1327.55
827.9733	657.9159	2150.15	1321.55
828.118	660.0268	2148.25	1316
828.2627	662.137	2133.15	1304.25
828.4075	664.2466	2146.05	1315.8
828.5522	666.3556	2139.85	1308.95
828.697	668.4639	2135.35	1301.85
828.8418	670.5716	2139.95	1311.9
828.9865	672.6786	2120.5	1288.5
829.1313	674.785	2113.95	1282.75
829.2761	676.8907	2110.45	1279.75
829.4209	678.9958	2101.6	1270.95
829.5657	681.1002	2108.7	1276.35
829.7105	683.204	2120.1	1283.85
829.8553	685.3072	2120.05	1286.75
830.0001	687.4097	2109.75	1276.65
830.1449	689.5115	2107.85	1273.6
830.2898	691.6127	2102.8	1268.05
830.4346	693.7132	2096.4	1259.45
830.5794	695.8131	2115.7	1266.65
830.7243	697.9123	2094.95	1258.8
830.8691	700.0109	2097.8	1263.8
831.014	702.1089	2111.65	1277.65
831.1588	704.2061	2125.3	1290.15
831.3037	706.3028	2143.3	1307.05
831.4486	708.3987	2154.6	1317.75
831.5935	710.4941	2161.75	1323.55
831.7383	712.5887	2179.25	1338.65
831.8832	714.6827	2177.1	1334.7
832.0281	716.7761	2164.8	1326.75
832.173	718.8688	2168.5	1327.95
832.3179	720.9608	2157.15	1314.85
832.4628	723.0522	2157.65	1316
832.6077	725.1429	2163.7	1324.05
832.7527	727.233	2208.5	1368.45
832.8976	729.3224	2259.7	1421.45
833.0425	731.4112	2292.75	1452.25
833.1874	733.4993	2313.3	1469.65
833.3324	735.5867	2292.2	1449.65
833.4773	737.6735	2245.95	1403.75
833.6222	739.7596	2193.3	1349.9
833.7672	741.845	2159.35	1316.8
833.9122	743.9298	2164.35	1320.65
834.0571	746.014	2162.15	1320.5
834.2021	748.0974	2180.5	1336.9
834.347	750.1802	2176.8	1333.7
834.492	752.2624	2166.55	1322.8
834.637	754.3439	2155.45	1312.1
834.782	756.4247	2157.8	1303.95
834.9269	758.5048	2128.65	1286.3
835.0719	760.5843	2146.45	1302.15
835.2169	762.6631	2167.15	1321.2
835.3619	764.7413	2213.55	1369.95
835.5069	766.8188	2275.2	1428.7
835.6519	768.8956	2333.35	1485.25
835.7969	770.9718	2377	1532.55
835.9419	773.0473	2378.7	1532.1
836.0869	775.1221	2353.35	1507.65
836.232	777.1962	2321.1	1474.45
836.377	779.2697	2374.95	1527.6
836.522	781.3426	2473.15	1614.25
836.667	783.4147	2527.4	1677.45
836.8121	785.4862	2531.3	1685.45
836.9571	787.557	2472.65	1623.8
837.1021	789.6271	2343.6	1495.05
837.2472	791.6966	2247.35	1400.4
837.3922	793.7654	2167.65	1317.35
837.5373	795.8335	2108.1	1259.6
837.6823	797.901	2084.1	1235.5
837.8274	799.9678	2068.6	1216.7
837.9724	802.0339	2066.2	1218.35
838.1175	804.0993	2074.45	1215.45
838.2626	806.1641	2080.9	1229.5
838.4076	808.2282	2051.25	1202.8
838.5527	810.2916	2049.9	1196
838.6978	812.3544	2021.05	1170.65
838.8428	814.4164	2013.2	1164.2
838.9879	816.4778	2022.1	1170.65
839.133	818.5385	2026.05	1174.5
839.2781	820.5986	2061.4	1207.5
839.4232	822.658	2093.3	1239
839.5682	824.7166	2147.55	1297.45
839.7133	826.7747	2219.7	1368.65
839.8584	828.832	2272.9	1419.5
840.0035	830.8886	2324.1	1468.8
840.1486	832.9446	2359.85	1505.3
840.2937	834.9999	2335.3	1483.8
840.4388	837.0545	2278.35	1420.8
840.5839	839.1085	2208.25	1353.05
840.729	841.1618	2153	1295.6
840.8741	843.2143	2091	1239.25
841.0192	845.2662	2059.9	1206.3
841.1643	847.3175	2047.1	1194.9
841.3095	849.368	2036.25	1183.55
841.4546	851.4179	2036.65	1182.1
841.5997	853.467	2027.95	1173.2
841.7448	855.5155	2034.2	1180.25
841.8899	857.5633	2034.8	1181.1
842.0351	859.6105	2025.8	1170.05
842.1802	861.6569	2017.8	1163.65
842.3253	863.7027	2006.3	1150.25
842.4704	865.7478	1997.95	1141.15
842.6156	867.7922	1988.2	1132
842.7607	869.8359	1983.6	1126.85
842.9058	871.8789	1978.25	1121.35
843.0509	873.9212	2002.85	1112.8
843.1961	875.9629	1970.45	1113.4
843.3412	878.0039	1976.5	1119.1
843.4863	880.0441	1989.65	1130.55
843.6315	882.0837	2004.75	1146
843.7766	884.1226	2018.7	1158.95
843.9218	886.1609	2058.2	1201.95
844.0669	888.1984	2093.9	1238.35
844.212	890.2352	2126.5	1270.05
844.3572	892.2714	2154.05	1290.35
844.5023	894.3069	2133.1	1274.8
844.6475	896.3416	2078.2	1217.05
844.7926	898.3757	2038.95	1179.1
844.9377	900.4091	2011.85	1152.55
845.0829	902.4418	2024.65	1159.85
845.228	904.4739	2041.45	1179.65
845.3732	906.5052	2060.85	1201.4
845.5183	908.5358	2054.45	1196.6
845.6635	910.5658	2043.4	1181.1
845.8086	912.595	2012.95	1150.35
845.9538	914.6236	1975.65	1116.15
846.0989	916.6515	1942.95	1084.55
846.2441	918.6786	1928.7	1065.05
846.3892	920.7051	1926.8	1065.4
846.5344	922.7309	1914.3	1054.7
846.6795	924.756	1924.7	1059.95
846.8246	926.7804	1932.2	1067.75
846.9698	928.8041	1928.45	1062.25
847.1149	930.8272	1947.95	1085.95
847.2601	932.8495	1948.6	1085.9
847.4052	934.8711	1959.35	1094.95
847.5504	936.892	1961.7	1099.05
847.6955	938.9123	1980.7	1116
847.8407	940.9318	2004.4	1141
847.9858	942.9506	2020.1	1156.45
848.131	944.9688	2012.45	1150.1
848.2761	946.9862	1988.25	1124.95
848.4213	949.003	1957.65	1093.4
848.5664	951.019	1938.55	1074.4
848.7115	953.0344	1930.55	1067.15
848.8567	955.0491	1911.05	1046.1
849.0018	957.063	1911.3	1048.45
849.147	959.0763	1898.05	1033.3
849.2921	961.0888	1893.05	1025.7
849.4373	963.1007	1889.9	1025.9
849.5824	965.1119	1883.45	1018.65
849.7275	967.1223	1874.35	1009.15
849.8727	969.1321	1873.55	1009.7
850.0178	971.1412	1864.95	1000.15
850.1629	973.1495	1862.45	996.45
850.3081	975.1572	1909.55	989.85
850.4532	977.1641	1871.3	1006.75
850.5983	979.1704	1861.8	995.25
850.7435	981.1759	1859.3	990.35
850.8886	983.1808	1844.55	977.55
851.0337	985.1849	1848.1	969.3
851.1788	987.1884	1839.4	971.35
851.324	989.1911	1846.85	976.5
851.4691	991.1932	1836.45	968.1
851.6142	993.1945	1851.2	982.95
851.7593	995.1951	1846.95	978.55
851.9045	997.1951	1843.2	970.15
852.0496	999.1943	1832.7	966.05
852.1947	1001.1928	1839.3	970.9
852.3398	1003.1906	1845.6	979.25
852.4849	1005.1877	1863.3	994
852.63	1007.1841	1882.55	1015.8
852.7751	1009.1798	1899.45	1032.25
852.9202	1011.1748	1888.1	1020.65
853.0653	1013.1691	1864.65	995.05
853.2104	1015.1627	1836.35	970.4
853.3555	1017.1556	1811.75	944.05
853.5006	1019.1477	1789.1	919.35
853.6457	1021.1392	1775.2	907.8
853.7908	1023.1299	1766.65	896.9
853.9359	1025.12	1757.85	886.45
854.081	1027.1093	1771.25	902.9
854.2261	1029.0979	1771	903.1
854.3712	1031.0859	1796.85	931.7
854.5163	1033.0731	1810.6	941.1
854.6613	1035.0596	1814	944.55
854.8064	1037.0454	1804.3	933.05
854.9515	1039.0304	1796.55	924.55
855.0965	1041.0148	1770.9	902.85
855.2416	1042.9985	1754.65	883.75
855.3867	1044.9814	1734.85	865.85
855.5317	1046.9636	1725.35	854.35
855.6768	1048.9452	1739.5	871.85
855.8219	1050.926	1753.1	886.75
855.9669	1052.9061	1764.45	895.85
856.112	1054.8855	1767.6	897.75
856.257	1056.8642	1765.95	895.9
856.4021	1058.8421	1771.6	897.1
856.5471	1060.8194	1753.5	882.25
856.6921	1062.7959	1763.15	892.65
856.8372	1064.7717	1757.75	886
856.9822	1066.7469	1757.5	886.4
857.1272	1068.7213	1762.1	887.7
857.2723	1070.695	1760.65	891.35
857.4173	1072.6679	1775.1	903.75
857.5623	1074.6402	1801.2	929.15
857.7073	1076.6117	1816.75	940.85
857.8523	1078.5826	1797.15	924.95
857.9973	1080.5527	1760.3	884.7
858.1423	1082.5221	1731.75	858.55
858.2873	1084.4908	1706.1	834.4
858.4323	1086.4587	1692.65	819.8
858.5773	1088.426	1687.9	814.75
858.7223	1090.3925	1679	802.25
858.8673	1092.3584	1686.25	814.35
859.0123	1094.3235	1687	814.45
859.1573	1096.2879	1702.85	830.5
859.3022	1098.2515	1713.3	841.1
859.4472	1100.2145	1738.15	866.35
859.5922	1102.1767	1763	887.75
859.7371	1104.1382	1783.95	909.25
859.8821	1106.099	1840.7	965.5
860.027	1108.0591	1872.1	998.85
860.172	1110.0185	1909.15	1036.35
860.3169	1111.9771	1933.25	1062.35
860.4619	1113.9351	1962.75	1089.4
860.6068	1115.8923	2025.2	1151.4
860.7517	1117.8488	2065.6	1190.8
860.8967	1119.8045	2038.3	1165.2
861.0416	1121.7596	1964.5	1087.95
861.1865	1123.7139	1857.5	983.05
861.3314	1125.6675	1803.9	930.2
861.4763	1127.6204	1798.35	925.6
861.6212	1129.5726	1824	947.55
861.7661	1131.524	1823.7	950.7
861.911	1133.4748	1789.6	916.1
862.0559	1135.4248	1736.2	860.35
862.2008	1137.3741	1693.95	820.5
862.3457	1139.3226	1673.65	796.9
862.4905	1141.2705	1662.5	786.75
862.6354	1143.2176	1682.85	802.75
862.7803	1145.164	1680.3	803.15
862.9251	1147.1097	1689.05	812.6
863.07	1149.0546	1672.6	796.2
863.2148	1150.9989	1657.35	782.1
863.3597	1152.9424	1633.15	757.1
863.5045	1154.8852	1625	748.45
863.6493	1156.8272	1617.65	742
863.7942	1158.7686	1613.05	729.05
863.939	1160.7092	1614.35	739.85
864.0838	1162.6491	1611.95	735.8
864.2286	1164.5883	1616.75	740.75
864.3734	1166.5267	1623.2	744.45
864.5182	1168.4644	1637.5	762.25
864.663	1170.4014	1667.4	785.6
864.8078	1172.3377	1687.65	814.15
864.9526	1174.2732	1721.75	846
865.0974	1176.2081	1790.25	914.55
865.2421	1178.1421	1876.2	994.35
865.3869	1180.0755	1992.1	1117.6
865.5317	1182.0082	2064.7	1188.7
865.6764	1183.9401	2061.2	1181.95
865.8212	1185.8713	1992.7	1115.85
865.9659	1187.8017	1881.8	1005.8
866.1106	1189.7315	1784.55	909.85
866.2554	1191.6605	1749.4	843.3
866.4001	1193.5888	1674.65	797.1
866.5448	1195.5163	1648.55	772.5
866.6895	1197.4432	1634.05	755.2
866.8342	1199.3693	1606.5	730.05
866.9789	1201.2947	1602.2	715.8
867.1236	1203.2193	1594.4	716.3
867.2683	1205.1432	1592.75	714.75
867.413	1207.0664	1578.7	700.95
867.5576	1208.9889	1584.7	705.15
867.7023	1210.9106	1581.55	705.25
867.847	1212.8316	1584.5	707.25
867.9916	1214.7519	1593.15	708.5
868.1363	1216.6715	1598.25	723.65
868.2809	1218.5903	1606.9	731.65
868.4255	1220.5084	1603.5	725.85
868.5701	1222.4257	1619.45	740.2
868.7148	1224.3424	1619.75	742.25
868.8594	1226.2583	1637.1	756.8
869.004	1228.1735	1657.5	778.1
869.1486	1230.0879	1678.35	800.7
869.2932	1232.0016	1715.05	838.9
869.4377	1233.9146	1739.4	858.65
869.5823	1235.8269	1754.7	877.25
869.7269	1237.7384	1757.45	877.9
869.8715	1239.6492	1752.65	874.55
870.016	1241.5592	1756.35	875.35
870.1606	1243.4686	1780.85	902.8
870.3051	1245.3772	1845.5	966
870.4496	1247.285	1902	1022.65
