Software Version:	3.9.2.0
Unit SN:	10000200
Spectrometer SN:	6960
Date:	3/14/2024 1:33:57 PM
Data Line Index:	25
Spectral Points:	2048
Integration time (ms):	125
Averages:	20
Delay (ms):	30000
Sequence Number:	1
Processing:	dark subtract
Laser Power (mW):	300
Laser Current (mA):	824
Laser Diode Temp (C):	25
Laser Case Temp (C):	28.6
System Temp (C):	28.6
Spectrometer Temp (C):	26.4
CCD Temp (C):	-0.003
Secondary Temp (C):	20.008
Heatsink Temp (C):	24.561
CCDPCB Temp (C):	38.163
SecondaryPCB Temp (C):	35.629

Wavelength	RamanShift	Raw Counts	Dark Subtracted
787.061	30.1047	466.8	56.7
787.2016	32.3739	473.45	64.5
787.3422	34.6426	476.3	65.5
787.4828	36.9109	483.1	72.25
787.6235	39.1787	493.7	79.45
787.7642	41.4461	503.25	82.9
787.9049	43.7131	513.65	90.5
788.0456	45.9796	520.15	94.2
788.1863	48.2456	532.1	99.4
788.3271	50.5112	541.4	105.3
788.4679	52.7764	552.1	113.95
788.6087	55.0411	560.95	119.95
788.7496	57.3054	572.35	124.35
788.8904	59.5692	583.75	134.6
789.0313	61.8326	598.3	145.5
789.1722	64.0955	617.8	158.5
789.3132	66.3579	634.2	171.15
789.4541	68.6199	655.1	189.7
789.5951	70.8815	689.45	220.4
789.7361	73.1426	782.55	310.25
789.8771	75.4032	1004.55	525
790.0181	77.6634	1548.95	1064.65
790.1592	79.9231	2887.95	2398.8
790.3003	82.1824	5787.5	5287.75
790.4414	84.4412	11089.95	10571.65
790.5825	86.6995	18537	17990.95
790.7237	88.9574	25939.35	25369.35
790.8648	91.2148	31101.15	30517.25
791.006	93.4717	33461.7	32866.5
791.1472	95.7282	33945.65	33345.9
791.2885	97.9842	33815.45	33213.3
791.4297	100.2398	33149.05	32545.35
791.571	102.4949	32380.25	31772.15
791.7123	104.7495	31440.3	30828.05
791.8536	107.0036	30558.1	29941.75
791.9949	109.2573	29704.95	29089.75
792.1363	111.5105	28930.2	28314.4
792.2777	113.7632	28254.4	27637.2
792.4191	116.0154	27721.85	27092.9
792.5605	118.2672	27326.6	26707.15
792.7019	120.5185	26867.75	26242.2
792.8434	122.7693	26533.95	25911.15
792.9849	125.0197	26321.3	25697.4
793.1264	127.2696	26054.45	25427.7
793.2679	129.519	25862.85	25230.5
793.4094	131.7679	25614.6	24981.45
793.551	134.0163	25374.05	24734.15
793.6926	136.2642	25039.05	24392.65
793.8342	138.5117	24704.25	24051
793.9758	140.7587	24336.35	23689.3
794.1175	143.0052	24027.2	23375.5
794.2591	145.2512	23672.1	23023.45
794.4008	147.4967	23387.55	22737.65
794.5425	149.7417	23153.15	22502.2
794.6842	151.9863	22937.25	22281.55
794.826	154.2304	22865.35	22205.8
794.9677	156.4739	22669.1	22004.7
795.1095	158.717	22615.4	21950.35
795.2513	160.9596	22438.3	21771
795.3931	163.2017	22160.9	21488.6
795.535	165.4433	21835.7	21168.7
795.6768	167.6844	21504.35	20831.45
795.8187	169.925	21141.6	20468.35
795.9606	172.1651	20754	20075.2
796.1025	174.4047	20483.2	19798.1
796.2445	176.6439	20218.8	19537.4
796.3864	178.8825	19974.15	19286.7
796.5284	181.1206	19832.75	19141.25
796.6704	183.3582	19667.9	18972.45
796.8124	185.5954	19560.1	18865.95
796.9544	187.832	19469.05	18770.9
797.0965	190.0681	19447.35	18747.3
797.2386	192.3037	19469.15	18764.25
797.3806	194.5388	19411.3	18703.25
797.5228	196.7734	19416.65	18706.75
797.6649	199.0075	19475.95	18761.3
797.807	201.2411	19628.45	18912.55
797.9492	203.4742	19687.6	18973.25
798.0914	205.7068	19866.55	19151.7
798.2336	207.9389	19982.75	19264.85
798.3758	210.1704	20142.25	19423.45
798.518	212.4015	20256.7	19535.4
798.6603	214.632	20411.9	19689.05
798.8025	216.862	20532.1	19820
798.9448	219.0915	20628	19920.6
799.0871	221.3205	20782.45	20076.9
799.2294	223.549	20892.6	20191.25
799.3718	225.777	21034.25	20334.55
799.5141	228.0044	21184.3	20479.15
799.6565	230.2314	21424.4	20723.95
799.7989	232.4578	21616.65	20913.2
799.9413	234.6837	21821.1	21109.9
800.0837	236.909	21935.65	21224.25
800.2262	239.1339	21913.05	21176.9
800.3687	241.3582	21805.85	21085.65
800.5111	243.582	21643.1	20896.4
800.6536	245.8053	21493.8	20753.05
800.7961	248.0281	21356.45	20622.4
800.9387	250.2503	21285.6	20548.25
801.0812	252.472	21297.7	20555.25
801.2238	254.6932	21394.7	20650.85
801.3664	256.9139	21427.1	20678
801.509	259.134	21589.35	20839.55
801.6516	261.3536	21746.3	20997.05
801.7942	263.5727	21994.7	21241.75
801.9369	265.7912	22178.85	21428.6
802.0795	268.0092	22397.5	21653.15
802.2222	270.2267	22548.15	21799.1
802.3649	272.4436	22615.9	21863.1
802.5076	274.6601	22575.1	21815.35
802.6504	276.8759	22502.05	21744.2
802.7931	279.0913	22380.75	21621.9
802.9359	281.3061	22262.85	21503.5
803.0787	283.5204	22231.6	21472.6
803.2215	285.7341	22194.85	21431.1
803.3643	287.9473	22242.5	21468.9
803.5071	290.16	22330.75	21562.5
803.6499	292.3721	22492.15	21727.6
803.7928	294.5837	22733.1	21967.55
803.9357	296.7947	22967.3	22201.3
804.0786	299.0052	23175.95	22411.05
804.2215	301.2152	23091.75	22320.45
804.3644	303.4246	22905.05	22141.05
804.5074	305.6334	22453.85	21689.6
804.6503	307.8418	21962.2	21193.5
804.7933	310.0495	21484.65	20716.6
804.9363	312.2568	21089.35	20320.15
805.0793	314.4635	20670.05	19898.75
805.2223	316.6696	20447.45	19677.55
805.3653	318.8752	20227.7	19447.85
805.5084	321.0802	20184.1	19408.45
805.6514	323.2847	20193.95	19418.05
805.7945	325.4887	20221.65	19448.35
805.9376	327.692	20173.4	19398.55
806.0807	329.8949	20141.65	19367.55
806.2238	332.0972	19892.85	19115.85
806.367	334.2989	19656.45	18876.5
806.5101	336.5001	19353.1	18571.75
806.6533	338.7007	19147	18366.45
806.7965	340.9008	19008.2	18226.55
806.9397	343.1003	18857.65	18072.45
807.0829	345.2992	18754.25	17969.7
807.2261	347.4976	18640.1	17852.25
807.3693	349.6955	18546.4	17756.35
807.5126	351.8927	18546.95	17754.65
807.6559	354.0895	18450.35	17649.75
807.7991	356.2856	18423.95	17629.55
807.9424	358.4812	18361.6	17569.85
808.0857	360.6763	18392.75	17601.6
808.2291	362.8707	18340.2	17546.3
808.3724	365.0646	18408.8	17611.15
808.5158	367.258	18426.55	17626.6
808.6591	369.4508	18444.95	17643
808.8025	371.643	18576.75	17777.75
808.9459	373.8346	18586.3	17783.45
809.0893	376.0257	18631.4	17823.15
809.2327	378.2162	18613.45	17808.5
809.3762	380.4062	18587	17778.45
809.5196	382.5956	18447.4	17637.05
809.6631	384.7844	18320.85	17510.55
809.8066	386.9726	18159.05	17347.95
809.9501	389.1603	18059.4	17250.9
810.0936	391.3474	17992.75	17149.2
810.2371	393.5339	17947.6	17137.65
810.3806	395.7199	17876.7	17070.1
810.5241	397.9052	17920.2	17117.4
810.6677	400.09	17932.8	17131.4
810.8113	402.2743	18038.8	17237.85
810.9548	404.4579	18184.55	17385.5
811.0984	406.641	18413.15	17611.4
811.2421	408.8235	18538.9	17734.85
811.3857	411.0054	18727.15	17921.55
811.5293	413.1868	19007.8	18199.85
811.673	415.3675	19096.9	18291.7
811.8166	417.5477	19146.5	18342
811.9603	419.7273	19157.65	18352.05
812.104	421.9064	19039.1	18219.75
812.2477	424.0848	18948.75	18134.1
812.3914	426.2627	18723.4	17906.8
812.5351	428.4399	18457.95	17639.2
812.6788	430.6166	18104.45	17286.1
812.8226	432.7928	17765.6	16943.95
812.9663	434.9683	17408.5	16584.7
813.1101	437.1432	17166.25	16343.1
813.2539	439.3176	16951.6	16130.15
813.3977	441.4914	16825.25	15999.65
813.5415	443.6645	16762.15	15935.05
813.6853	445.8371	16714.65	15887.65
813.8291	448.0091	16598.3	15772.85
813.973	450.1806	16567.4	15743.55
814.1168	452.3514	16509.5	15679.9
814.2607	454.5216	16575.45	15739.2
814.4046	456.6913	16515.15	15689.45
814.5485	458.8603	16539.6	15710.65
814.6924	461.0288	16582.55	15755.2
814.8363	463.1967	16568.05	15742
814.9802	465.3639	16597.6	15764.7
815.1241	467.5306	16559	15727.3
815.2681	469.6967	16626.35	15793.95
815.412	471.8622	16630.7	15803.6
815.556	474.0271	16721.15	15890.85
815.7	476.1914	16735.3	15901.8
815.844	478.3551	16714	15885.1
815.988	480.5182	16750.1	15917.75
816.132	482.6807	16837.95	16004
816.276	484.8426	17028.75	16197.65
816.4201	487.0039	17303.4	16466.1
816.5641	489.1647	17688.65	16854.15
816.7082	491.3248	18034.6	17198.95
816.8522	493.4843	18198.2	17365.75
816.9963	495.6432	18147.55	17314.35
817.1404	497.8015	17977.4	17142.45
817.2845	499.9592	17879.3	17045.45
817.4286	502.1163	17718.75	16883.7
817.5727	504.2728	17391.45	16551.65
817.7168	506.4287	17072.15	16234.05
817.861	508.5839	16672.25	15836.85
818.0051	510.7386	16452	15616.15
818.1493	512.8927	16347.4	15502.25
818.2935	515.0461	16264.35	15427.45
818.4377	517.199	16277.25	15438.2
818.5818	519.3512	16390.8	15551.65
818.726	521.5029	16625.25	15780.05
818.8703	523.6539	16826	15984.5
819.0145	525.8043	16909.05	16065.85
819.1587	527.9541	16837.25	15996.35
819.303	530.1033	16666.75	15823.6
819.4472	532.2519	16584.65	15743.45
819.5915	534.3999	16532.95	15688.6
819.7357	536.5472	16640.55	15795.95
819.88	538.694	16913.05	16067.15
820.0243	540.8401	17242.15	16396.25
820.1686	542.9856	17534.35	16690.5
820.3129	545.1305	17569.15	16724.1
820.4572	547.2748	17488.65	16642
820.6016	549.4185	17250.4	16404.5
820.7459	551.5615	16983.8	16138.95
820.8902	553.704	16936.8	16090.55
821.0346	555.8458	16943.65	16094.75
821.1789	557.987	17082.65	16235
821.3233	560.1276	17258.1	16408.5
821.4677	562.2675	17550.85	16708.2
821.6121	564.4069	17964.15	17118.7
821.7565	566.5456	18294.25	17450.1
821.9009	568.6837	18423.15	17578.2
822.0453	570.8212	18028.5	17181.4
822.1897	572.958	17384.85	16536.1
822.3342	575.0942	16785.4	15939.5
822.4786	577.2299	16326.3	15479.1
822.6231	579.3648	16175.25	15327.25
822.7675	581.4992	16112.15	15262.75
822.912	583.6329	16207.05	15355.3
823.0565	585.766	16379.65	15529.3
823.201	587.8985	16549.4	15703.15
823.3454	590.0304	16559.75	15684.65
823.4899	592.1616	16504.35	15651.15
823.6345	594.2922	16343.2	15491.05
823.779	596.4222	16103.55	15253.3
823.9235	598.5515	15894.65	15043.3
824.068	600.6802	15729.45	14876.25
824.2126	602.8083	15543.85	14692.35
824.3571	604.9358	15482.65	14629.55
824.5017	607.0626	15467.9	14616.95
824.6462	609.1888	15520.85	14666.85
824.7908	611.3144	15669.4	14815.1
824.9354	613.4393	15695.65	14843
825.08	615.5636	15758.55	14903.7
825.2246	617.6873	15686	14831.35
825.3692	619.8103	15677.75	14822.2
825.5138	621.9327	15456.65	14599.15
825.6584	624.0544	15262.3	14406.75
825.803	626.1756	15120.3	14266.3
825.9477	628.2961	14954.05	14098
826.0923	630.4159	14862.55	14006.4
826.237	632.5351	14844.45	13990.25
826.3816	634.6537	14777.8	13923.05
826.5263	636.7716	14773.3	13916.2
826.6709	638.8889	14775.25	13921.55
826.8156	641.0056	14802.6	13945
826.9603	643.1216	14755.95	13897.9
827.105	645.237	14751.65	13890.8
827.2497	647.3518	14655.75	13796.3
827.3944	649.4659	14599.65	13741.45
827.5391	651.5793	14532.9	13671.65
827.6838	653.6922	14499.15	13641.5
827.8285	655.8043	14455.65	13597.75
827.9733	657.9159	14451	13591.55
828.118	660.0268	14368.45	13506.6
828.2627	662.137	14375.75	13513.75
828.4075	664.2466	14362.75	13500.35
828.5522	666.3556	14360.6	13498.55
828.697	668.4639	14287.4	13419.25
828.8418	670.5716	14267.75	13406.6
828.9865	672.6786	14237.75	13375.6
829.1313	674.785	14179.4	13313.3
829.2761	676.8907	14176.7	13315.3
829.4209	678.9958	14203.8	13341.55
829.5657	681.1002	14155.9	13292.95
829.7105	683.204	14155.7	13285.25
829.8553	685.3072	14105.7	13239.75
830.0001	687.4097	14048.2	13182.7
830.1449	689.5115	14000.4	13134.15
830.2898	691.6127	13979.45	13116.35
830.4346	693.7132	13970.45	13103.3
830.5794	695.8131	13957	13076.85
830.7243	697.9123	13949.1	13082.7
830.8691	700.0109	13925.3	13060.6
831.014	702.1089	13931.55	13066.55
831.1588	704.2061	13954.45	13088.35
831.3037	706.3028	13984.95	13116
831.4486	708.3987	14003.5	13139.95
831.5935	710.4941	14045.1	13178.9
831.7383	712.5887	14125.15	13258.8
831.8832	714.6827	14236.65	13366.35
832.0281	716.7761	14414.65	13547.3
832.173	718.8688	14649.65	13784.3
832.3179	720.9608	14782.5	13911.85
832.4628	723.0522	14915.9	14043.45
832.6077	725.1429	14918.7	14051.95
832.7527	727.233	14885.45	14014.9
832.8976	729.3224	14862.5	13994.05
833.0425	731.4112	14698	13828.8
833.1874	733.4993	14517.05	13646.85
833.3324	735.5867	14299.55	13430.5
833.4773	737.6735	14075	13203.9
833.6222	739.7596	13903.25	13033.45
833.7672	741.845	13783.65	12912.9
833.9122	743.9298	13668.3	12796.85
834.0571	746.014	13612.75	12744.25
834.2021	748.0974	13542.4	12672.1
834.347	750.1802	13584.65	12713
834.492	752.2624	13620.15	12751.1
834.637	754.3439	13635.3	12763.75
834.782	756.4247	13712.5	12835.1
834.9269	758.5048	13838.75	12969.8
835.0719	760.5843	14143.6	13275.45
835.2169	762.6631	14524.55	13653.4
835.3619	764.7413	15077.45	14209.4
835.5069	766.8188	15778.2	14908.25
835.6519	768.8956	16343.85	15471.05
835.7969	770.9718	16712.75	15839.25
835.9419	773.0473	16638.7	15767.8
836.0869	775.1221	16356.55	15483.5
836.232	777.1962	16038.1	15166.55
836.377	779.2697	15863.45	14988.2
836.522	781.3426	15923.5	15042.15
836.667	783.4147	16075.2	15199.5
836.8121	785.4862	16180.45	15310.55
836.9571	787.557	16024.25	15152.65
837.1021	789.6271	15579.95	14705.75
837.2472	791.6966	14930.3	14056.45
837.3922	793.7654	14292.15	13416.65
837.5373	795.8335	13875.8	13002.35
837.6823	797.901	13565.75	12691.45
837.8274	799.9678	13368.15	12494.4
837.9724	802.0339	13290.7	12419.25
838.1175	804.0993	13255.05	12369.45
838.2626	806.1641	13222.9	12351.75
838.4076	808.2282	13145	12273.75
838.5527	810.2916	13029.2	12153.45
838.6978	812.3544	12948.95	12073.05
838.8428	814.4164	12841.5	11973.3
838.9879	816.4778	12866.4	11991.7
839.133	818.5385	12907.7	12034.45
839.2781	820.5986	13023.7	12153.05
839.4232	822.658	13216.2	12339.55
839.5682	824.7166	13496.2	12623.25
839.7133	826.7747	13942.45	13069.65
839.8584	828.832	14433.15	13558.4
840.0035	830.8886	14763.25	13886.95
840.1486	832.9446	14888.9	14016.1
840.2937	834.9999	14784.85	13913.5
840.4388	837.0545	14566.2	13687.8
840.5839	839.1085	14304.1	13426.95
840.729	841.1618	14022.65	13143.75
840.8741	843.2143	13771.3	12895.15
841.0192	845.2662	13554.9	12679.65
841.1643	847.3175	13427.15	12553.25
841.3095	849.368	13299.55	12424.2
841.4546	851.4179	13193.8	12321.25
841.5997	853.467	13042.2	12164
841.7448	855.5155	12964.5	12088.1
841.8899	857.5633	12901.15	12024
842.0351	859.6105	12746.5	11869.15
842.1802	861.6569	12654.75	11779.8
842.3253	863.7027	12556.8	11678.05
842.4704	865.7478	12516.05	11639.75
842.6156	867.7922	12491.7	11614.95
842.7607	869.8359	12473.05	11595.3
842.9058	871.8789	12514.55	11636.95
843.0509	873.9212	12610.9	11702.95
843.1961	875.9629	12685.15	11810.05
843.3412	878.0039	12810.05	11932.3
843.4863	880.0441	12905.25	12028.6
843.6315	882.0837	12961.05	12083.5
843.7766	884.1226	12933.65	12052.7
843.9218	886.1609	12957.85	12083.5
844.0669	888.1984	12992.75	12116.35
844.212	890.2352	13082.65	12206.6
844.3572	892.2714	13070.2	12190.85
844.5023	894.3069	13013.8	12137.65
844.6475	896.3416	12834.35	11956.7
844.7926	898.3757	12720.45	11844.15
844.9377	900.4091	12623.35	11745
845.0829	902.4418	12622.4	11736.35
845.228	904.4739	12641.15	11762.25
845.3732	906.5052	12675.3	11795.7
845.5183	908.5358	12604.15	11723.55
845.6635	910.5658	12469.1	11590.7
845.8086	912.595	12269.95	11392.1
845.9538	914.6236	12018.8	11140.3
846.0989	916.6515	11926	11046.95
846.2441	918.6786	11807.45	10927.8
846.3892	920.7051	11820.1	10939
846.5344	922.7309	11848.45	10969.05
846.6795	924.756	11858	10979.4
846.8246	926.7804	11960.95	11081.1
846.9698	928.8041	11915.9	11036.75
847.1149	930.8272	11969.05	11088.75
847.2601	932.8495	11891.35	11012.6
847.4052	934.8711	11894	11012.7
847.5504	936.892	11800.2	10922.05
847.6955	938.9123	11739.85	10861.1
847.8407	940.9318	11737.1	10855.95
847.9858	942.9506	11675.75	10795.85
848.131	944.9688	11604.6	10723.7
848.2761	946.9862	11522.65	10644.1
848.4213	949.003	11379.55	10497.95
848.5664	951.019	11279.1	10397.35
848.7115	953.0344	11221.65	10339.6
848.8567	955.0491	11202.1	10320.3
849.0018	957.063	11246.15	10364.6
849.147	959.0763	11325.55	10447.35
849.2921	961.0888	11345.4	10464.1
849.4373	963.1007	11404.15	10523.4
849.5824	965.1119	11433	10554.5
849.7275	967.1223	11411.3	10531.05
849.8727	969.1321	11388.5	10509.95
850.0178	971.1412	11386.9	10506.6
850.1629	973.1495	11354.9	10473.8
850.3081	975.1572	11393	10481
850.4532	977.1641	11414.1	10532.05
850.5983	979.1704	11347.4	10468
850.7435	981.1759	11327	10446.1
850.8886	983.1808	11339.95	10459.85
851.0337	985.1849	11368.2	10474.9
851.1788	987.1884	11430.05	10545.2
851.324	989.1911	11574.75	10689.3
851.4691	991.1932	11645.6	10761.1
851.6142	993.1945	11653.7	10773.6
851.7593	995.1951	11598.8	10719.25
851.9045	997.1951	11551.5	10664.5
852.0496	999.1943	11500.3	10619.15
852.1947	1001.1928	11499.95	10616.95
852.3398	1003.1906	11492.05	10613.35
852.4849	1005.1877	11623.55	10741.25
852.63	1007.1841	11686.5	10804.8
852.7751	1009.1798	11687.15	10804.4
852.9202	1011.1748	11552.1	10672.4
853.0653	1013.1691	11388.9	10508.5
853.2104	1015.1627	11162.85	10281
853.3555	1017.1556	10940.5	10057.9
853.5006	1019.1477	10815.65	9934.75
853.6457	1021.1392	10695.65	9815.3
853.7908	1023.1299	10660.65	9777.9
853.9359	1025.12	10637.45	9751.8
854.081	1027.1093	10690	9808.15
854.2261	1029.0979	10814.05	9934.65
854.3712	1031.0859	10883.2	10002.5
854.5163	1033.0731	10918.2	10034.35
854.6613	1035.0596	10873.7	9993.45
854.8064	1037.0454	10718.85	9835.25
854.9515	1039.0304	10606.15	9722.7
855.0965	1041.0148	10491	9610.15
855.2416	1042.9985	10374.4	9489.95
855.3867	1044.9814	10283.2	9402.8
855.5317	1046.9636	10215.8	9331.75
855.6768	1048.9452	10195.2	9313.95
855.8219	1050.926	10204.15	9323.55
855.9669	1052.9061	10256.8	9375.15
856.112	1054.8855	10250.05	9367.35
856.257	1056.8642	10289.35	9406.6
856.4021	1058.8421	10334.55	9448.25
856.5471	1060.8194	10373.1	9491.35
856.6921	1062.7959	10408.45	9526.7
856.8372	1064.7717	10432.3	9549.35
856.9822	1066.7469	10505.35	9620.95
857.1272	1068.7213	10557.5	9670.75
857.2723	1070.695	10622.35	9741.15
857.4173	1072.6679	10635.85	9753.15
857.5623	1074.6402	10614.05	9732.5
857.7073	1076.6117	10559.55	9671.55
857.8523	1078.5826	10484.4	9601.55
857.9973	1080.5527	10384.5	9499.7
858.1423	1082.5221	10323.2	9441.9
858.2873	1084.4908	10346.4	9464.6
858.4323	1086.4587	10377.9	9493.5
858.5773	1088.426	10439.45	9557.3
858.7223	1090.3925	10449.8	9561.3
858.8673	1092.3584	10456.15	9575.7
859.0123	1094.3235	10393.85	9513.7
859.1573	1096.2879	10429.15	9545.7
859.3022	1098.2515	10539.7	9657.6
859.4472	1100.2145	10702.3	9820.85
859.5922	1102.1767	10860.45	9974.85
859.7371	1104.1382	11065.6	10184.2
859.8821	1106.099	11322.9	10438.35
860.027	1108.0591	11542.75	10658.4
860.172	1110.0185	11692.1	10807.45
860.3169	1111.9771	11789.3	10907.4
860.4619	1113.9351	11663.6	10781.15
860.6068	1115.8923	11493.9	10609.45
860.7517	1117.8488	11310.95	10425.15
860.8967	1119.8045	11100.55	10217.25
861.0416	1121.7596	10934.25	10050.1
861.1865	1123.7139	10802.55	9921.5
861.3314	1125.6675	10771.3	9889.1
861.4763	1127.6204	10764.9	9881.95
861.6212	1129.5726	10719	9833.9
861.7661	1131.524	10663	9779.95
861.911	1133.4748	10529.05	9644.7
862.0559	1135.4248	10372.05	9488.75
862.2008	1137.3741	10233.25	9350.8
862.3457	1139.3226	10141.7	9255.05
862.4905	1141.2705	10063.35	9179.35
862.6354	1143.2176	9938.55	9047.35
862.7803	1145.164	9902.15	9016.75
862.9251	1147.1097	9863.1	8979.55
863.07	1149.0546	9777.95	8891.65
863.2148	1150.9989	9667.1	8782.7
863.3597	1152.9424	9552.9	8669.2
863.5045	1154.8852	9417.55	8534.25
863.6493	1156.8272	9359.5	8475.75
863.7942	1158.7686	9349.3	8459.55
863.939	1160.7092	9361.8	8475.5
864.0838	1162.6491	9385.95	8499.8
864.2286	1164.5883	9478.25	8595.5
864.3734	1166.5267	9594.8	8711.4
864.5182	1168.4644	9755.7	8874.1
864.663	1170.4014	9925.55	9038.8
864.8078	1172.3377	10194.75	9313.05
864.9526	1174.2732	10509.8	9624.15
865.0974	1176.2081	10891.3	10006.85
865.2421	1178.1421	11315.4	10427.55
865.3869	1180.0755	11835.9	10951.9
865.5317	1182.0082	12147.9	11267.25
865.6764	1183.9401	12315.25	11430.9
