Software Version:	3.9.2.0
Unit SN:	10000200
Spectrometer SN:	6960
Date:	3/14/2024 1:29:14 PM
Data Line Index:	25
Spectral Points:	2048
Integration time (ms):	125
Averages:	20
Delay (ms):	30000
Sequence Number:	1
Processing:	dark subtract
Laser Power (mW):	300
Laser Current (mA):	825
Laser Diode Temp (C):	25
Laser Case Temp (C):	28.5
System Temp (C):	28.5
Spectrometer Temp (C):	26.3
CCD Temp (C):	0.004
Secondary Temp (C):	20.007
Heatsink Temp (C):	24.445
CCDPCB Temp (C):	37.819
SecondaryPCB Temp (C):	35.607

Wavelength	RamanShift	Raw Counts	Dark Subtracted
787.061	30.1047	465.9	53.8
787.2016	32.3739	472.95	63.85
787.3422	34.6426	475.05	64.85
787.4828	36.9109	485.55	72.3
787.6235	39.1787	493.55	78.55
787.7642	41.4461	505.8	83.6
787.9049	43.7131	514.2	88.75
788.0456	45.9796	521.55	92.6
788.1863	48.2456	535.6	102.8
788.3271	50.5112	543.05	105.6
788.4679	52.7764	553.75	113.6
788.6087	55.0411	563.65	123.4
788.7496	57.3054	577	130.1
788.8904	59.5692	587.15	137.1
789.0313	61.8326	605.6	153
789.1722	64.0955	621.25	164.7
789.3132	66.3579	641.7	177.9
789.4541	68.6199	659.45	194.6
789.5951	70.8815	696.5	229.9
789.7361	73.1426	787.25	316.15
789.8771	75.4032	1016.15	540.7
790.0181	77.6634	1597.2	1114.8
790.1592	79.9231	2938	2448.05
790.3003	82.1824	5928.45	5425.45
790.4414	84.4412	11381.9	10858.9
790.5825	86.6995	19004.05	18457.65
790.7237	88.9574	26574.65	26004.05
790.8648	91.2148	31791.35	31204.4
791.006	93.4717	34198.7	33600.9
791.1472	95.7282	34688.15	34080.9
791.2885	97.9842	34575	33968.25
791.4297	100.2398	33808.7	33200.75
791.571	102.4949	33065.6	32452.3
791.7123	104.7495	32138.7	31519.2
791.8536	107.0036	31228.3	30609.35
791.9949	109.2573	30415.8	29801.15
792.1363	111.5105	29656.8	29038.05
792.2777	113.7632	28973.95	28353.5
792.4191	116.0154	28437.75	27807.4
792.5605	118.2672	28064.95	27438.45
792.7019	120.5185	27644.45	27020.2
792.8434	122.7693	27405.4	26776.8
792.9849	125.0197	27174.75	26540.8
793.1264	127.2696	26898.45	26266.75
793.2679	129.519	26738.85	26102.1
793.4094	131.7679	26410.2	25773.85
793.551	134.0163	26176.55	25531.5
793.6926	136.2642	25853.5	25206.45
793.8342	138.5117	25478.1	24827.7
793.9758	140.7587	25143.4	24490.95
794.1175	143.0052	24793.95	24140.05
794.2591	145.2512	24446.15	23796.8
794.4008	147.4967	24120.25	23465.85
794.5425	149.7417	23849.45	23197.4
794.6842	151.9863	23707.25	23049.15
794.826	154.2304	23608.85	22946.45
794.9677	156.4739	23434.4	22768.9
795.1095	158.717	23315.05	22646.65
795.2513	160.9596	23158.2	22482.65
795.3931	163.2017	22881.9	22210.85
795.535	165.4433	22591.25	21911.25
795.6768	167.6844	22229.25	21554.35
795.8187	169.925	21913.2	21234.75
795.9606	172.1651	21522.7	20839.9
796.1025	174.4047	21287.4	20601.3
796.2445	176.6439	21027.65	20343.1
796.3864	178.8825	20801.65	20110.15
796.5284	181.1206	20685	19991.5
796.6704	183.3582	20480.3	19779.8
796.8124	185.5954	20376	19675.65
796.9544	187.832	20306.95	19607.55
797.0965	190.0681	20281.4	19575.4
797.2386	192.3037	20270.6	19562.55
797.3806	194.5388	20240.85	19531.85
797.5228	196.7734	20273.35	19561.9
797.6649	199.0075	20339.8	19622.85
797.807	201.2411	20531.85	19812.85
797.9492	203.4742	20565.3	19845.6
798.0914	205.7068	20716.8	19996.8
798.2336	207.9389	20803.05	20086.95
798.3758	210.1704	20983.1	20262.55
798.518	212.4015	21094.05	20363.5
798.6603	214.632	21245.7	20515.2
798.8025	216.862	21399.95	20677.9
798.9448	219.0915	21470.15	20755.2
799.0871	221.3205	21559.75	20852.9
799.2294	223.549	21665.25	20961.15
799.3718	225.777	21796.05	21094.05
799.5141	228.0044	21923.55	21217.9
799.6565	230.2314	22037.95	21335.4
799.7989	232.4578	22182.35	21479.8
799.9413	234.6837	22286.85	21573.05
800.0837	236.909	22419.5	21704.55
800.2262	239.1339	22445.55	21712.9
800.3687	241.3582	22329.8	21606.35
800.5111	243.582	22211.85	21467.35
800.6536	245.8053	22124.3	21381.25
800.7961	248.0281	22022.4	21284.3
800.9387	250.2503	22004.7	21265.3
801.0812	252.472	22034.3	21290.4
801.2238	254.6932	22175.8	21426.35
801.3664	256.9139	22234.8	21483.75
801.509	259.134	22424.55	21671.3
801.6516	261.3536	22643.1	21896.45
801.7942	263.5727	22906.65	22156.1
801.9369	265.7912	23103.35	22351.25
802.0795	268.0092	23441.75	22690
802.2222	270.2267	23628.3	22874
802.3649	272.4436	23722.4	22966.85
802.5076	274.6601	23692.4	22924.55
802.6504	276.8759	23637.95	22879.85
802.7931	279.0913	23530.1	22773.1
802.9359	281.3061	23379.8	22617.4
803.0787	283.5204	23314.1	22553.6
803.2215	285.7341	23257.75	22491.3
803.3643	287.9473	23312.25	22534.7
803.5071	290.16	23406.55	22634.85
803.6499	292.3721	23439.5	22669.45
803.7928	294.5837	23686.4	22921.35
803.9357	296.7947	23923.55	23155.6
804.0786	299.0052	24057.05	23288.55
804.2215	301.2152	24035.95	23264.7
804.3644	303.4246	23853.5	23086.45
804.5074	305.6334	23469.95	22703.4
804.6503	307.8418	23007.35	22234.45
804.7933	310.0495	22606.65	21836.45
804.9363	312.2568	22173.4	21399.95
805.0793	314.4635	21745.1	20973.45
805.2223	316.6696	21432.3	20658.05
805.3653	318.8752	21162.05	20380.6
805.5084	321.0802	21084.1	20309.3
805.6514	323.2847	21034.75	20261.45
805.7945	325.4887	21092.05	20314.75
805.9376	327.692	21099.2	20324.75
806.0807	329.8949	21042.3	20262.6
806.2238	332.0972	20850.7	20068.05
806.367	334.2989	20625.95	19841.95
806.5101	336.5001	20379.15	19597.25
806.6533	338.7007	20129.2	19344.2
806.7965	340.9008	20031.55	19246
806.9397	343.1003	19813.75	19025.3
807.0829	345.2992	19694.35	18905.8
807.2261	347.4976	19541.5	18752.65
807.3693	349.6955	19479.8	18689.15
807.5126	351.8927	19443.65	18651.1
807.6559	354.0895	19328	18525.65
807.7991	356.2856	19344.3	18550.1
807.9424	358.4812	19244.6	18451.6
808.0857	360.6763	19264.85	18470.4
808.2291	362.8707	19257.85	18461.85
808.3724	365.0646	19260.65	18460.9
808.5158	367.258	19263.45	18461.35
808.6591	369.4508	19303.8	18500.25
808.8025	371.643	19432.55	18628.35
808.9459	373.8346	19470.9	18663
809.0893	376.0257	19535.4	18724.95
809.2327	378.2162	19513.8	18706.4
809.3762	380.4062	19540.85	18730
809.5196	382.5956	19414.45	18597.65
809.6631	384.7844	19303.1	18491.45
809.8066	386.9726	19103.2	18289.5
809.9501	389.1603	18994.5	18182.65
810.0936	391.3474	18926.3	18080
810.2371	393.5339	18886.4	18073.25
810.3806	395.7199	18782.9	17977.2
810.5241	397.9052	18824.8	18020.7
810.6677	400.09	18849.65	18046
810.8113	402.2743	19004.05	18201.4
810.9548	404.4579	19155.3	18353.85
811.0984	406.641	19395	18592.15
811.2421	408.8235	19525.05	18721.85
811.3857	411.0054	19691.3	18884.35
811.5293	413.1868	19864.75	19057.75
811.673	415.3675	19912.5	19105.75
811.8166	417.5477	19930.55	19121.85
811.9603	419.7273	19893.5	19082.3
812.104	421.9064	19809.35	18992.75
812.2477	424.0848	19729.95	18912.75
812.3914	426.2627	19542.05	18724.5
812.5351	428.4399	19274.6	18452.6
812.6788	430.6166	18920.4	18096.95
812.8226	432.7928	18547.8	17724.35
812.9663	434.9683	18239.35	17416.9
813.1101	437.1432	18019.6	17194
813.2539	439.3176	17790.75	16964.7
813.3977	441.4914	17679.5	16853.25
813.5415	443.6645	17600.2	16772.4
813.6853	445.8371	17533.9	16706.35
813.8291	448.0091	17429.05	16602.85
813.973	450.1806	17393.65	16565.5
814.1168	452.3514	17329.6	16500.5
814.2607	454.5216	17384.8	16551.25
814.4046	456.6913	17290.9	16459.3
814.5485	458.8603	17349.1	16517.75
814.6924	461.0288	17417.3	16587.15
814.8363	463.1967	17359.7	16528.7
814.9802	465.3639	17390.3	16556.65
815.1241	467.5306	17387.4	16553.5
815.2681	469.6967	17372.3	16544.25
815.412	471.8622	17339.6	16509.3
815.556	474.0271	17394.85	16564.75
815.7	476.1914	17431.25	16599.85
815.844	478.3551	17383.1	16549.25
815.988	480.5182	17461	16626.55
816.132	482.6807	17528.35	16693.2
816.276	484.8426	17717.95	16884.2
816.4201	487.0039	18019.8	17185.15
816.5641	489.1647	18405	17570.3
816.7082	491.3248	18736.3	17901.65
816.8522	493.4843	18848.3	18013.3
816.9963	495.6432	18814.7	17978.05
817.1404	497.8015	18659.25	17821.2
817.2845	499.9592	18553.3	17715.05
817.4286	502.1163	18339.25	17502.1
817.5727	504.2728	17987.3	17145.55
817.7168	506.4287	17704.05	16865.5
817.861	508.5839	17341.1	16501.6
818.0051	510.7386	17089.85	16251.6
818.1493	512.8927	17004.5	16156
818.2935	515.0461	16957.05	16114.7
818.4377	517.199	17030.65	16192.45
818.5818	519.3512	17179.2	16340.5
818.726	521.5029	17414.15	16566.9
818.8703	523.6539	17647.4	16804.45
819.0145	525.8043	17724.45	16878.45
819.1587	527.9541	17657.75	16812.95
819.303	530.1033	17495.65	16652.4
819.4472	532.2519	17329.9	16486.75
819.5915	534.3999	17262.85	16414.9
819.7357	536.5472	17284.75	16437.1
819.88	538.694	17519.5	16672.9
820.0243	540.8401	17806.15	16957.85
820.1686	542.9856	18018.95	17168.6
820.3129	545.1305	18048.75	17200.35
820.4572	547.2748	17940	17090.5
820.6016	549.4185	17760.5	16910.2
820.7459	551.5615	17566.15	16715.65
820.8902	553.704	17555.05	16705.45
821.0346	555.8458	17561.45	16711.25
821.1789	557.987	17731.5	16883.1
821.3233	560.1276	17910.7	17057.2
821.4677	562.2675	18281.2	17435.65
821.6121	564.4069	18756.95	17908.65
821.7565	566.5456	19205.75	18356.1
821.9009	568.6837	19339	18492.5
822.0453	570.8212	18946.85	18101.35
822.1897	572.958	18221.6	17373.35
822.3342	575.0942	17577.2	16730.25
822.4786	577.2299	17116.35	16268.8
822.6231	579.3648	16874.85	16024.4
822.7675	581.4992	16818.65	15970.55
822.912	583.6329	16919.3	16069.9
823.0565	585.766	17077.9	16228.25
823.201	587.8985	17197.25	16346.35
823.3454	590.0304	17226.2	16351.05
823.4899	592.1616	17149.2	16295.45
823.6345	594.2922	17032.75	16182.4
823.779	596.4222	16781.85	15926.35
823.9235	598.5515	16578.95	15723.7
824.068	600.6802	16394.3	15541.5
824.2126	602.8083	16222.85	15368.5
824.3571	604.9358	16177.1	15321.85
824.5017	607.0626	16196.15	15344.45
824.6462	609.1888	16232.25	15377.75
824.7908	611.3144	16376.55	15519.25
824.9354	613.4393	16454.8	15600.15
825.08	615.5636	16567	15712.45
825.2246	617.6873	16556.55	15702.5
825.3692	619.8103	16522.5	15663.2
825.5138	621.9327	16319.85	15463.75
825.6584	624.0544	16097.05	15243.6
825.803	626.1756	15891.9	15038.05
825.9477	628.2961	15746.75	14890.2
826.0923	630.4159	15630.05	14774.65
826.237	632.5351	15624.65	14767.85
826.3816	634.6537	15584.15	14728.1
826.5263	636.7716	15562.55	14704.35
826.6709	638.8889	15552.85	14694.35
826.8156	641.0056	15559.7	14699.85
826.9603	643.1216	15520	14659.85
827.105	645.237	15496.6	14636.5
827.2497	647.3518	15395.15	14534.7
827.3944	649.4659	15312.25	14451.7
827.5391	651.5793	15243.55	14382.45
827.6838	653.6922	15185.3	14328.7
827.8285	655.8043	15162.55	14301.5
827.9733	657.9159	15159.75	14297.25
828.118	660.0268	15121.8	14259.45
828.2627	662.137	15125.75	14262.75
828.4075	664.2466	15092.85	14227.45
828.5522	666.3556	15065.35	14204.4
828.697	668.4639	15025.3	14158.95
828.8418	670.5716	15022.4	14161.5
828.9865	672.6786	14975.35	14111
829.1313	674.785	14870.25	14006.7
829.2761	676.8907	14803.1	13936.65
829.4209	678.9958	14823.15	13960.9
829.5657	681.1002	14763.9	13898.7
829.7105	683.204	14771.85	13906
829.8553	685.3072	14754.55	13887.4
830.0001	687.4097	14699.05	13836.35
830.1449	689.5115	14647.7	13778.2
830.2898	691.6127	14651.35	13787.1
830.4346	693.7132	14602.55	13738.35
830.5794	695.8131	14659.25	13779.45
830.7243	697.9123	14627.95	13759.15
830.8691	700.0109	14645.9	13782.4
831.014	702.1089	14659.05	13793.15
831.1588	704.2061	14694.7	13829.65
831.3037	706.3028	14729.25	13862.35
831.4486	708.3987	14760.85	13893.55
831.5935	710.4941	14758.85	13891.85
831.7383	712.5887	14822.2	13954.95
831.8832	714.6827	14906.35	14036.2
832.0281	716.7761	15045.25	14179.5
832.173	718.8688	15220.25	14350.8
832.3179	720.9608	15352.9	14478.95
832.4628	723.0522	15481.65	14609.05
832.6077	725.1429	15515.45	14645.8
832.7527	727.233	15546.05	14676.15
832.8976	729.3224	15615.7	14744.4
833.0425	731.4112	15522.8	14653.4
833.1874	733.4993	15335.5	14463.4
833.3324	735.5867	15089.95	14219.75
833.4773	737.6735	14864.65	13993.35
833.6222	739.7596	14644.25	13771.4
833.7672	741.845	14491.7	13619.45
833.9122	743.9298	14364	13490
834.0571	746.014	14326.4	13455.3
834.2021	748.0974	14296.75	13422.95
834.347	750.1802	14292.35	13420.5
834.492	752.2624	14283.8	13412.05
834.637	754.3439	14313.85	13441.6
834.782	756.4247	14438.05	13553.8
834.9269	758.5048	14571.45	13702.1
835.0719	760.5843	14825.6	13952.75
835.2169	762.6631	15190.75	14317.05
835.3619	764.7413	15775.5	14903.75
835.5069	766.8188	16508.7	15635.05
835.6519	768.8956	17074.1	16200.15
835.7969	770.9718	17475.8	16602.5
835.9419	773.0473	17429.55	16559.2
836.0869	775.1221	17137.05	16264.5
836.232	777.1962	16827.5	15954.5
836.377	779.2697	16736.9	15865.45
836.522	781.3426	16774.4	15890.45
836.667	783.4147	16902.7	16032.05
836.8121	785.4862	16959.35	16086.75
836.9571	787.557	16798.75	15926.6
837.1021	789.6271	16301.65	15430.35
837.2472	791.6966	15648.5	14779.15
837.3922	793.7654	15019.9	14145.5
837.5373	795.8335	14575.8	13705.3
837.6823	797.901	14219.9	13347.95
837.8274	799.9678	14032.05	13155.3
837.9724	802.0339	13915.7	13042.55
838.1175	804.0993	13871.9	12988.5
838.2626	806.1641	13794.75	12921
838.4076	808.2282	13695.55	12821.45
838.5527	810.2916	13614.5	12736.85
838.6978	812.3544	13556.6	12682.5
838.8428	814.4164	13467.65	12596.65
838.9879	816.4778	13474.35	12598.65
839.133	818.5385	13488.15	12613.15
839.2781	820.5986	13646.5	12773.4
839.4232	822.658	13863.75	12989.9
839.5682	824.7166	14174.55	13298.35
839.7133	826.7747	14676.3	13802
839.8584	828.832	15202.2	14327.05
840.0035	830.8886	15577.1	14702.25
840.1486	832.9446	15777.5	14900.95
840.2937	834.9999	15645.9	14773.1
840.4388	837.0545	15348.1	14470.75
840.5839	839.1085	14996.65	14120.85
840.729	841.1618	14667.75	13790.35
840.8741	843.2143	14422.2	13549.6
841.0192	845.2662	14188.2	13311.55
841.1643	847.3175	14023.25	13147.9
841.3095	849.368	13862.65	12988.9
841.4546	851.4179	13772.25	12897.3
841.5997	853.467	13634.7	12756.95
841.7448	855.5155	13566.1	12688.6
841.8899	857.5633	13487.65	12612.45
842.0351	859.6105	13370.2	12496.8
842.1802	861.6569	13272.65	12394.9
842.3253	863.7027	13189.6	12313.6
842.4704	865.7478	13130.9	12253.2
842.6156	867.7922	13073.05	12196.6
842.7607	869.8359	13016.75	12139.75
842.9058	871.8789	13034.25	12154.8
843.0509	873.9212	13151.3	12243.45
843.1961	875.9629	13182.1	12301.4
843.3412	878.0039	13307.65	12431.55
843.4863	880.0441	13389.25	12511.65
843.6315	882.0837	13433.6	12554.8
843.7766	884.1226	13435.75	12556.7
843.9218	886.1609	13491.55	12613.45
844.0669	888.1984	13587.5	12708.95
844.212	890.2352	13689	12812.8
844.3572	892.2714	13724.65	12841.6
844.5023	894.3069	13667.6	12791.3
844.6475	896.3416	13480.5	12601.8
844.7926	898.3757	13332.9	12452.05
844.9377	900.4091	13238.25	12360.6
845.0829	902.4418	13208.45	12323.25
845.228	904.4739	13188.35	12307.85
845.3732	906.5052	13260.25	12382.45
845.5183	908.5358	13211.65	12332.35
845.6635	910.5658	13069.35	12189.55
845.8086	912.595	12858.35	11977.6
845.9538	914.6236	12628.35	11750.7
846.0989	916.6515	12489.1	11611.1
846.2441	918.6786	12366.35	11483.4
846.3892	920.7051	12334.7	11454.45
846.5344	922.7309	12374.9	11497.35
846.6795	924.756	12345.65	11465.4
846.8246	926.7804	12438.7	11555.9
846.9698	928.8041	12437.85	11555.3
847.1149	930.8272	12488.15	11607.05
847.2601	932.8495	12444.45	11562.35
847.4052	934.8711	12428	11545.95
847.5504	936.892	12336.55	11455.6
847.6955	938.9123	12331.5	11448.85
847.8407	940.9318	12344.95	11467.3
847.9858	942.9506	12289.65	11409.7
848.131	944.9688	12222	11341
848.2761	946.9862	12129.2	11248.95
848.4213	949.003	11984.5	11103.45
848.5664	951.019	11874.65	10995.9
848.7115	953.0344	11802.55	10919.95
848.8567	955.0491	11747.95	10864.75
849.0018	957.063	11808.55	10929
849.147	959.0763	11852.35	10970.6
849.2921	961.0888	11870.15	10987.95
849.4373	963.1007	11932	11050.45
849.5824	965.1119	11933.4	11053.55
849.7275	967.1223	11935.75	11056.6
849.8727	969.1321	11891	11011.75
850.0178	971.1412	11894	11013.05
850.1629	973.1495	11829.95	10951.1
850.3081	975.1572	11871.4	10957.6
850.4532	977.1641	11873.7	10991.9
850.5983	979.1704	11855.3	10973.45
850.7435	981.1759	11772.05	10888.6
850.8886	983.1808	11783.4	10901.9
851.0337	985.1849	11812.65	10918.5
851.1788	987.1884	11859.05	10973.7
851.324	989.1911	11951.65	11068.1
851.4691	991.1932	12011.6	11129.15
851.6142	993.1945	12013.3	11133.45
851.7593	995.1951	11979	11096.2
851.9045	997.1951	11952.95	11065.55
852.0496	999.1943	11894.65	11013.25
852.1947	1001.1928	11884.35	11003.45
852.3398	1003.1906	11924.55	11044.1
852.4849	1005.1877	12031.7	11147.5
852.63	1007.1841	12093.7	11212.85
852.7751	1009.1798	12081.4	11202.15
852.9202	1011.1748	12020.75	11137.8
853.0653	1013.1691	11860.8	10978.25
853.2104	1015.1627	11635.95	10752.45
853.3555	1017.1556	11385.25	10503.2
853.5006	1019.1477	11256.85	10375.9
853.6457	1021.1392	11139	10258.4
853.7908	1023.1299	11079.8	10197.75
853.9359	1025.12	11095.35	10213.25
854.081	1027.1093	11150.35	10269.8
854.2261	1029.0979	11245.4	10366.95
854.3712	1031.0859	11334.7	10454.15
854.5163	1033.0731	11340	10458.7
854.6613	1035.0596	11281.3	10400
854.8064	1037.0454	11161.25	10277.3
854.9515	1039.0304	11054.2	10173.75
855.0965	1041.0148	10907.1	10024
855.2416	1042.9985	10802.1	9922.75
855.3867	1044.9814	10725.55	9844.35
855.5317	1046.9636	10662.2	9777.55
855.6768	1048.9452	10646.2	9765.5
855.8219	1050.926	10698.85	9819.8
855.9669	1052.9061	10688.5	9807
856.112	1054.8855	10693.65	9811.55
856.257	1056.8642	10723.8	9840.8
856.4021	1058.8421	10785.6	9899.3
856.5471	1060.8194	10804.6	9921.6
856.6921	1062.7959	10828.65	9947.45
856.8372	1064.7717	10892.05	10008.8
856.9822	1066.7469	10962.05	10079.5
857.1272	1068.7213	11032.8	10147.55
857.2723	1070.695	11092.15	10211.4
857.4173	1072.6679	11131.7	10250.15
857.5623	1074.6402	11098.7	10216.85
857.7073	1076.6117	11102.05	10215.1
857.8523	1078.5826	10975.85	10094.95
857.9973	1080.5527	10850.7	9965.05
858.1423	1082.5221	10723.45	9838.2
858.2873	1084.4908	10724.65	9839.95
858.4323	1086.4587	10734.7	9851.85
858.5773	1088.426	10773.55	9889.5
858.7223	1090.3925	10772.1	9884.2
858.8673	1092.3584	10801.3	9918.6
859.0123	1094.3235	10764	9883.75
859.1573	1096.2879	10857.75	9973.15
859.3022	1098.2515	10975.3	10094.35
859.4472	1100.2145	11123.85	10239.4
859.5922	1102.1767	11283.15	10398.7
859.7371	1104.1382	11499.45	10618.1
859.8821	1106.099	11775.6	10890.55
860.027	1108.0591	11989.5	11108.3
860.172	1110.0185	12171.9	11286
860.3169	1111.9771	12254.55	11373.45
860.4619	1113.9351	12170.65	11287.85
860.6068	1115.8923	12000.65	11118.35
860.7517	1117.8488	11845.6	10961.15
860.8967	1119.8045	11644.2	10760.5
861.0416	1121.7596	11479.85	10593.45
861.1865	1123.7139	11339.15	10455.65
861.3314	1125.6675	11266.3	10383.15
861.4763	1127.6204	11290.1	10407.25
861.6212	1129.5726	11228.5	10344.7
861.7661	1131.524	11174.6	10293.9
861.911	1133.4748	11004.7	10122.05
862.0559	1135.4248	10835.6	9949.5
862.2008	1137.3741	10654.2	9772.2
862.3457	1139.3226	10533.5	9648.6
862.4905	1141.2705	10483.2	9599.5
862.6354	1143.2176	10378.45	9488.3
862.7803	1145.164	10305.4	9420.25
862.9251	1147.1097	10242.85	9358.7
863.07	1149.0546	10174.6	9291.45
863.2148	1150.9989	10052.4	9168.75
863.3597	1152.9424	9916.2	9033.1
863.5045	1154.8852	9835.25	8951.45
863.6493	1156.8272	9786.3	8904.75
863.7942	1158.7686	9796.6	8905.3
863.939	1160.7092	9826.75	8941.5
864.0838	1162.6491	9855.3	8969.65
864.2286	1164.5883	9940.9	9059.2
864.3734	1166.5267	10054.85	9171.35
864.5182	1168.4644	10179.1	9294.95
864.663	1170.4014	10374.8	9488.45
864.8078	1172.3377	10625.65	9743.95
864.9526	1174.2732	10932.8	10049.2
865.0974	1176.2081	11375.9	10494
865.2421	1178.1421	11853.4	10966.55
865.3869	1180.0755	12390.35	11509.55
865.5317	1182.0082	12759.15	11875.65
865.6764	1183.9401	12930.8	12044.75
