Software Version:	3.9.2.0
Unit SN:	10000200
Spectrometer SN:	6960
Date:	3/14/2024 2:21:58 PM
Data Line Index:	25
Spectral Points:	2048
Integration time (ms):	125
Averages:	20
Delay (ms):	30000
Sequence Number:	1
Processing:	dark subtract
Laser Power (mW):	305
Laser Current (mA):	824
Laser Diode Temp (C):	25
Laser Case Temp (C):	29.2
System Temp (C):	29.2
Spectrometer Temp (C):	26.9
CCD Temp (C):	0.012
Secondary Temp (C):	20.016
Heatsink Temp (C):	25.095
CCDPCB Temp (C):	38.497
SecondaryPCB Temp (C):	36.118

Wavelength	RamanShift	Raw Counts	Dark Subtracted
787.061	30.1047	458.65	50.5
787.2016	32.3739	456.25	50.2
787.3422	34.6426	464.8	57.25
787.4828	36.9109	471.55	63.75
787.6235	39.1787	480.25	67.45
787.7642	41.4461	484.7	65.65
787.9049	43.7131	493.3	70.6
788.0456	45.9796	502.9	76
788.1863	48.2456	512	80.35
788.3271	50.5112	523.5	87.1
788.4679	52.7764	530.6	93.6
788.6087	55.0411	544.75	105.8
788.7496	57.3054	551.65	106.4
788.8904	59.5692	562.55	114.3
789.0313	61.8326	572.45	118.5
789.1722	64.0955	587.5	127.65
789.3132	66.3579	606	143.3
789.4541	68.6199	618.55	153.6
789.5951	70.8815	649.65	181.9
789.7361	73.1426	722.55	250
789.8771	75.4032	917.9	440.8
790.0181	77.6634	1372.95	889.35
790.1592	79.9231	2472.8	1983.7
790.3003	82.1824	4854.85	4357.7
790.4414	84.4412	9266.3	8752.55
790.5825	86.6995	15558.4	15026.9
790.7237	88.9574	21842.85	21289.85
790.8648	91.2148	26383.6	25813.05
791.006	93.4717	28556.05	27978.55
791.1472	95.7282	29150.65	28567.55
791.2885	97.9842	29149.95	28566.25
791.4297	100.2398	28690.65	28105.5
791.571	102.4949	28123	27533.7
791.7123	104.7495	27366.25	26771.25
791.8536	107.0036	26568.85	25974.25
791.9949	109.2573	25755.5	25162.05
792.1363	111.5105	24901.7	24303.75
792.2777	113.7632	24075	23479.25
792.4191	116.0154	23350.35	22743.45
792.5605	118.2672	22850.95	22250
792.7019	120.5185	22228.65	21630.5
792.8434	122.7693	21804.3	21200.95
792.9849	125.0197	21467.55	20859.75
793.1264	127.2696	21166.3	20557.1
793.2679	129.519	20994.35	20381.75
793.4094	131.7679	20785.05	20169
793.551	134.0163	20719.05	20103.35
793.6926	136.2642	20539.25	19916.7
793.8342	138.5117	20363.05	19732.05
793.9758	140.7587	20189.35	19560.05
794.1175	143.0052	20001.75	19372.55
794.2591	145.2512	19790.55	19158.95
794.4008	147.4967	19594.5	18962.8
794.5425	149.7417	19433.5	18800.6
794.6842	151.9863	19317.25	18680.3
794.826	154.2304	19261.4	18620.95
794.9677	156.4739	19097.45	18453.55
795.1095	158.717	19028.55	18386.65
795.2513	160.9596	18887.6	18237.4
795.3931	163.2017	18618.55	17968.35
795.535	165.4433	18321.9	17673.05
795.6768	167.6844	17938.35	17283.85
795.8187	169.925	17593.7	16938.4
795.9606	172.1651	17195.3	16533.6
796.1025	174.4047	16868.45	16204.55
796.2445	176.6439	16564.1	15896.9
796.3864	178.8825	16286.8	15617.85
796.5284	181.1206	16087.6	15413.95
796.6704	183.3582	15858.4	15182.1
796.8124	185.5954	15740.05	15063.85
796.9544	187.832	15630.55	14949.35
797.0965	190.0681	15572.3	14892.55
797.2386	192.3037	15540.7	14856.3
797.3806	194.5388	15518.15	14829.55
797.5228	196.7734	15541.25	14851.05
797.6649	199.0075	15619.45	14927.3
797.807	201.2411	15734.4	15037.85
797.9492	203.4742	15777.3	15081.9
798.0914	205.7068	15902.85	15204.05
798.2336	207.9389	15971.55	15272.45
798.3758	210.1704	16146	15444.45
798.518	212.4015	16268.25	15561.05
798.6603	214.632	16459.55	15753.3
798.8025	216.862	16640	15944.45
798.9448	219.0915	16805.55	16116.05
799.0871	221.3205	17066.2	16379.1
799.2294	223.549	17379.5	16695.65
799.3718	225.777	17739.9	17057.9
799.5141	228.0044	18203.55	17518.1
799.6565	230.2314	18794.3	18110.55
799.7989	232.4578	19303.45	18620.9
799.9413	234.6837	19748.4	19052.3
800.0837	236.909	20045.15	19356.15
800.2262	239.1339	19998.3	19279.95
800.3687	241.3582	19707.2	19006.1
800.5111	243.582	19316.3	18588.2
800.6536	245.8053	18820.95	18098.65
800.7961	248.0281	18326.7	17609.2
800.9387	250.2503	17965.25	17245.15
801.0812	252.472	17727.5	17001.5
801.2238	254.6932	17585.35	16855.65
801.3664	256.9139	17431.05	16701.65
801.509	259.134	17308.3	16576.9
801.6516	261.3536	17175.4	16444.6
801.7942	263.5727	17119	16384.6
801.9369	265.7912	16985.5	16251.85
802.0795	268.0092	16926.9	16195.95
802.2222	270.2267	16806.65	16073.95
802.3649	272.4436	16742.85	16009.2
802.5076	274.6601	16634.25	15889.15
802.6504	276.8759	16565.25	15827.4
802.7931	279.0913	16574	15835.3
802.9359	281.3061	16596.85	15858.5
803.0787	283.5204	16695.3	15955.15
803.2215	285.7341	16831.55	16084
803.3643	287.9473	17032.65	16284.3
803.5071	290.16	17330.7	16577.25
803.6499	292.3721	17725.25	16978.55
803.7928	294.5837	18196.25	17447.35
803.9357	296.7947	18572.9	17826.95
804.0786	299.0052	18851.65	18105.3
804.2215	301.2152	18693.9	17942.65
804.3644	303.4246	18274.45	17529.65
804.5074	305.6334	17592.25	16844.7
804.6503	307.8418	17034.35	16283.7
804.7933	310.0495	16566	15814.6
804.9363	312.2568	16226.3	15474.65
805.0793	314.4635	15990.3	15234.7
805.2223	316.6696	15891.1	15135.65
805.3653	318.8752	15888.4	15127.5
805.5084	321.0802	15961.7	15205.7
805.6514	323.2847	16091.85	15332.85
805.7945	325.4887	16129.2	15371.25
805.9376	327.692	16069	15311.9
806.0807	329.8949	15963.7	15202.5
806.2238	332.0972	15655.6	14890.25
806.367	334.2989	15383.6	14618.05
806.5101	336.5001	15025.05	14258.5
806.6533	338.7007	14778.8	14015.3
806.7965	340.9008	14660.75	13894.7
806.9397	343.1003	14514.55	13745.55
807.0829	345.2992	14449.7	13681.35
807.2261	347.4976	14407.2	13636.35
807.3693	349.6955	14430.2	13654.75
807.5126	351.8927	14452.35	13677.15
807.6559	354.0895	14448.85	13663.3
807.7991	356.2856	14505.5	13728.35
807.9424	358.4812	14489.5	13712.25
808.0857	360.6763	14488.2	13709.9
808.2291	362.8707	14461.35	13683.45
808.3724	365.0646	14489.65	13705
808.5158	367.258	14485.15	13700.55
808.6591	369.4508	14479.75	13694.05
808.8025	371.643	14504.45	13718.05
808.9459	373.8346	14453.8	13660.95
809.0893	376.0257	14433.25	13636.85
809.2327	378.2162	14311.55	13521
809.3762	380.4062	14181.15	13387.05
809.5196	382.5956	14008.45	13212.65
809.6631	384.7844	13925.75	13130.95
809.8066	386.9726	13791.4	12994.9
809.9501	389.1603	13714.85	12921.25
810.0936	391.3474	13678.15	12843
810.2371	393.5339	13679.75	12886.85
810.3806	395.7199	13581.05	12793.85
810.5241	397.9052	13574.85	12787.8
810.6677	400.09	13569.25	12783.15
810.8113	402.2743	13630.05	12842.75
810.9548	404.4579	13621.25	12834.9
811.0984	406.641	13770.15	12986.2
811.2421	408.8235	14010.4	13225.65
811.3857	411.0054	14383.25	13596.05
811.5293	413.1868	14895.65	14103.55
811.673	415.3675	15310.55	14516.2
811.8166	417.5477	15556.2	14765.15
811.9603	419.7273	15625.75	14827.55
812.104	421.9064	15523.25	14719.4
812.2477	424.0848	15357.3	14555.5
812.3914	426.2627	15089.55	14287.2
812.5351	428.4399	14745.9	13941.7
812.6788	430.6166	14354	13546.3
812.8226	432.7928	13943.35	13135.05
812.9663	434.9683	13627.95	12821.2
813.1101	437.1432	13370.65	12562.1
813.2539	439.3176	13191.2	12381
813.3977	441.4914	13049.85	12239.9
813.5415	443.6645	12997	12183.7
813.6853	445.8371	12920.8	12108.3
813.8291	448.0091	12835.15	12027.5
813.973	450.1806	12784.15	11970.8
814.1168	452.3514	12692.45	11874.55
814.2607	454.5216	12683.85	11860.45
814.4046	456.6913	12620.65	11807
814.5485	458.8603	12655.1	11841.1
814.6924	461.0288	12673.85	11862.55
814.8363	463.1967	12729.3	11912.85
814.9802	465.3639	12851.75	12033.9
815.1241	467.5306	12971.25	12154.4
815.2681	469.6967	13164.8	12347.8
815.412	471.8622	13376.2	12558.25
815.556	474.0271	13540.15	12723.95
815.7	476.1914	13625.4	12806.6
815.844	478.3551	13568.15	12752.55
815.988	480.5182	13517.05	12697.55
816.132	482.6807	13455.5	12635.9
816.276	484.8426	13496.4	12678.5
816.4201	487.0039	13741	12919.7
816.5641	489.1647	14141.1	13319.6
816.7082	491.3248	14629.55	13808.75
816.8522	493.4843	14862.2	14042.25
816.9963	495.6432	14865.7	14045.9
817.1404	497.8015	14796	13971.6
817.2845	499.9592	14845.05	14023.55
817.4286	502.1163	14836	14013.95
817.5727	504.2728	14599.75	13772.3
817.7168	506.4287	14270	13444.7
817.861	508.5839	13768.1	12943.7
818.0051	510.7386	13405.25	12581.4
818.1493	512.8927	13141.35	12310.1
818.2935	515.0461	12939.55	12113.8
818.4377	517.199	12811.9	11989.05
818.5818	519.3512	12699.8	11872.1
818.726	521.5029	12693.25	11858.8
818.8703	523.6539	12688.85	11856.9
819.0145	525.8043	12717.6	11889.4
819.1587	527.9541	12739.15	11910.55
819.303	530.1033	12805.15	11973.4
819.4472	532.2519	12854.35	12022.2
819.5915	534.3999	13026.65	12191.8
819.7357	536.5472	13353.45	12518.3
819.88	538.694	13928.1	13096.15
820.0243	540.8401	14611.55	13782.5
820.1686	542.9856	15251.1	14414.7
820.3129	545.1305	15466.2	14628.45
820.4572	547.2748	15266.85	14430.9
820.6016	549.4185	14841.45	14003.7
820.7459	551.5615	14384.4	13549.8
820.8902	553.704	14148.35	13313.1
821.0346	555.8458	13999.95	13163.85
821.1789	557.987	13938.95	13104.2
821.3233	560.1276	13842.4	13005.65
821.4677	562.2675	13682	12847.65
821.6121	564.4069	13519.9	12685.15
821.7565	566.5456	13347.25	12513.1
821.9009	568.6837	13211.6	12378.2
822.0453	570.8212	12971.45	12135.85
822.1897	572.958	12744.6	11906.9
822.3342	575.0942	12573	11738.15
822.4786	577.2299	12416.5	11581.4
822.6231	579.3648	12443.35	11605.9
822.7675	581.4992	12533.4	11693.95
822.912	583.6329	12800.75	11962.45
823.0565	585.766	13059.3	12222.4
823.201	587.8985	13201.95	12366.35
823.3454	590.0304	13176.2	12327.1
823.4899	592.1616	13110.4	12269.1
823.6345	594.2922	13010.15	12168.7
823.779	596.4222	12836.1	11996.35
823.9235	598.5515	12677.9	11838.65
824.068	600.6802	12467.55	11626.7
824.2126	602.8083	12293.7	11452.4
824.3571	604.9358	12174.1	11332.45
824.5017	607.0626	12067.65	11225.65
824.6462	609.1888	11980.3	11136.15
824.7908	611.3144	11858.9	11015.1
824.9354	613.4393	11664.85	10821.45
825.08	615.5636	11476.75	10633.85
825.2246	617.6873	11357.1	10514.3
825.3692	619.8103	11273.75	10429.55
825.5138	621.9327	11198.3	10353.15
825.6584	624.0544	11174.2	10331.8
825.803	626.1756	11168.55	10326.8
825.9477	628.2961	11148.2	10302.15
826.0923	630.4159	11105	10259.75
826.237	632.5351	11038.45	10191
826.3816	634.6537	10947.9	10102.4
826.5263	636.7716	10914.25	10067.6
826.6709	638.8889	10879.7	10033.35
826.8156	641.0056	10907.6	10061.05
826.9603	643.1216	10883.65	10035.8
827.105	645.237	10900.9	10053.25
827.2497	647.3518	10928.85	10079.55
827.3944	649.4659	10924.8	10075.75
827.5391	651.5793	10947.85	10099.35
827.6838	653.6922	10926.5	10078.35
827.8285	655.8043	10876.5	10027.45
827.9733	657.9159	10856.05	10005.65
828.118	660.0268	10759.95	9910.4
828.2627	662.137	10680.15	9830.65
828.4075	664.2466	10626.35	9772.75
828.5522	666.3556	10606.35	9755.6
828.697	668.4639	10574.75	9720.45
828.8418	670.5716	10649.2	9798.6
828.9865	672.6786	10720.65	9868.85
829.1313	674.785	10803.4	9951.8
829.2761	676.8907	10864.95	10013.1
829.4209	678.9958	10949.45	10097.8
829.5657	681.1002	10953.75	10098.55
829.7105	683.204	10911.05	10053.55
829.8553	685.3072	10832.25	9976.45
830.0001	687.4097	10764.95	9910.25
830.1449	689.5115	10667.55	9809.9
830.2898	691.6127	10575.85	9721.8
830.4346	693.7132	10488.85	9633.55
830.5794	695.8131	10409.05	9532.4
830.7243	697.9123	10327	9469.5
830.8691	700.0109	10275.7	9419.15
831.014	702.1089	10247.35	9392.65
831.1588	704.2061	10257.95	9401.85
831.3037	706.3028	10276.25	9420.65
831.4486	708.3987	10315.45	9461.75
831.5935	710.4941	10412	9556.25
831.7383	712.5887	10609.3	9753.6
831.8832	714.6827	10934.9	10074.65
832.0281	716.7761	11354.6	10497.6
832.173	718.8688	11782.95	10925.4
832.3179	720.9608	11983.9	11123.25
832.4628	723.0522	11999.5	11142.15
832.6077	725.1429	11746.8	10889
832.7527	727.233	11340.5	10482.2
832.8976	729.3224	10948	10087.2
833.0425	731.4112	10579.15	9718.1
833.1874	733.4993	10322.4	9460.55
833.3324	735.5867	10182.35	9319.3
833.4773	737.6735	10072.1	9212.05
833.6222	739.7596	10032.85	9171.95
833.7672	741.845	9975.9	9116.2
833.9122	743.9298	9971.85	9108
834.0571	746.014	9964.15	9102.2
834.2021	748.0974	9965	9103.1
834.347	750.1802	9964.95	9103.65
834.492	752.2624	9968.05	9105.85
834.637	754.3439	9999.4	9136.3
834.782	756.4247	10043.1	9174.95
834.9269	758.5048	10119.4	9258.7
835.0719	760.5843	10286.85	9423.8
835.2169	762.6631	10570.15	9709.95
835.3619	764.7413	10969.5	10109.15
835.5069	766.8188	11542.85	10680.35
835.6519	768.8956	12059.5	11195.05
835.7969	770.9718	12377.05	11515
835.9419	773.0473	12268.45	11408.25
836.0869	775.1221	11928.95	11066.35
836.232	777.1962	11532.2	10668.9
836.377	779.2697	11346.6	10484.6
836.522	781.3426	11399.5	10518.15
836.667	783.4147	11689.15	10828
836.8121	785.4862	12014.25	11150.8
836.9571	787.557	12051.8	11188.85
837.1021	789.6271	11710.35	10847.35
837.2472	791.6966	11134.95	10271.3
837.3922	793.7654	10593.65	9729.85
837.5373	795.8335	10249.3	9384.2
837.6823	797.901	10018.35	9157.5
837.8274	799.9678	9968.7	9101.9
837.9724	802.0339	9970.2	9108.05
838.1175	804.0993	10044.45	9169.55
838.2626	806.1641	10010.95	9146.2
838.4076	808.2282	9927.95	9064.4
838.5527	810.2916	9812.3	8945.35
838.6978	812.3544	9722.3	8858.4
838.8428	814.4164	9639.25	8775.65
838.9879	816.4778	9593.65	8726.45
839.133	818.5385	9567.05	8704.65
839.2781	820.5986	9590.35	8725.55
839.4232	822.658	9629.65	8764.85
839.5682	824.7166	9664.85	8798.65
839.7133	826.7747	9780.75	8915
839.8584	828.832	9861.15	8997.15
840.0035	830.8886	9980.1	9113.2
840.1486	832.9446	10112.7	9246.5
840.2937	834.9999	10206.7	9343.15
840.4388	837.0545	10308.95	9437.35
840.5839	839.1085	10372.75	9505.15
840.729	841.1618	10387.3	9514.7
840.8741	843.2143	10376.35	9508.65
841.0192	845.2662	10317.55	9451.5
841.1643	847.3175	10286.8	9421.25
841.3095	849.368	10171.7	9304.75
841.4546	851.4179	10040.55	9174.65
841.5997	853.467	9869.2	9003.25
841.7448	855.5155	9721.9	8855.8
841.8899	857.5633	9615	8746.7
842.0351	859.6105	9477.8	8611.05
842.1802	861.6569	9402.15	8534.8
842.3253	863.7027	9334.4	8465.5
842.4704	865.7478	9295.6	8427.45
842.6156	867.7922	9312.3	8444.9
842.7607	869.8359	9351	8481.25
842.9058	871.8789	9487.7	8619.75
843.0509	873.9212	9681.15	8777.2
843.1961	875.9629	9842.15	8973.6
843.3412	878.0039	10012.65	9142.9
843.4863	880.0441	10121.15	9251.6
843.6315	882.0837	10138.2	9267.95
843.7766	884.1226	10012.6	9142.3
843.9218	886.1609	9798	8929.05
844.0669	888.1984	9633.05	8763.5
844.212	890.2352	9594.8	8728.55
844.3572	892.2714	9511.8	8639.3
844.5023	894.3069	9450.95	8579
844.6475	896.3416	9380.3	8509.1
844.7926	898.3757	9379.2	8509.1
844.9377	900.4091	9367.45	8493.5
845.0829	902.4418	9399.2	8524.25
845.228	904.4739	9379.4	8504.65
845.3732	906.5052	9347.9	8478.05
845.5183	908.5358	9230.6	8359.65
845.6635	910.5658	9071.5	8200.25
845.8086	912.595	8904.85	8035.15
845.9538	914.6236	8782.4	7912.05
846.0989	916.6515	8751.3	7882.75
846.2441	918.6786	8719.7	7847.9
846.3892	920.7051	8811.95	7938.75
846.5344	922.7309	8935.75	8065.7
846.6795	924.756	8981.85	8109.45
846.8246	926.7804	9047.3	8174.7
846.9698	928.8041	9026.45	8156.15
847.1149	930.8272	9063	8190.15
847.2601	932.8495	8961.8	8087.35
847.4052	934.8711	8886.6	8012.9
847.5504	936.892	8736.15	7863.15
847.6955	938.9123	8561.35	7688.65
847.8407	940.9318	8395.65	7523.2
847.9858	942.9506	8238.7	7364.65
848.131	944.9688	8163.75	7291.95
848.2761	946.9862	8128.4	7258
848.4213	949.003	8049.55	7175.75
848.5664	951.019	8067.9	7194.4
848.7115	953.0344	8103.75	7229.05
848.8567	955.0491	8135.7	7259.65
849.0018	957.063	8199.25	7325.75
849.147	959.0763	8302.5	7431.2
849.2921	961.0888	8360.15	7485.15
849.4373	963.1007	8460.9	7587.8
849.5824	965.1119	8500.25	7626.4
849.7275	967.1223	8496.9	7625.3
849.8727	969.1321	8539.05	7668.75
850.0178	971.1412	8582.15	7709.9
850.1629	973.1495	8613.95	7740.25
850.3081	975.1572	8671.55	7757.8
850.4532	977.1641	8659.85	7785.95
850.5983	979.1704	8644.65	7770.6
850.7435	981.1759	8624.85	7746.2
850.8886	983.1808	8716.05	7841.7
851.0337	985.1849	8811.55	7923.45
851.1788	987.1884	8986.2	8110.05
851.324	989.1911	9176.6	8300.05
851.4691	991.1932	9333.5	8457.95
851.6142	993.1945	9413.15	8540.35
851.7593	995.1951	9393.1	8521.5
851.9045	997.1951	9326.25	8448.2
852.0496	999.1943	9242.45	8368.4
852.1947	1001.1928	9209.05	8334.55
852.3398	1003.1906	9164.75	8290.35
852.4849	1005.1877	9196.35	8320
852.63	1007.1841	9159.1	8280.8
852.7751	1009.1798	9050.2	8174.45
852.9202	1011.1748	8840.65	7964.95
853.0653	1013.1691	8623.85	7746.35
853.2104	1015.1627	8410.45	7536
853.3555	1017.1556	8219.7	7345.1
853.5006	1019.1477	8110.2	7235.3
853.6457	1021.1392	8049.45	7178.95
853.7908	1023.1299	8051.5	7175.6
853.9359	1025.12	8065.85	7189.45
854.081	1027.1093	8137.4	7263.3
854.2261	1029.0979	8205.05	7329.05
854.3712	1031.0859	8263.95	7389.95
854.5163	1033.0731	8259.7	7381.25
854.6613	1035.0596	8187.05	7315.5
854.8064	1037.0454	8048.55	7173.15
854.9515	1039.0304	7918.3	7041.7
855.0965	1041.0148	7807.35	6932.7
855.2416	1042.9985	7710.15	6831.45
855.3867	1044.9814	7672.9	6798.5
855.5317	1046.9636	7621.25	6743.5
855.6768	1048.9452	7576.5	6703.55
855.8219	1050.926	7559.2	6681.6
855.9669	1052.9061	7541.55	6667.35
856.112	1054.8855	7543.25	6667.1
856.257	1056.8642	7579.25	6705.35
856.4021	1058.8421	7629.25	6748.9
856.5471	1060.8194	7647.15	6770.3
856.6921	1062.7959	7676	6799.15
856.8372	1064.7717	7668.15	6790.65
856.9822	1066.7469	7666.5	6789.65
857.1272	1068.7213	7635.45	6755.35
857.2723	1070.695	7595.85	6720.5
857.4173	1072.6679	7515.1	6636.95
857.5623	1074.6402	7469.45	6592.9
857.7073	1076.6117	7466.55	6586.95
857.8523	1078.5826	7471.05	6595.6
857.9973	1080.5527	7540.3	6659.2
858.1423	1082.5221	7706.45	6830.5
858.2873	1084.4908	7948.55	7070.2
858.4323	1086.4587	8169.05	7289.5
858.5773	1088.426	8344.25	7465.65
858.7223	1090.3925	8361.6	7480.1
858.8673	1092.3584	8268.65	7392.25
859.0123	1094.3235	8091.8	7216.05
859.1573	1096.2879	7997.6	7120.6
859.3022	1098.2515	7910.35	7033.9
859.4472	1100.2145	7939.7	7063.85
859.5922	1102.1767	7991.35	7111.5
859.7371	1104.1382	8153.1	7273.9
859.8821	1106.099	8352.4	7473.55
860.027	1108.0591	8561.45	7683.55
860.172	1110.0185	8694.95	7816.8
860.3169	1111.9771	8708.6	7832.3
860.4619	1113.9351	8489.05	7609.9
860.6068	1115.8923	8130.45	7253.4
860.7517	1117.8488	7806.85	6929.9
860.8967	1119.8045	7515.1	6637
861.0416	1121.7596	7343.3	6464.55
861.1865	1123.7139	7265.35	6388.8
861.3314	1125.6675	7270.15	6391.3
861.4763	1127.6204	7337.35	6459.4
861.6212	1129.5726	7372.55	6491.25
861.7661	1131.524	7383.3	6507.35
861.911	1133.4748	7442.65	6563.7
862.0559	1135.4248	7467	6586.35
862.2008	1137.3741	7499.9	6621.85
862.3457	1139.3226	7474.5	6593.5
862.4905	1141.2705	7450.5	6573.05
862.6354	1143.2176	7383.2	6502.4
862.7803	1145.164	7394.3	6512.95
862.9251	1147.1097	7433.3	6556.4
863.07	1149.0546	7421.55	6541.45
863.2148	1150.9989	7323.55	6441.9
863.3597	1152.9424	7130.95	6253.6
863.5045	1154.8852	6935.15	6055.45
863.6493	1156.8272	6779.2	5904.2
863.7942	1158.7686	6705.25	5819.05
863.939	1160.7092	6655.45	5777.05
864.0838	1162.6491	6649.55	5768.5
864.2286	1164.5883	6689.75	5812.35
864.3734	1166.5267	6780.35	5899.3
864.5182	1168.4644	6925.1	6045.85
864.663	1170.4014	7107.25	6223.85
864.8078	1172.3377	7315.8	6440.25
864.9526	1174.2732	7538.1	6658.1
865.0974	1176.2081	7737.25	6858.95
865.2421	1178.1421	7932.65	7048.55
865.3869	1180.0755	8044	7166.4
865.5317	1182.0082	8059.95	7179.95
865.6764	1183.9401	7979.75	7098.2
865.8212	1185.8713	7773.95	6895.9
865.9659	1187.8017	7518.1	6640.45
866.1106	1189.7315	7262.65	6382.4
866.2554	1191.6605	7043.95	6136.95
866.4001	1193.5888	6833.3	5954.45
866.5448	1195.5163	6682.8	5802.7
866.6895	1197.4432	6588.9	5707.05
866.8342	1199.3693	6502.65	5622.5
866.9789	1201.2947	6453.95	5571.25
867.1236	1203.2193	6429.75	5549.85
