Software Version:	3.9.2.0
Unit SN:	10000200
Spectrometer SN:	6960
Date:	3/14/2024 1:40:15 PM
Data Line Index:	25
Spectral Points:	2048
Integration time (ms):	125
Averages:	20
Delay (ms):	30000
Sequence Number:	1
Processing:	dark subtract
Laser Power (mW):	300
Laser Current (mA):	825
Laser Diode Temp (C):	25
Laser Case Temp (C):	28.7
System Temp (C):	28.7
Spectrometer Temp (C):	26.5
CCD Temp (C):	0.005
Secondary Temp (C):	20.011
Heatsink Temp (C):	24.73
CCDPCB Temp (C):	38.197
SecondaryPCB Temp (C):	35.751

Wavelength	RamanShift	Raw Counts	Dark Subtracted
787.061	30.1047	465.4	53.9
787.2016	32.3739	470.25	61.8
787.3422	34.6426	474.5	65.85
787.4828	36.9109	481.8	69.2
787.6235	39.1787	492.3	77.4
787.7642	41.4461	503.7	84.8
787.9049	43.7131	514.2	90.7
788.0456	45.9796	521.65	95.45
788.1863	48.2456	532.15	100.5
788.3271	50.5112	540.3	103.45
788.4679	52.7764	551.75	114.4
788.6087	55.0411	564.35	122.55
788.7496	57.3054	574.65	127.2
788.8904	59.5692	587.9	138.25
789.0313	61.8326	598.8	144.5
789.1722	64.0955	613.1	153.85
789.3132	66.3579	632.55	167.75
789.4541	68.6199	658.8	191.8
789.5951	70.8815	689.15	220.6
789.7361	73.1426	778.2	306.8
789.8771	75.4032	995.5	517.4
790.0181	77.6634	1541.4	1058.15
790.1592	79.9231	2844.5	2354.75
790.3003	82.1824	5705.5	5206.35
790.4414	84.4412	10897.85	10378.5
790.5825	86.6995	18289.85	17745.95
790.7237	88.9574	25623.95	25057.15
790.8648	91.2148	30743	30163.65
791.006	93.4717	33163.9	32572.55
791.1472	95.7282	33689.7	33095.65
791.2885	97.9842	33607.05	33010.85
791.4297	100.2398	32991.5	32389.5
791.571	102.4949	32335.85	31733.25
791.7123	104.7495	31496.9	30889.4
791.8536	107.0036	30593.95	29982.65
791.9949	109.2573	29786.5	29177.75
792.1363	111.5105	29089.55	28477.3
792.2777	113.7632	28346.75	27733.7
792.4191	116.0154	27759.15	27134.55
792.5605	118.2672	27356.25	26740.8
792.7019	120.5185	26914.55	26298.05
792.8434	122.7693	26539	25919.95
792.9849	125.0197	26269.25	25647.2
793.1264	127.2696	26022.3	25396.05
793.2679	129.519	25862.4	25235.85
793.4094	131.7679	25596	24968
793.551	134.0163	25400.05	24765.6
793.6926	136.2642	25094.3	24454.5
793.8342	138.5117	24858.25	24210.4
793.9758	140.7587	24452.2	23810.8
794.1175	143.0052	24211.5	23564.5
794.2591	145.2512	23913.6	23268.6
794.4008	147.4967	23638	22991.85
794.5425	149.7417	23461.55	22813.65
794.6842	151.9863	23289.8	22640.65
794.826	154.2304	23222.15	22568.8
794.9677	156.4739	23052.75	22391.65
795.1095	158.717	22974.75	22314.15
795.2513	160.9596	22787.65	22124.15
795.3931	163.2017	22514.1	21852.25
795.535	165.4433	22180	21513
795.6768	167.6844	21819.25	21150.55
795.8187	169.925	21509.9	20837.1
795.9606	172.1651	21102.05	20429.8
796.1025	174.4047	20821	20141.35
796.2445	176.6439	20545.25	19864.75
796.3864	178.8825	20296	19613.45
796.5284	181.1206	20117.25	19434.45
796.6704	183.3582	19970.55	19282.35
796.8124	185.5954	19846.3	19156.45
796.9544	187.832	19771.95	19080
797.0965	190.0681	19719.25	19022.1
797.2386	192.3037	19691.6	18992.4
797.3806	194.5388	19682.95	18979.85
797.5228	196.7734	19720.2	19019.4
797.6649	199.0075	19791.95	19083.75
797.807	201.2411	19938.8	19228.9
797.9492	203.4742	20000.05	19290.95
798.0914	205.7068	20159.15	19445.65
798.2336	207.9389	20294.1	19581.25
798.3758	210.1704	20387.55	19671.75
798.518	212.4015	20522.6	19803.25
798.6603	214.632	20626.05	19905.7
798.8025	216.862	20814.2	20103.2
798.9448	219.0915	20952.75	20250
799.0871	221.3205	21100.15	20398.55
799.2294	223.549	21268.2	20567.55
799.3718	225.777	21458.15	20765.6
799.5141	228.0044	21697.65	20998.35
799.6565	230.2314	22017.75	21321.6
799.7989	232.4578	22323.9	21625.25
799.9413	234.6837	22592.65	21888.35
800.0837	236.909	22707.7	21999.75
800.2262	239.1339	22724.55	21991.45
800.3687	241.3582	22562.4	21846.2
800.5111	243.582	22340.7	21601.15
800.6536	245.8053	22124.9	21389.15
800.7961	248.0281	21904.6	21172.8
800.9387	250.2503	21788.4	21056.5
801.0812	252.472	21699.65	20963.4
801.2238	254.6932	21708.6	20967
801.3664	256.9139	21705.55	20962.3
801.509	259.134	21841.1	21096.6
801.6516	261.3536	21911.1	21165.8
801.7942	263.5727	22117.9	21374.05
801.9369	265.7912	22152.75	21404.35
802.0795	268.0092	22358.35	21613.55
802.2222	270.2267	22382.3	21637.5
802.3649	272.4436	22420	21672.25
802.5076	274.6601	22374.95	21618.5
802.6504	276.8759	22251.2	21499.85
802.7931	279.0913	22177.65	21425.3
802.9359	281.3061	22019.95	21264.6
803.0787	283.5204	22053.85	21296.3
803.2215	285.7341	22037.4	21280.5
803.3643	287.9473	22120.6	21348.15
803.5071	290.16	22258.6	21494.15
803.6499	292.3721	22525.45	21765.7
803.7928	294.5837	22811.15	22048.6
803.9357	296.7947	23101.6	22340.45
804.0786	299.0052	23294.35	22534.55
804.2215	301.2152	23190.85	22425.75
804.3644	303.4246	22912	22150.9
804.5074	305.6334	22395.15	21633.2
804.6503	307.8418	21897.95	21132.5
804.7933	310.0495	21436.05	20670.3
804.9363	312.2568	21050.2	20288.4
805.0793	314.4635	20685.9	19923.2
805.2223	316.6696	20519.8	19752.85
805.3653	318.8752	20372.85	19595.85
805.5084	321.0802	20349.1	19584.4
805.6514	323.2847	20370.45	19599.15
805.7945	325.4887	20396.1	19622.7
805.9376	327.692	20350.85	19578.8
806.0807	329.8949	20289.7	19518.05
806.2238	332.0972	20027.25	19253.4
806.367	334.2989	19741.45	18961.3
806.5101	336.5001	19482.85	18707.55
806.6533	338.7007	19284.35	18505.95
806.7965	340.9008	19144.45	18361.4
806.9397	343.1003	18977.7	18196.6
807.0829	345.2992	18864.05	18082.5
807.2261	347.4976	18841.25	18060.55
807.3693	349.6955	18773.6	17986.3
807.5126	351.8927	18784.75	17998.35
807.6559	354.0895	18710.2	17912.55
807.7991	356.2856	18722.9	17936.05
807.9424	358.4812	18654.55	17865.65
808.0857	360.6763	18703.9	17915.05
808.2291	362.8707	18674.55	17883.45
808.3724	365.0646	18681.6	17891.2
808.5158	367.258	18664.1	17868.75
808.6591	369.4508	18730.85	17933.4
808.8025	371.643	18808.8	18012.65
808.9459	373.8346	18819.6	18020.2
809.0893	376.0257	18819.8	18016.35
809.2327	378.2162	18754.3	17950.45
809.3762	380.4062	18717.95	17913.9
809.5196	382.5956	18547.45	17742.35
809.6631	384.7844	18416.25	17610.8
809.8066	386.9726	18270.15	17461.35
809.9501	389.1603	18201.2	17392
810.0936	391.3474	18156.7	17319.55
810.2371	393.5339	18121.95	17316.9
810.3806	395.7199	18012.65	17213.15
810.5241	397.9052	18050.55	17252.35
810.6677	400.09	18086.25	17284.3
810.8113	402.2743	18155.25	17357.35
810.9548	404.4579	18262.7	17464.05
811.0984	406.641	18455.4	17657.55
811.2421	408.8235	18647.4	17847.75
811.3857	411.0054	18880.4	18080.55
811.5293	413.1868	19213.5	18409.55
811.673	415.3675	19390.25	18589.2
811.8166	417.5477	19497.6	18694.35
811.9603	419.7273	19513.7	18706.3
812.104	421.9064	19389.9	18575.15
812.2477	424.0848	19270	18457.2
812.3914	426.2627	19030.55	18216.55
812.5351	428.4399	18738.65	17924
812.6788	430.6166	18403.25	17585.4
812.8226	432.7928	18013.5	17196.05
812.9663	434.9683	17647.3	16829.05
813.1101	437.1432	17414.2	16593.45
813.2539	439.3176	17226.1	16408
813.3977	441.4914	17081.2	16261.5
813.5415	443.6645	17069.9	16244.95
813.6853	445.8371	16973.1	16150.2
813.8291	448.0091	16897.75	16079.8
813.973	450.1806	16829.2	16007.45
814.1168	452.3514	16780.05	15955.95
814.2607	454.5216	16778.6	15941.8
814.4046	456.6913	16697.85	15874.2
814.5485	458.8603	16756.35	15930.1
814.6924	461.0288	16812.85	15990.65
814.8363	463.1967	16795.45	15969.95
814.9802	465.3639	16860.35	16035.85
815.1241	467.5306	16871.95	16043.7
815.2681	469.6967	16932.05	16102.85
815.412	471.8622	17048.05	16220.55
815.556	474.0271	17115.95	16291.8
815.7	476.1914	17178.7	16348.65
815.844	478.3551	17139.4	16314.6
815.988	480.5182	17146.65	16318.95
816.132	482.6807	17157.25	16327.5
816.276	484.8426	17303.45	16474.65
816.4201	487.0039	17627.6	16799.6
816.5641	489.1647	18030	17196
816.7082	491.3248	18426.45	17597.4
816.8522	493.4843	18554.15	17723.8
816.9963	495.6432	18525.4	17693.55
817.1404	497.8015	18370.75	17534.9
817.2845	499.9592	18288	17455
817.4286	502.1163	18132.5	17300.55
817.5727	504.2728	17849.25	17011.3
817.7168	506.4287	17556.3	16722.1
817.861	508.5839	17123.55	16287.3
818.0051	510.7386	16862.05	16026.3
818.1493	512.8927	16702.35	15856.55
818.2935	515.0461	16599.8	15763.95
818.4377	517.199	16602.9	15768.9
818.5818	519.3512	16690.7	15857.4
818.726	521.5029	16821.8	15977.8
818.8703	523.6539	16979.5	16138.7
819.0145	525.8043	17041.95	16201.45
819.1587	527.9541	17010.5	16168.45
819.303	530.1033	16899.35	16059.4
819.4472	532.2519	16795.35	15953.25
819.5915	534.3999	16848	16006.35
819.7357	536.5472	17005.5	16161.9
819.88	538.694	17355.25	16513.65
820.0243	540.8401	17787.55	16945.1
820.1686	542.9856	18172.25	17326.85
820.3129	545.1305	18244.65	17399.55
820.4572	547.2748	18147.65	17302
820.6016	549.4185	17800.95	16952.95
820.7459	551.5615	17502.75	16659
820.8902	553.704	17399.65	16553.35
821.0346	555.8458	17361.1	16517.9
821.1789	557.987	17480.5	16636.8
821.3233	560.1276	17549.15	16701.55
821.4677	562.2675	17757.65	16915.45
821.6121	564.4069	17994.9	17150.4
821.7565	566.5456	18239.3	17396.2
821.9009	568.6837	18258.85	17411.5
822.0453	570.8212	17891.7	17047.7
822.1897	572.958	17355	16507.95
822.3342	575.0942	16830	15983.05
822.4786	577.2299	16496.05	15650.85
822.6231	579.3648	16376.85	15530.45
822.7675	581.4992	16358.7	15510.45
822.912	583.6329	16523.7	15674.7
823.0565	585.766	16731.1	15886.3
823.201	587.8985	16834.55	15989.2
823.3454	590.0304	16868.75	15998.3
823.4899	592.1616	16743.35	15891.1
823.6345	594.2922	16620.5	15773.15
823.779	596.4222	16406.55	15555.65
823.9235	598.5515	16185.6	15335
824.068	600.6802	16055.55	15207.25
824.2126	602.8083	15828	14976.5
824.3571	604.9358	15776.75	14925.75
824.5017	607.0626	15737.35	14885.95
824.6462	609.1888	15767.05	14914.35
824.7908	611.3144	15781.9	14930.25
824.9354	613.4393	15769.2	14919.2
825.08	615.5636	15761.35	14906.85
825.2246	617.6873	15687.6	14836.15
825.3692	619.8103	15641.25	14788.8
825.5138	621.9327	15507.2	14650.8
825.6584	624.0544	15327.5	14473.3
825.803	626.1756	15209.3	14360
825.9477	628.2961	15105.15	14253.45
826.0923	630.4159	15060.2	14209.1
826.237	632.5351	14995.3	14140
826.3816	634.6537	14947.35	14092.4
826.5263	636.7716	14923.85	14067.35
826.6709	638.8889	14922.1	14066.1
826.8156	641.0056	14911.15	14054.3
826.9603	643.1216	14876.95	14018.2
827.105	645.237	14890.5	14033.55
827.2497	647.3518	14812.75	13955.4
827.3944	649.4659	14783.85	13928.05
827.5391	651.5793	14739.05	13883.1
827.6838	653.6922	14688.3	13831.85
827.8285	655.8043	14673.3	13815.9
827.9733	657.9159	14648.35	13787.7
828.118	660.0268	14566.95	13704.85
828.2627	662.137	14534.5	13677.9
828.4075	664.2466	14518.4	13660.45
828.5522	666.3556	14488.65	13627.7
828.697	668.4639	14415.75	13555.55
828.8418	670.5716	14460.65	13600.6
828.9865	672.6786	14453.35	13593.95
829.1313	674.785	14440.6	13579.9
829.2761	676.8907	14435.15	13575.2
829.4209	678.9958	14482.4	13624.05
829.5657	681.1002	14466	13605.05
829.7105	683.204	14417.2	13553.8
829.8553	685.3072	14367.45	13505.35
830.0001	687.4097	14312.65	13451
830.1449	689.5115	14298.05	13435.7
830.2898	691.6127	14241.6	13379.2
830.4346	693.7132	14173.5	13310.7
830.5794	695.8131	14162.4	13287.6
830.7243	697.9123	14104.25	13238.65
830.8691	700.0109	14104.4	13240.4
831.014	702.1089	14119.6	13259.9
831.1588	704.2061	14113.3	13248.95
831.3037	706.3028	14108	13243.35
831.4486	708.3987	14153.75	13291.15
831.5935	710.4941	14172.5	13308.6
831.7383	712.5887	14282.35	13419.3
831.8832	714.6827	14508.7	13638.75
832.0281	716.7761	14730.85	13866.4
832.173	718.8688	15028.5	14160.3
832.3179	720.9608	15186.65	14316.25
832.4628	723.0522	15252.4	14384.95
832.6077	725.1429	15154.5	14288.7
832.7527	727.233	15053.7	14185.45
832.8976	729.3224	14947.85	14079.55
833.0425	731.4112	14730.7	13862.55
833.1874	733.4993	14525.1	13656.95
833.3324	735.5867	14299.4	13429.2
833.4773	737.6735	14120.5	13251.15
833.6222	739.7596	13984.25	13115.45
833.7672	741.845	13869.1	12999.95
833.9122	743.9298	13772.45	12902.3
834.0571	746.014	13793.15	12924.8
834.2021	748.0974	13730.85	12862.85
834.347	750.1802	13722.4	12855.3
834.492	752.2624	13719.9	12852.3
834.637	754.3439	13783.7	12913.4
834.782	756.4247	13877	13001.65
834.9269	758.5048	14008.35	13139.9
835.0719	760.5843	14266.4	13398.45
835.2169	762.6631	14607.2	13738.25
835.3619	764.7413	15120.2	14251.55
835.5069	766.8188	15761.65	14890.9
835.6519	768.8956	16288.45	15416.45
835.7969	770.9718	16629.95	15760.65
835.9419	773.0473	16532.75	15661.1
836.0869	775.1221	16176.05	15306.35
836.232	777.1962	15821.3	14949.15
836.377	779.2697	15644	14771.95
836.522	781.3426	15657.15	14777.65
836.667	783.4147	15844.05	14973.35
836.8121	785.4862	16005.95	15138.95
836.9571	787.557	15936.7	15065.35
837.1021	789.6271	15531.65	14659.1
837.2472	791.6966	14911.3	14040.25
837.3922	793.7654	14279	13407
837.5373	795.8335	13912.8	13040.25
837.6823	797.901	13648.65	12777.95
837.8274	799.9678	13527.95	12655.2
837.9724	802.0339	13424.7	12555.55
838.1175	804.0993	13439.7	12558.9
838.2626	806.1641	13370.05	12498.25
838.4076	808.2282	13305	12433.85
838.5527	810.2916	13196.1	12320.6
838.6978	812.3544	13124.25	12253
838.8428	814.4164	13011.1	12139.35
838.9879	816.4778	13003.25	12128.15
839.133	818.5385	13026.3	12155.25
839.2781	820.5986	13126.85	12255.45
839.4232	822.658	13298.1	12424.3
839.5682	824.7166	13517.65	12648.75
839.7133	826.7747	13867.4	12994.65
839.8584	828.832	14271.1	13399.2
840.0035	830.8886	14469.2	13592.3
840.1486	832.9446	14647.95	13775.85
840.2937	834.9999	14580.95	13709.4
840.4388	837.0545	14395.25	13516.65
840.5839	839.1085	14222.3	13347.65
840.729	841.1618	14007.35	13130.15
840.8741	843.2143	13853.25	12980.35
841.0192	845.2662	13678.35	12804.7
841.1643	847.3175	13566.3	12692.6
841.3095	849.368	13433.55	12561.3
841.4546	851.4179	13318.65	12445.1
841.5997	853.467	13172.75	12298
841.7448	855.5155	13076.9	12201.3
841.8899	857.5633	12973.65	12101.25
842.0351	859.6105	12869.95	11997
842.1802	861.6569	12765.5	11889.25
842.3253	863.7027	12681.2	11805.85
842.4704	865.7478	12661.5	11785.8
842.6156	867.7922	12641.15	11767.65
842.7607	869.8359	12604.75	11729.15
842.9058	871.8789	12684.55	11808.75
843.0509	873.9212	12793.45	11881.35
843.1961	875.9629	12868.05	11990.7
843.3412	878.0039	13024.9	12149.55
843.4863	880.0441	13130.45	12255.45
843.6315	882.0837	13147.35	12270.55
843.7766	884.1226	13110.4	12232.85
843.9218	886.1609	13047.35	12171.25
844.0669	888.1984	13056.3	12180.95
844.212	890.2352	13111.1	12237.85
844.3572	892.2714	13083.95	12204.25
844.5023	894.3069	13011.5	12134.45
844.6475	896.3416	12843.25	11966.55
844.7926	898.3757	12789.4	11912.4
844.9377	900.4091	12679.95	11803.85
845.0829	902.4418	12722.15	11840.35
845.228	904.4739	12720.15	11842.15
845.3732	906.5052	12741.35	11864.15
845.5183	908.5358	12631.9	11755.8
845.6635	910.5658	12489.9	11609.2
845.8086	912.595	12303.35	11426.05
845.9538	914.6236	12070.05	11194.25
846.0989	916.6515	11978.8	11102.75
846.2441	918.6786	11927.55	11048.2
846.3892	920.7051	11951.4	11070.85
846.5344	922.7309	12024.3	11146.9
846.6795	924.756	12046.95	11169.95
846.8246	926.7804	12106.65	11225.55
846.9698	928.8041	12065.05	11184.15
847.1149	930.8272	12108.75	11229.35
847.2601	932.8495	12056.1	11176
847.4052	934.8711	12036.1	11155.1
847.5504	936.892	11918.25	11039.9
847.6955	938.9123	11807.65	10926.95
847.8407	940.9318	11761.3	10884.15
847.9858	942.9506	11676.55	10798.3
848.131	944.9688	11587.2	10708.45
848.2761	946.9862	11478.8	10599.4
848.4213	949.003	11352	10472.9
848.5664	951.019	11312.95	10435.55
848.7115	953.0344	11283.15	10403.8
848.8567	955.0491	11278.15	10397.25
849.0018	957.063	11348.85	10470.8
849.147	959.0763	11408.05	10531.4
849.2921	961.0888	11456.2	10573.5
849.4373	963.1007	11546.65	10666.95
849.5824	965.1119	11544.3	10664.85
849.7275	967.1223	11527.3	10648.15
849.8727	969.1321	11517.55	10640.5
850.0178	971.1412	11536	10657.35
850.1629	973.1495	11527.15	10646.85
850.3081	975.1572	11556.5	10645.3
850.4532	977.1641	11528.45	10651.3
850.5983	979.1704	11496.9	10616.25
850.7435	981.1759	11466.6	10582.95
850.8886	983.1808	11489.55	10609.45
851.0337	985.1849	11551.85	10659.6
851.1788	987.1884	11648.9	10766.95
851.324	989.1911	11781.4	10896.25
851.4691	991.1932	11876.75	10992.05
851.6142	993.1945	11875.75	10994.5
851.7593	995.1951	11861.55	10981
851.9045	997.1951	11806.8	10920.6
852.0496	999.1943	11725.95	10844.2
852.1947	1001.1928	11733.6	10852.3
852.3398	1003.1906	11726.65	10848
852.4849	1005.1877	11814.9	10932.1
852.63	1007.1841	11842.3	10959.85
852.7751	1009.1798	11803.5	10922.75
852.9202	1011.1748	11660.15	10780.45
853.0653	1013.1691	11472.3	10591.05
853.2104	1015.1627	11251.1	10369.2
853.3555	1017.1556	11017.8	10137.8
853.5006	1019.1477	10899.05	10016.9
853.6457	1021.1392	10783.2	9902.15
853.7908	1023.1299	10761.55	9879.6
853.9359	1025.12	10756.4	9872.75
854.081	1027.1093	10811.6	9929.95
854.2261	1029.0979	10902.2	10021.65
854.3712	1031.0859	10980.7	10098.55
854.5163	1033.0731	10991.95	10109
854.6613	1035.0596	10937.85	10055.35
854.8064	1037.0454	10782.4	9901.55
854.9515	1039.0304	10672.75	9793.15
855.0965	1041.0148	10535.85	9654
855.2416	1042.9985	10412.9	9530.05
855.3867	1044.9814	10372.55	9494.85
855.5317	1046.9636	10299.8	9417.6
855.6768	1048.9452	10262.85	9382.65
855.8219	1050.926	10288.35	9408.55
855.9669	1052.9061	10310.75	9430.5
856.112	1054.8855	10314.2	9432.8
856.257	1056.8642	10330.7	9449.9
856.4021	1058.8421	10379.2	9496.4
856.5471	1060.8194	10398.95	9516.85
856.6921	1062.7959	10442.75	9561.35
856.8372	1064.7717	10465.35	9580.65
856.9822	1066.7469	10511.65	9628.5
857.1272	1068.7213	10553.15	9669.35
857.2723	1070.695	10565.85	9684.25
857.4173	1072.6679	10529	9646.8
857.5623	1074.6402	10538.35	9655.75
857.7073	1076.6117	10501.9	9615.65
857.8523	1078.5826	10421.25	9538.5
857.9973	1080.5527	10362.5	9478.85
858.1423	1082.5221	10336.85	9455.9
858.2873	1084.4908	10400.85	9519.3
858.4323	1086.4587	10525.3	9644.35
858.5773	1088.426	10612.9	9730.25
858.7223	1090.3925	10611.15	9725.25
858.8673	1092.3584	10607.7	9725.75
859.0123	1094.3235	10531	9649.05
859.1573	1096.2879	10534.6	9652.4
859.3022	1098.2515	10560.9	9678.95
859.4472	1100.2145	10698.9	9817.85
859.5922	1102.1767	10816.2	9931.25
859.7371	1104.1382	11034.15	10152.1
859.8821	1106.099	11248.6	10363.4
860.027	1108.0591	11450.15	10567.75
860.172	1110.0185	11626.75	10741.8
860.3169	1111.9771	11682.1	10799.3
860.4619	1113.9351	11500.05	10617.4
860.6068	1115.8923	11287	10404.75
860.7517	1117.8488	11038.85	10154.45
860.8967	1119.8045	10803.15	9919.6
861.0416	1121.7596	10685.1	9802.2
861.1865	1123.7139	10592.7	9708.5
861.3314	1125.6675	10537.75	9655.75
861.4763	1127.6204	10559.1	9674.45
861.6212	1129.5726	10544.35	9661
861.7661	1131.524	10478.15	9596.7
861.911	1133.4748	10380.05	9497.5
862.0559	1135.4248	10294.3	9408.35
862.2008	1137.3741	10190.6	9308.55
862.3457	1139.3226	10103.1	9220.25
862.4905	1141.2705	10034.7	9154.9
862.6354	1143.2176	9923.7	9034.7
862.7803	1145.164	9895	9012.1
862.9251	1147.1097	9853.3	8970.45
863.07	1149.0546	9802.55	8916.6
863.2148	1150.9989	9697.15	8813.75
863.3597	1152.9424	9576.85	8692.3
863.5045	1154.8852	9435.1	8550.35
863.6493	1156.8272	9353.95	8471.4
863.7942	1158.7686	9333.55	8441.5
863.939	1160.7092	9324.5	8440.25
864.0838	1162.6491	9343.35	8458.55
864.2286	1164.5883	9423.35	8541.45
864.3734	1166.5267	9516.25	8631.05
864.5182	1168.4644	9669.3	8784.7
864.663	1170.4014	9859.55	8972.5
864.8078	1172.3377	10124.15	9241.3
864.9526	1174.2732	10369.9	9487.8
865.0974	1176.2081	10721.6	9839.45
865.2421	1178.1421	11094.75	10206.5
865.3869	1180.0755	11476.75	10592.85
865.5317	1182.0082	11702.5	10819.6
865.6764	1183.9401	11802	10916.4
865.8212	1185.8713	11691.4	10810.35
