Software Version:	3.9.2.0
Unit SN:	10000200
Spectrometer SN:	6960
Date:	3/14/2024 12:33:45 PM
Data Line Index:	25
Spectral Points:	2048
Integration time (ms):	125
Averages:	20
Delay (ms):	30000
Sequence Number:	1
Processing:	dark subtract
Laser Power (mW):	300
Laser Current (mA):	823
Laser Diode Temp (C):	25.1
Laser Case Temp (C):	26.4
System Temp (C):	26.4
Spectrometer Temp (C):	23.9
CCD Temp (C):	0.005
Secondary Temp (C):	20.006
Heatsink Temp (C):	22.796
CCDPCB Temp (C):	36.474
SecondaryPCB Temp (C):	33.728

Wavelength	RamanShift	Raw Counts	Dark Subtracted
787.061	30.1047	416.85	5.1
787.2016	32.3739	416.35	7.6
787.3422	34.6426	419.3	8.65
787.4828	36.9109	419.35	5.85
787.6235	39.1787	423.75	6.75
787.7642	41.4461	430.9	9.15
787.9049	43.7131	433.9	10.55
788.0456	45.9796	438.25	8.35
788.1863	48.2456	441.9	8.9
788.3271	50.5112	446.15	7.4
788.4679	52.7764	448.95	8.75
788.6087	55.0411	451.8	10.35
788.7496	57.3054	457.9	10.9
788.8904	59.5692	462.4	13.85
789.0313	61.8326	466.2	12.5
789.1722	64.0955	472.2	14.7
789.3132	66.3579	479.4	16.05
789.4541	68.6199	486.65	23.1
789.5951	70.8815	491.7	25.15
789.7361	73.1426	507.85	38.2
789.8771	75.4032	540.9	65.25
790.0181	77.6634	606.75	126.55
790.1592	79.9231	754.55	270.65
790.3003	82.1824	1075.2	586.95
790.4414	84.4412	1601.75	1109.9
790.5825	86.6995	2299.5	1799.25
790.7237	88.9574	2983.9	2477.85
790.8648	91.2148	3464.25	2954.75
791.006	93.4717	3701.35	3186.4
791.1472	95.7282	3754.65	3236.15
791.2885	97.9842	3785.05	3263.9
791.4297	100.2398	3755.4	3231.75
791.571	102.4949	3715.5	3188.1
791.7123	104.7495	3688.4	3158.8
791.8536	107.0036	3675.65	3142.6
791.9949	109.2573	3622.4	3092.25
792.1363	111.5105	3559	3025.25
792.2777	113.7632	3507.8	2972.95
792.4191	116.0154	3448.25	2903.15
792.5605	118.2672	3381.25	2842.85
792.7019	120.5185	3288.65	2749.7
792.8434	122.7693	3236.95	2695.15
792.9849	125.0197	3169.85	2624.25
793.1264	127.2696	3094	2547.25
793.2679	129.519	3058.25	2509.3
793.4094	131.7679	3037.7	2485.05
793.551	134.0163	3030.4	2473.6
793.6926	136.2642	3026.3	2466.75
793.8342	138.5117	3017.75	2454.05
793.9758	140.7587	3004.95	2441.65
794.1175	143.0052	2994.4	2428.3
794.2591	145.2512	2932.6	2364.05
794.4008	147.4967	2906.55	2337.75
794.5425	149.7417	2861.9	2290.45
794.6842	151.9863	2829.9	2253.25
794.826	154.2304	2819.3	2240.7
794.9677	156.4739	2815.65	2231.5
795.1095	158.717	2815.55	2234.5
795.2513	160.9596	2839.45	2250.6
795.3931	163.2017	2854.15	2264.75
795.535	165.4433	2858.65	2264.6
795.6768	167.6844	2882.2	2289
795.8187	169.925	2859.4	2263
795.9606	172.1651	2821.2	2220.65
796.1025	174.4047	2788.3	2183.85
796.2445	176.6439	2740.55	2132.2
796.3864	178.8825	2722.7	2111.9
796.5284	181.1206	2713.3	2101.4
796.6704	183.3582	2702.55	2085.55
796.8124	185.5954	2698.45	2081.8
796.9544	187.832	2689.75	2064.95
797.0965	190.0681	2688.35	2064.95
797.2386	192.3037	2697.1	2069.7
797.3806	194.5388	2682.7	2054.65
797.5228	196.7734	2698.35	2066.75
797.6649	199.0075	2715	2077.8
797.807	201.2411	2727.35	2087.1
797.9492	203.4742	2741.15	2101.85
798.0914	205.7068	2764.7	2122.6
798.2336	207.9389	2781.95	2141.15
798.3758	210.1704	2803.1	2158.8
798.518	212.4015	2782.1	2132.15
798.6603	214.632	2788.6	2141.4
798.8025	216.862	2777.05	2134.5
798.9448	219.0915	2782.8	2147.35
799.0871	221.3205	2789.35	2155.05
799.2294	223.549	2774.85	2148.1
799.3718	225.777	2787.85	2161.35
799.5141	228.0044	2777.85	2145.5
799.6565	230.2314	2776.75	2150
799.7989	232.4578	2766.55	2136.5
799.9413	234.6837	2764.95	2126.45
800.0837	236.909	2751.55	2113.7
800.2262	239.1339	2750.35	2088.65
800.3687	241.3582	2725.65	2079.7
800.5111	243.582	2748	2074
800.6536	245.8053	2743.65	2075.7
800.7961	248.0281	2736.5	2075.35
800.9387	250.2503	2745.5	2078.25
801.0812	252.472	2759.15	2087.75
801.2238	254.6932	2745.55	2072.3
801.3664	256.9139	2753.85	2078.35
801.509	259.134	2768.7	2089.55
801.6516	261.3536	2776.4	2097.15
801.7942	263.5727	2803.95	2121.85
801.9369	265.7912	2825.75	2145.65
802.0795	268.0092	2875.5	2194.55
802.2222	270.2267	2909.9	2228.95
802.3649	272.4436	2941.45	2257.5
802.5076	274.6601	2975.7	2284.95
802.6504	276.8759	2981.8	2294.45
802.7931	279.0913	3005.55	2317.55
802.9359	281.3061	3015.75	2325.25
803.0787	283.5204	3027.1	2333.45
803.2215	285.7341	3055.15	2359.9
803.3643	287.9473	3062.75	2366.6
803.5071	290.16	3065.3	2361.8
803.6499	292.3721	3038.25	2340.45
803.7928	294.5837	2997.25	2295.95
803.9357	296.7947	2958.6	2260.7
804.0786	299.0052	2938.35	2239.05
804.2215	301.2152	2909.55	2204.95
804.3644	303.4246	2905.4	2206.8
804.5074	305.6334	2901.2	2201.1
804.6503	307.8418	2902.05	2197.35
804.7933	310.0495	2891.5	2186.8
804.9363	312.2568	2857.4	2152.5
805.0793	314.4635	2817.7	2112.3
805.2223	316.6696	2779.75	2074.15
805.3653	318.8752	2740	2025.35
805.5084	321.0802	2716.15	2008.65
805.6514	323.2847	2706.55	1993.95
805.7945	325.4887	2702.95	1993.15
805.9376	327.692	2709.8	1999
806.0807	329.8949	2743.65	2031.2
806.2238	332.0972	2775.65	2060
806.367	334.2989	2806.75	2088.05
806.5101	336.5001	2806.9	2087.75
806.6533	338.7007	2790.45	2070.6
806.7965	340.9008	2751.95	2030.2
806.9397	343.1003	2716.2	1991.8
807.0829	345.2992	2668.6	1943.2
807.2261	347.4976	2634.9	1909.5
807.3693	349.6955	2601.1	1870.85
807.5126	351.8927	2596.65	1866.05
807.6559	354.0895	2580.65	1839.4
807.7991	356.2856	2562.4	1830.45
807.9424	358.4812	2545.4	1814.2
808.0857	360.6763	2546.1	1815.3
808.2291	362.8707	2540	1804.25
808.3724	365.0646	2541.95	1805.45
808.5158	367.258	2530.05	1790.6
808.6591	369.4508	2546.75	1805.2
808.8025	371.643	2569.45	1829
808.9459	373.8346	2578.85	1833.85
809.0893	376.0257	2614.15	1867.05
809.2327	378.2162	2649.6	1899.75
809.3762	380.4062	2670.25	1918.15
809.5196	382.5956	2651.25	1899.3
809.6631	384.7844	2615.85	1864.1
809.8066	386.9726	2572.8	1817.5
809.9501	389.1603	2534.25	1781.1
810.0936	391.3474	2542.55	1763.4
810.2371	393.5339	2514.8	1760.8
810.3806	395.7199	2510.5	1762.75
810.5241	397.9052	2528.3	1782.75
810.6677	400.09	2560.3	1815.65
810.8113	402.2743	2584.55	1840.15
810.9548	404.4579	2612.25	1865.65
811.0984	406.641	2639.6	1891.4
811.2421	408.8235	2667	1919
811.3857	411.0054	2711.4	1961.8
811.5293	413.1868	2780.05	2029.1
811.673	415.3675	2855.95	2101.65
811.8166	417.5477	2880.35	2124.8
811.9603	419.7273	2824.1	2063.55
812.104	421.9064	2732.8	1969.2
812.2477	424.0848	2664.7	1904.5
812.3914	426.2627	2593.25	1829
812.5351	428.4399	2557.25	1792.55
812.6788	430.6166	2513.65	1744
812.8226	432.7928	2477.95	1709.8
812.9663	434.9683	2441.65	1671.2
813.1101	437.1432	2424.4	1650.5
813.2539	439.3176	2407.7	1634.25
813.3977	441.4914	2388.65	1613.85
813.5415	443.6645	2396.75	1619.7
813.6853	445.8371	2386.3	1609.3
813.8291	448.0091	2387.9	1612.25
813.973	450.1806	2379.9	1602.25
814.1168	452.3514	2357.25	1580.3
814.2607	454.5216	2367.9	1582.5
814.4046	456.6913	2357.35	1576.55
814.5485	458.8603	2368.05	1588.2
814.6924	461.0288	2362.1	1580.5
814.8363	463.1967	2372.6	1592.2
814.9802	465.3639	2358	1573.7
815.1241	467.5306	2363.25	1580.4
815.2681	469.6967	2349.95	1568.05
815.412	471.8622	2334.35	1551.05
815.556	474.0271	2333.8	1549.5
815.7	476.1914	2329	1542.1
815.844	478.3551	2329.05	1543.7
815.988	480.5182	2332.2	1544
816.132	482.6807	2334.65	1546.15
816.276	484.8426	2345.85	1557.1
816.4201	487.0039	2383.7	1596.85
816.5641	489.1647	2425.65	1637.45
816.7082	491.3248	2446.3	1657.75
816.8522	493.4843	2457.45	1669.45
816.9963	495.6432	2458.05	1669.35
817.1404	497.8015	2430.15	1636.9
817.2845	499.9592	2407.65	1614.9
817.4286	502.1163	2360.75	1567.45
817.5727	504.2728	2319.45	1524.6
817.7168	506.4287	2299.8	1508.2
817.861	508.5839	2285.15	1493.95
818.0051	510.7386	2288.25	1494.25
818.1493	512.8927	2284.25	1483.15
818.2935	515.0461	2291.3	1496.5
818.4377	517.199	2287.05	1491.55
818.5818	519.3512	2327.9	1532.55
818.726	521.5029	2364.6	1561.8
818.8703	523.6539	2423.8	1626.9
819.0145	525.8043	2430.7	1634.15
819.1587	527.9541	2402.8	1601.6
819.303	530.1033	2340.85	1540.15
819.4472	532.2519	2292.1	1490.6
819.5915	534.3999	2285.4	1483.55
819.7357	536.5472	2273.55	1471.15
819.88	538.694	2269.35	1466.35
820.0243	540.8401	2283	1479.2
820.1686	542.9856	2293.05	1487.25
820.3129	545.1305	2302.75	1495.45
820.4572	547.2748	2324.25	1517.7
820.6016	549.4185	2320.9	1514.85
820.7459	551.5615	2317.85	1512.45
820.8902	553.704	2328.35	1521.55
821.0346	555.8458	2348.9	1543.2
821.1789	557.987	2363.15	1556.95
821.3233	560.1276	2380.7	1571.45
821.4677	562.2675	2422.25	1617.8
821.6121	564.4069	2482.5	1674.8
821.7565	566.5456	2529.75	1722.25
821.9009	568.6837	2509.6	1701.5
822.0453	570.8212	2447.85	1638.1
822.1897	572.958	2377.65	1566.3
822.3342	575.0942	2338.1	1529.45
822.4786	577.2299	2317.5	1506
822.6231	579.3648	2282.35	1471.5
822.7675	581.4992	2255.85	1441
822.912	583.6329	2256.45	1444.55
823.0565	585.766	2277.55	1467.4
823.201	587.8985	2299.25	1486.5
823.3454	590.0304	2356.55	1533.45
823.4899	592.1616	2373.65	1558.55
823.6345	594.2922	2380	1563
823.779	596.4222	2356.75	1541.05
823.9235	598.5515	2306.25	1489.85
824.068	600.6802	2269.9	1453.9
824.2126	602.8083	2229.9	1414.25
824.3571	604.9358	2214.5	1396.4
824.5017	607.0626	2209.75	1393.25
824.6462	609.1888	2207.35	1388
824.7908	611.3144	2224.35	1406.15
824.9354	613.4393	2245.15	1427.45
825.08	615.5636	2287.5	1470
825.2246	617.6873	2337.45	1518.45
825.3692	619.8103	2367.65	1546.35
825.5138	621.9327	2374.55	1549.35
825.6584	624.0544	2339.55	1518.35
825.803	626.1756	2297.5	1476.05
825.9477	628.2961	2249.35	1425.75
826.0923	630.4159	2221.8	1398.95
826.237	632.5351	2213.95	1390.9
826.3816	634.6537	2213.3	1388.2
826.5263	636.7716	2214.6	1390.25
826.6709	638.8889	2203.95	1380.5
826.8156	641.0056	2203.55	1379.7
826.9603	643.1216	2212.1	1386.55
827.105	645.237	2231.55	1403.65
827.2497	647.3518	2209.5	1381.95
827.3944	649.4659	2195.05	1367.6
827.5391	651.5793	2175.85	1348.65
827.6838	653.6922	2161.35	1334.2
827.8285	655.8043	2144.8	1318.35
827.9733	657.9159	2140.3	1309.95
828.118	660.0268	2131.4	1301.8
828.2627	662.137	2126.95	1297.75
828.4075	664.2466	2126	1295.85
828.5522	666.3556	2129.7	1299.35
828.697	668.4639	2126.25	1292.05
828.8418	670.5716	2117.3	1285.6
828.9865	672.6786	2112.05	1279.7
829.1313	674.785	2112	1278.3
829.2761	676.8907	2101.65	1270.6
829.4209	678.9958	2104.2	1272.5
829.5657	681.1002	2084.6	1251.05
829.7105	683.204	2103.05	1265.35
829.8553	685.3072	2088.95	1254.45
830.0001	687.4097	2096.2	1260.55
830.1449	689.5115	2103.95	1268.2
830.2898	691.6127	2095.5	1262.15
830.4346	693.7132	2092.7	1257.3
830.5794	695.8131	2095.1	1244.6
830.7243	697.9123	2092.95	1256.65
830.8691	700.0109	2089.05	1250.7
831.014	702.1089	2103.5	1267.8
831.1588	704.2061	2117.05	1280.95
831.3037	706.3028	2129.95	1290.65
831.4486	708.3987	2145	1308.6
831.5935	710.4941	2161.85	1323.45
831.7383	712.5887	2158.2	1319.15
831.8832	714.6827	2159.9	1315.3
832.0281	716.7761	2150.95	1311.85
832.173	718.8688	2139.05	1296.85
832.3179	720.9608	2135.7	1292.85
832.4628	723.0522	2149.3	1305.3
832.6077	725.1429	2161.6	1320.25
832.7527	727.233	2188.9	1347.7
832.8976	729.3224	2238	1397.95
833.0425	731.4112	2286	1444.45
833.1874	733.4993	2294.9	1453.25
833.3324	735.5867	2274.05	1432.45
833.4773	737.6735	2219.1	1375
833.6222	739.7596	2176.25	1333.15
833.7672	741.845	2154.55	1310.1
833.9122	743.9298	2147.1	1301.1
834.0571	746.014	2147.15	1303.65
834.2021	748.0974	2163.05	1317.25
834.347	750.1802	2169.7	1323.85
834.492	752.2624	2161.25	1314.8
834.637	754.3439	2145.8	1302.15
834.782	756.4247	2137.4	1283.2
834.9269	758.5048	2123.5	1277.1
835.0719	760.5843	2130	1284.1
835.2169	762.6631	2157.85	1311.95
835.3619	764.7413	2184.8	1341.4
835.5069	766.8188	2249.65	1401.8
835.6519	768.8956	2302.9	1454.45
835.7969	770.9718	2358.3	1510.85
835.9419	773.0473	2347.55	1501.6
836.0869	775.1221	2314.4	1467.2
836.232	777.1962	2296.35	1447.55
836.377	779.2697	2335.2	1486.8
836.522	781.3426	2439.35	1580.15
836.667	783.4147	2489.9	1639.65
836.8121	785.4862	2490.35	1641.6
836.9571	787.557	2424.85	1575.7
837.1021	789.6271	2334.2	1485.15
837.2472	791.6966	2236.25	1385.65
837.3922	793.7654	2140.3	1288.05
837.5373	795.8335	2095.65	1246.8
837.6823	797.901	2061.55	1213
837.8274	799.9678	2050.95	1199.75
837.9724	802.0339	2043.3	1194.15
838.1175	804.0993	2064.3	1202.25
838.2626	806.1641	2046.95	1194.45
838.4076	808.2282	2041.5	1190.35
838.5527	810.2916	2029.9	1176.3
838.6978	812.3544	2015.7	1166
838.8428	814.4164	1999.15	1148.55
838.9879	816.4778	2005.65	1154.05
839.133	818.5385	2011.65	1162.65
839.2781	820.5986	2024.9	1172.75
839.4232	822.658	2072.65	1220.35
839.5682	824.7166	2132.55	1280.05
839.7133	826.7747	2201.25	1349.65
839.8584	828.832	2258.15	1405.7
840.0035	830.8886	2302.1	1445.65
840.1486	832.9446	2334.3	1478.9
840.2937	834.9999	2314.2	1462.25
840.4388	837.0545	2256.4	1399.1
840.5839	839.1085	2181.8	1329.8
840.729	841.1618	2131.85	1273.75
840.8741	843.2143	2081.7	1227.45
841.0192	845.2662	2044.25	1190.8
841.1643	847.3175	2029.45	1174.9
841.3095	849.368	2022.55	1167.25
841.4546	851.4179	2022.5	1168.35
841.5997	853.467	2017.9	1163.1
841.7448	855.5155	2017.05	1160.8
841.8899	857.5633	2026	1171.45
842.0351	859.6105	2013	1157.85
842.1802	861.6569	1989.1	1134.5
842.3253	863.7027	1991.3	1133.55
842.4704	865.7478	1981.3	1124.9
842.6156	867.7922	1979.5	1122.85
842.7607	869.8359	1958.05	1099.9
842.9058	871.8789	1959.6	1102.25
843.0509	873.9212	1988.35	1094.85
843.1961	875.9629	1963.1	1106.8
843.3412	878.0039	1974.25	1116.5
843.4863	880.0441	1968	1110.6
843.6315	882.0837	1995.8	1137.4
843.7766	884.1226	2002.55	1139.9
843.9218	886.1609	2027.65	1172.15
844.0669	888.1984	2067.75	1209.5
844.212	890.2352	2105.4	1247.35
844.3572	892.2714	2115.55	1251.45
844.5023	894.3069	2108.05	1247.55
844.6475	896.3416	2064.25	1204.95
844.7926	898.3757	2018.65	1158.55
844.9377	900.4091	2000.95	1141.2
845.0829	902.4418	2007.8	1144.1
845.228	904.4739	2014.15	1153.45
845.3732	906.5052	2034.7	1173.1
845.5183	908.5358	2033.65	1174.55
845.6635	910.5658	2016.3	1153.55
845.8086	912.595	1987.25	1127.8
845.9538	914.6236	1970.85	1109.55
846.0989	916.6515	1936.15	1077.45
846.2441	918.6786	1928	1066.1
846.3892	920.7051	1906.6	1043.55
846.5344	922.7309	1898.05	1037.3
846.6795	924.756	1900.35	1039.75
846.8246	926.7804	1911.05	1048.25
846.9698	928.8041	1911.65	1048
847.1149	930.8272	1933.85	1071.55
847.2601	932.8495	1932.05	1070.4
847.4052	934.8711	1942	1078.15
847.5504	936.892	1946.25	1082.45
847.6955	938.9123	1956.9	1092.45
847.8407	940.9318	1983.35	1119.7
847.9858	942.9506	1993.55	1130.25
848.131	944.9688	1996.65	1133.2
848.2761	946.9862	1968.6	1102.7
848.4213	949.003	1943.05	1079.45
848.5664	951.019	1922.3	1057.6
848.7115	953.0344	1902.6	1038.75
848.8567	955.0491	1896.7	1032.65
849.0018	957.063	1892.2	1028.9
849.147	959.0763	1879.9	1015.95
849.2921	961.0888	1880.65	1012.55
849.4373	963.1007	1869.5	1004
849.5824	965.1119	1870.65	1006.25
849.7275	967.1223	1866.8	1000.85
849.8727	969.1321	1848.65	983.3
850.0178	971.1412	1861.3	995.9
850.1629	973.1495	1846.75	980.5
850.3081	975.1572	1900.5	983.15
850.4532	977.1641	1842.65	976.5
850.5983	979.1704	1847.85	980.45
850.7435	981.1759	1840.45	970.05
850.8886	983.1808	1832.6	964.75
851.0337	985.1849	1834.55	957.25
851.1788	987.1884	1827.2	959.05
851.324	989.1911	1838.25	969.6
851.4691	991.1932	1831.2	961.95
851.6142	993.1945	1836.15	969.55
851.7593	995.1951	1830.9	965.55
851.9045	997.1951	1837	963.5
852.0496	999.1943	1824.25	959.15
852.1947	1001.1928	1822.9	954.25
852.3398	1003.1906	1825.85	957.2
852.4849	1005.1877	1845.1	976.9
852.63	1007.1841	1864	995.7
852.7751	1009.1798	1880.95	1014
852.9202	1011.1748	1870.6	1003.2
853.0653	1013.1691	1850.15	981.6
853.2104	1015.1627	1824.1	954.75
853.3555	1017.1556	1796.6	926.6
853.5006	1019.1477	1788.3	918.3
853.6457	1021.1392	1772.4	904.65
853.7908	1023.1299	1753.85	885.05
853.9359	1025.12	1751.35	879.55
854.081	1027.1093	1757.6	888.6
854.2261	1029.0979	1767.5	898.05
854.3712	1031.0859	1777.35	908.85
854.5163	1033.0731	1795.95	925.15
854.6613	1035.0596	1787.6	917.7
854.8064	1037.0454	1780.85	908.9
854.9515	1039.0304	1779.45	909.05
855.0965	1041.0148	1762.7	893.95
855.2416	1042.9985	1739.4	867.25
855.3867	1044.9814	1724.55	855.9
855.5317	1046.9636	1731.1	858.25
855.6768	1048.9452	1730.4	862
855.8219	1050.926	1743.1	871.25
855.9669	1052.9061	1755.75	885.5
856.112	1054.8855	1764.6	892.85
856.257	1056.8642	1745.6	875.85
856.4021	1058.8421	1751.45	874.55
856.5471	1060.8194	1748.3	876.4
856.6921	1062.7959	1747.25	875.35
856.8372	1064.7717	1740.3	866.8
856.9822	1066.7469	1739.35	866
857.1272	1068.7213	1741.8	868.75
857.2723	1070.695	1744.5	874.15
857.4173	1072.6679	1762.25	890.55
857.5623	1074.6402	1777.15	904.9
857.7073	1076.6117	1793.55	917.55
857.8523	1078.5826	1777.3	905.5
857.9973	1080.5527	1753.6	879.4
858.1423	1082.5221	1719.65	844.5
858.2873	1084.4908	1696	823.75
858.4323	1086.4587	1689.05	814.4
858.5773	1088.426	1675.5	803.35
858.7223	1090.3925	1675.05	798.85
858.8673	1092.3584	1673.6	800.9
859.0123	1094.3235	1675	802.4
859.1573	1096.2879	1686.75	811.85
859.3022	1098.2515	1698.6	825.1
859.4472	1100.2145	1711.3	838
859.5922	1102.1767	1742	865.95
859.7371	1104.1382	1779.3	901.8
859.8821	1106.099	1817.1	942.7
860.027	1108.0591	1851.95	976.55
860.172	1110.0185	1882.85	1008.3
860.3169	1111.9771	1899	1026.95
860.4619	1113.9351	1943.9	1069.1
860.6068	1115.8923	1997.7	1123.3
860.7517	1117.8488	2032.5	1156
860.8967	1119.8045	2004.55	1130.75
861.0416	1121.7596	1922.7	1048.35
861.1865	1123.7139	1848.25	974.9
861.3314	1125.6675	1786.6	911.45
861.4763	1127.6204	1779.25	904.55
861.6212	1129.5726	1791	915.85
861.7661	1131.524	1791.6	918.9
861.911	1133.4748	1774.25	901.05
862.0559	1135.4248	1720.15	844.45
862.2008	1137.3741	1675.25	800.35
862.3457	1139.3226	1659.85	784
862.4905	1141.2705	1648.25	774.1
862.6354	1143.2176	1661	778.5
862.7803	1145.164	1672.65	793.5
862.9251	1147.1097	1662.15	786.4
863.07	1149.0546	1653.4	776.35
863.2148	1150.9989	1630.25	755.65
863.3597	1152.9424	1617.65	741.95
863.5045	1154.8852	1602.4	728.35
863.6493	1156.8272	1599.55	724.1
863.7942	1158.7686	1593.4	711.3
863.939	1160.7092	1581.15	703.75
864.0838	1162.6491	1592.05	711.85
864.2286	1164.5883	1602.9	727.3
864.3734	1166.5267	1609.35	733.25
864.5182	1168.4644	1625.15	749.1
864.663	1170.4014	1642.8	760.1
864.8078	1172.3377	1668.6	793.4
864.9526	1174.2732	1699.25	823.05
865.0974	1176.2081	1756.2	880.6
865.2421	1178.1421	1846.05	965.45
865.3869	1180.0755	1957.3	1084.15
865.5317	1182.0082	2015.5	1140.05
865.6764	1183.9401	2026.6	1148.85
865.8212	1185.8713	1954.9	1078.3
865.9659	1187.8017	1867.6	991
866.1106	1189.7315	1766.9	889.95
866.2554	1191.6605	1718.95	813.35
866.4001	1193.5888	1660.7	782.75
866.5448	1195.5163	1625.9	748.95
866.6895	1197.4432	1606.8	728.75
866.8342	1199.3693	1594.9	718.4
866.9789	1201.2947	1586.5	701.3
867.1236	1203.2193	1573.3	696.55
867.2683	1205.1432	1574.25	696.2
867.413	1207.0664	1561.85	683.35
867.5576	1208.9889	1572.8	691.95
867.7023	1210.9106	1567.65	691.7
867.847	1212.8316	1562.25	686.35
867.9916	1214.7519	1577.95	689.9
868.1363	1216.6715	1579.25	702.75
868.2809	1218.5903	1587.3	709.3
868.4255	1220.5084	1591.85	715.2
868.5701	1222.4257	1603.45	725.75
868.7148	1224.3424	1605	728.75
868.8594	1226.2583	1632.3	746.9
869.004	1228.1735	1637.8	757.75
869.1486	1230.0879	1661.6	782.5
869.2932	1232.0016	1696.45	817.75
869.4377	1233.9146	1718.2	838.5
869.5823	1235.8269	1723.25	844.4
869.7269	1237.7384	1726.8	848.85
869.8715	1239.6492	1723.35	846.25
870.016	1241.5592	1734.05	854.2
870.1606	1243.4686	1761.35	882.35
870.3051	1245.3772	1812.15	935.1
870.4496	1247.285	1881.85	1002.3
