Software Version:	3.9.2.0
Unit SN:	10000200
Spectrometer SN:	6960
Date:	3/14/2024 1:56:47 PM
Data Line Index:	25
Spectral Points:	2048
Integration time (ms):	125
Averages:	20
Delay (ms):	30000
Sequence Number:	1
Processing:	dark subtract
Laser Power (mW):	305
Laser Current (mA):	823
Laser Diode Temp (C):	25
Laser Case Temp (C):	29
System Temp (C):	28.9
Spectrometer Temp (C):	26.8
CCD Temp (C):	0.009
Secondary Temp (C):	20.013
Heatsink Temp (C):	24.792
CCDPCB Temp (C):	38.041
SecondaryPCB Temp (C):	35.884

Wavelength	RamanShift	Raw Counts	Dark Subtracted
787.061	30.1047	462.75	50.7
787.2016	32.3739	466.6	58
787.3422	34.6426	472.05	61.1
787.4828	36.9109	475.5	65.95
787.6235	39.1787	486.95	70.9
787.7642	41.4461	495.5	75.3
787.9049	43.7131	506.8	82.05
788.0456	45.9796	512.35	83.95
788.1863	48.2456	525.75	93.35
788.3271	50.5112	535.15	99.25
788.4679	52.7764	543.85	105.5
788.6087	55.0411	550.8	110.3
788.7496	57.3054	563.75	117.4
788.8904	59.5692	574.1	124.9
789.0313	61.8326	587.4	134.35
789.1722	64.0955	601.95	143.45
789.3132	66.3579	623	161.35
789.4541	68.6199	634.9	169.5
789.5951	70.8815	667.6	199.4
789.7361	73.1426	751.4	280.35
789.8771	75.4032	947.25	469.5
790.0181	77.6634	1444.8	962.2
790.1592	79.9231	2599.1	2110.2
790.3003	82.1824	5165.1	4667.15
790.4414	84.4412	9954.9	9440.15
790.5825	86.6995	16688.35	16149.5
790.7237	88.9574	23488.35	22931.3
790.8648	91.2148	28314.2	27741.4
791.006	93.4717	30718.9	30135.25
791.1472	95.7282	31376.05	30787.75
791.2885	97.9842	31440.65	30850.35
791.4297	100.2398	30997.05	30404.55
791.571	102.4949	30445.5	29849.55
791.7123	104.7495	29715.95	29115.2
791.8536	107.0036	28939	28335.3
791.9949	109.2573	28184.2	27581.9
792.1363	111.5105	27417.4	26813.75
792.2777	113.7632	26645.45	26041.35
792.4191	116.0154	25993.2	25377.45
792.5605	118.2672	25523.55	24914.25
792.7019	120.5185	25019.3	24410.3
792.8434	122.7693	24603.8	23990.4
792.9849	125.0197	24334.2	23721.2
793.1264	127.2696	24022.35	23404
793.2679	129.519	23892.05	23273.15
793.4094	131.7679	23702.35	23074.95
793.551	134.0163	23604.75	22976.65
793.6926	136.2642	23417.25	22785.2
793.8342	138.5117	23240.55	22599.8
793.9758	140.7587	23038.25	22403
794.1175	143.0052	22878.6	22239.8
794.2591	145.2512	22635.75	21997.7
794.4008	147.4967	22426.1	21786.8
794.5425	149.7417	22262.9	21622.25
794.6842	151.9863	22168.95	21525.5
794.826	154.2304	22083.85	21434
794.9677	156.4739	21948.25	21296.25
795.1095	158.717	21892.55	21243.1
795.2513	160.9596	21701.65	21042.7
795.3931	163.2017	21418.45	20761.6
795.535	165.4433	21168.15	20505.55
795.6768	167.6844	20791.35	20128.7
795.8187	169.925	20449.9	19784.85
795.9606	172.1651	20053.6	19383.9
796.1025	174.4047	19755.3	19083.2
796.2445	176.6439	19451.15	18777.8
796.3864	178.8825	19162.3	18487.65
796.5284	181.1206	19046.75	18369.55
796.6704	183.3582	18840.55	18154.4
796.8124	185.5954	18701.85	18019.35
796.9544	187.832	18578.6	17890.25
797.0965	190.0681	18543.1	17852.6
797.2386	192.3037	18526.15	17831.85
797.3806	194.5388	18513.85	17818.05
797.5228	196.7734	18552.5	17853.4
797.6649	199.0075	18594.4	17892.55
797.807	201.2411	18767.25	18062.95
797.9492	203.4742	18808.85	18109
798.0914	205.7068	18927.3	18222.1
798.2336	207.9389	19004.8	18298.55
798.3758	210.1704	19158.45	18449.05
798.518	212.4015	19268	18557.5
798.6603	214.632	19450.95	18739.7
798.8025	216.862	19637.65	18930.95
798.9448	219.0915	19760.55	19063.95
799.0871	221.3205	19978	19284.4
799.2294	223.549	20261.05	19571.75
799.3718	225.777	20596.4	19906.5
799.5141	228.0044	21023.75	20332.35
799.6565	230.2314	21541.3	20848.2
799.7989	232.4578	22046.5	21354.05
799.9413	234.6837	22429.3	21729.45
800.0837	236.909	22672.05	21967.95
800.2262	239.1339	22645.25	21922.65
800.3687	241.3582	22339.7	21629.3
800.5111	243.582	21926.5	21189.4
800.6536	245.8053	21512.55	20784.25
800.7961	248.0281	21119	20398
800.9387	250.2503	20802.9	20073.85
801.0812	252.472	20619.45	19886.5
801.2238	254.6932	20502.65	19767.4
801.3664	256.9139	20343.4	19608.6
801.509	259.134	20274.95	19533.75
801.6516	261.3536	20229	19489.55
801.7942	263.5727	20207.9	19468.75
801.9369	265.7912	20075.35	19338.25
802.0795	268.0092	20028.8	19290.55
802.2222	270.2267	19918.95	19179.15
802.3649	272.4436	19860.8	19117.65
802.5076	274.6601	19807.1	19058.4
802.6504	276.8759	19714.8	18974.1
802.7931	279.0913	19675.45	18929
802.9359	281.3061	19705.75	18957.6
803.0787	283.5204	19787.95	19038
803.2215	285.7341	19889.4	19135.85
803.3643	287.9473	20098.15	19332.25
803.5071	290.16	20367.45	19607.65
803.6499	292.3721	20679.6	19925.4
803.7928	294.5837	21098.95	20344.4
803.9357	296.7947	21512.9	20761.2
804.0786	299.0052	21691.2	20937.55
804.2215	301.2152	21528.05	20767.6
804.3644	303.4246	21127.1	20375.7
804.5074	305.6334	20469.25	19712.3
804.6503	307.8418	19931	19174.25
804.7933	310.0495	19465.45	18706.55
804.9363	312.2568	19160.6	18402.15
805.0793	314.4635	18922.3	18164.1
805.2223	316.6696	18842.1	18081.5
805.3653	318.8752	18853.6	18084.75
805.5084	321.0802	18903.95	18140.1
805.6514	323.2847	19027.15	18265.45
805.7945	325.4887	19096.1	18332.25
805.9376	327.692	19012.5	18247.15
806.0807	329.8949	18866.75	18101.85
806.2238	332.0972	18541.6	17773.85
806.367	334.2989	18258.95	17488.35
806.5101	336.5001	17957	17183.85
806.6533	338.7007	17732.55	16962.2
806.7965	340.9008	17609.65	16836
806.9397	343.1003	17485.4	16710.5
807.0829	345.2992	17418.55	16642.6
807.2261	347.4976	17411.6	16633.4
807.3693	349.6955	17392.15	16610.95
807.5126	351.8927	17480.15	16699.65
807.6559	354.0895	17420.95	16628.35
807.7991	356.2856	17497	16713.65
807.9424	358.4812	17471.65	16691.2
808.0857	360.6763	17452.45	16668.2
808.2291	362.8707	17427.45	16643.25
808.3724	365.0646	17428.1	16640.9
808.5158	367.258	17395.7	16604.25
808.6591	369.4508	17431.75	16640.8
808.8025	371.643	17456.35	16665.3
808.9459	373.8346	17403.75	16610.8
809.0893	376.0257	17362.6	16566.25
809.2327	378.2162	17283.4	16484.55
809.3762	380.4062	17164.1	16362.2
809.5196	382.5956	17000.85	16198.25
809.6631	384.7844	16863.85	16061.05
809.8066	386.9726	16744.55	15942.15
809.9501	389.1603	16679.5	15875.2
810.0936	391.3474	16618.95	15785.3
810.2371	393.5339	16573.4	15772.35
810.3806	395.7199	16507.9	15711.85
810.5241	397.9052	16508	15714.75
810.6677	400.09	16527.3	15731.4
810.8113	402.2743	16527.45	15737.15
810.9548	404.4579	16579.1	15787.4
811.0984	406.641	16731.8	15938.8
811.2421	408.8235	16961.6	16170.95
811.3857	411.0054	17291	16496.85
811.5293	413.1868	17770.9	16972.35
811.673	415.3675	18147	17348.35
811.8166	417.5477	18400.1	17601.55
811.9603	419.7273	18402.75	17602.9
812.104	421.9064	18265.25	17456.75
812.2477	424.0848	18103.6	17296.9
812.3914	426.2627	17880.1	17073.05
812.5351	428.4399	17576.35	16768.05
812.6788	430.6166	17173.65	16361.5
812.8226	432.7928	16753.45	15940.5
812.9663	434.9683	16427.75	15613.95
813.1101	437.1432	16188.4	15373.15
813.2539	439.3176	16007.65	15193.9
813.3977	441.4914	15894.4	15076.1
813.5415	443.6645	15826.05	15004.2
813.6853	445.8371	15762.1	14945
813.8291	448.0091	15661.75	14849
813.973	450.1806	15627.65	14810.55
814.1168	452.3514	15517.35	14696.8
814.2607	454.5216	15512.55	14686.5
814.4046	456.6913	15434.55	14611.6
814.5485	458.8603	15432.6	14613.7
814.6924	461.0288	15485.2	14663.1
814.8363	463.1967	15525.95	14706.45
814.9802	465.3639	15652.65	14831.05
815.1241	467.5306	15754.45	14931.8
815.2681	469.6967	15924.2	15099.7
815.412	471.8622	16087.55	15265.2
815.556	474.0271	16247.3	15423.75
815.7	476.1914	16286.1	15460.6
815.844	478.3551	16258.55	15435.35
815.988	480.5182	16230.9	15405.3
816.132	482.6807	16199.8	15375.55
816.276	484.8426	16196.55	15372.25
816.4201	487.0039	16511.65	15685.3
816.5641	489.1647	16911.9	16083.9
816.7082	491.3248	17336.3	16509.35
816.8522	493.4843	17537.7	16714.65
816.9963	495.6432	17532.8	16706.25
817.1404	497.8015	17442.7	16611.75
817.2845	499.9592	17475.15	16649.15
817.4286	502.1163	17445.4	16621
817.5727	504.2728	17189.3	16361.4
817.7168	506.4287	16844.4	16015.35
817.861	508.5839	16371.25	15544.3
818.0051	510.7386	16017.75	15188.25
818.1493	512.8927	15763.4	14926.9
818.2935	515.0461	15609.6	14780.1
818.4377	517.199	15518.7	14685.95
818.5818	519.3512	15467.15	14634.35
818.726	521.5029	15462.65	14623.85
818.8703	523.6539	15483.5	14648
819.0145	525.8043	15471.45	14637.8
819.1587	527.9541	15506.25	14671.3
819.303	530.1033	15504.75	14671.65
819.4472	532.2519	15582.95	14748.05
819.5915	534.3999	15726.05	14887.75
819.7357	536.5472	16073.1	15233.5
819.88	538.694	16571.05	15732.05
820.0243	540.8401	17231.8	16393.2
820.1686	542.9856	17818.1	16976.15
820.3129	545.1305	17953.5	17113.3
820.4572	547.2748	17755.05	16914.65
820.6016	549.4185	17322.5	16478.95
820.7459	551.5615	16897.6	16057.05
820.8902	553.704	16705.95	15864.55
821.0346	555.8458	16573.65	15734.25
821.1789	557.987	16536.85	15698.9
821.3233	560.1276	16466.3	15622.25
821.4677	562.2675	16365.2	15528
821.6121	564.4069	16254.05	15415.15
821.7565	566.5456	16166.55	15326.25
821.9009	568.6837	16000.45	15160.15
822.0453	570.8212	15732.2	14892.5
822.1897	572.958	15464.65	14622.9
822.3342	575.0942	15246.85	14406.25
822.4786	577.2299	15120.8	14281.6
822.6231	579.3648	15135.8	14294.55
822.7675	581.4992	15202.95	14361.35
822.912	583.6329	15395.7	14555.5
823.0565	585.766	15655.6	14815.1
823.201	587.8985	15797.2	14958
823.3454	590.0304	15765.65	14900.55
823.4899	592.1616	15682.25	14833.9
823.6345	594.2922	15591.1	14749.25
823.779	596.4222	15423.15	14578.65
823.9235	598.5515	15251.6	14407.85
824.068	600.6802	15041.55	14198.9
824.2126	602.8083	14828.5	13983.45
824.3571	604.9358	14742	13894.5
824.5017	607.0626	14644.4	13798
824.6462	609.1888	14565.7	13715.65
824.7908	611.3144	14451.4	13603.6
824.9354	613.4393	14300.8	13452.35
825.08	615.5636	14147.1	13300.8
825.2246	617.6873	14026.8	13183.75
825.3692	619.8103	13946.35	13095.8
825.5138	621.9327	13914.05	13064.8
825.6584	624.0544	13841.8	12995.25
825.803	626.1756	13859.8	13014.35
825.9477	628.2961	13767.25	12919.4
826.0923	630.4159	13724.8	12876.1
826.237	632.5351	13674.65	12827.2
826.3816	634.6537	13600.9	12750.85
826.5263	636.7716	13558.85	12706
826.6709	638.8889	13544.4	12693.35
826.8156	641.0056	13553.75	12704
826.9603	643.1216	13533.5	12682.8
827.105	645.237	13563	12709.45
827.2497	647.3518	13549.7	12699.55
827.3944	649.4659	13546.05	12693.95
827.5391	651.5793	13551.7	12698.1
827.6838	653.6922	13520.95	12671.8
827.8285	655.8043	13495.55	12643.05
827.9733	657.9159	13468.35	12615.15
828.118	660.0268	13359.1	12501.9
828.2627	662.137	13326.35	12472.75
828.4075	664.2466	13243.9	12389.5
828.5522	666.3556	13194.45	12339.4
828.697	668.4639	13162.65	12305.4
828.8418	670.5716	13228.8	12372.9
828.9865	672.6786	13306.9	12448.95
829.1313	674.785	13360.3	12505
829.2761	676.8907	13433.3	12578.8
829.4209	678.9958	13496.95	12642.9
829.5657	681.1002	13475.2	12618.45
829.7105	683.204	13429.7	12569.05
829.8553	685.3072	13357.35	12500.7
830.0001	687.4097	13259.65	12403.7
830.1449	689.5115	13202.3	12341.25
830.2898	691.6127	13125.05	12270.2
830.4346	693.7132	13033.75	12176.55
830.5794	695.8131	12953.25	12073.85
830.7243	697.9123	12904.8	12045.2
830.8691	700.0109	12850.05	11990.6
831.014	702.1089	12794.95	11936.85
831.1588	704.2061	12780.75	11921.75
831.3037	706.3028	12845.25	11982.6
831.4486	708.3987	12854.45	11997.35
831.5935	710.4941	12948.45	12091.45
831.7383	712.5887	13154.2	12294.45
831.8832	714.6827	13445.4	12579.7
832.0281	716.7761	13833.65	12972.75
832.173	718.8688	14214.45	13352.7
832.3179	720.9608	14387.4	13521.7
832.4628	723.0522	14403.4	13539.3
832.6077	725.1429	14119.15	13257.45
832.7527	727.233	13762.65	12899.6
832.8976	729.3224	13449.45	12586.25
833.0425	731.4112	13104.2	12241.7
833.1874	733.4993	12883.55	12019.15
833.3324	735.5867	12709.35	11845.05
833.4773	737.6735	12630.55	11766.5
833.6222	739.7596	12550.8	11686.25
833.7672	741.845	12524.3	11658.95
833.9122	743.9298	12481.5	11616.4
834.0571	746.014	12489.55	11627.05
834.2021	748.0974	12476.1	11611.05
834.347	750.1802	12426.05	11564.45
834.492	752.2624	12447	11585.25
834.637	754.3439	12462.45	11596.6
834.782	756.4247	12517.85	11643.15
834.9269	758.5048	12593.25	11728.35
835.0719	760.5843	12788.5	11925
835.2169	762.6631	13020.15	12155.65
835.3619	764.7413	13468.3	12606
835.5069	766.8188	14046.85	13179.65
835.6519	768.8956	14486.5	13617.95
835.7969	770.9718	14829.2	13965.15
835.9419	773.0473	14652.65	13788.1
836.0869	775.1221	14292.3	13425.7
836.232	777.1962	13894.4	13029.4
836.377	779.2697	13703.6	12836.85
836.522	781.3426	13759.65	12874.9
836.667	783.4147	14027	13162.55
836.8121	785.4862	14352.9	13488.45
836.9571	787.557	14360.05	13494.3
837.1021	789.6271	14017.65	13150.2
837.2472	791.6966	13431.2	12565.25
837.3922	793.7654	12868.65	12003.25
837.5373	795.8335	12539.4	11673.05
837.6823	797.901	12363.8	11497.55
837.8274	799.9678	12280.2	11409.5
837.9724	802.0339	12272.15	11405.55
838.1175	804.0993	12353.5	11479.25
838.2626	806.1641	12316.6	11448.6
838.4076	808.2282	12212.7	11345.3
838.5527	810.2916	12109.3	11238.1
838.6978	812.3544	12012.3	11148.05
838.8428	814.4164	11938.35	11070.9
838.9879	816.4778	11890.35	11021.5
839.133	818.5385	11866.45	11000.35
839.2781	820.5986	11891.8	11025.45
839.4232	822.658	11990.1	11120.7
839.5682	824.7166	12017.8	11151.2
839.7133	826.7747	12161	11292.55
839.8584	828.832	12303.2	11434.8
840.0035	830.8886	12379.05	11510.5
840.1486	832.9446	12531.35	11661
840.2937	834.9999	12588.05	11721.3
840.4388	837.0545	12607.2	11734.25
840.5839	839.1085	12655.25	11785.8
840.729	841.1618	12643.15	11769.2
840.8741	843.2143	12618.1	11748.55
841.0192	845.2662	12531.55	11662.25
841.1643	847.3175	12472.1	11604.85
841.3095	849.368	12337.25	11466.6
841.4546	851.4179	12209.85	11342.05
841.5997	853.467	12050.55	11182.2
841.7448	855.5155	11929.25	11060.25
841.8899	857.5633	11808.55	10938.9
842.0351	859.6105	11701.25	10829.95
842.1802	861.6569	11576.2	10709.35
842.3253	863.7027	11509.75	10638.25
842.4704	865.7478	11512.85	10640.3
842.6156	867.7922	11508.3	10636.8
842.7607	869.8359	11541.5	10670.75
842.9058	871.8789	11657.45	10783.7
843.0509	873.9212	11857.85	10953.25
843.1961	875.9629	11968	11096
843.3412	878.0039	12165.35	11292.4
843.4863	880.0441	12221.25	11351.55
843.6315	882.0837	12223.75	11349.3
843.7766	884.1226	12080.35	11207.1
843.9218	886.1609	11927.9	11056.9
844.0669	888.1984	11785.75	10915.15
844.212	890.2352	11749.25	10877.35
844.3572	892.2714	11689.95	10814.25
844.5023	894.3069	11647.5	10775.4
844.6475	896.3416	11558	10685.1
844.7926	898.3757	11514.85	10642.25
844.9377	900.4091	11501.65	10629.8
845.0829	902.4418	11515.25	10639.2
845.228	904.4739	11498.25	10621.6
845.3732	906.5052	11496.1	10622.4
845.5183	908.5358	11391.75	10519.25
845.6635	910.5658	11248.2	10373.5
845.8086	912.595	11058.4	10183.05
845.9538	914.6236	10901.55	10030.75
846.0989	916.6515	10857.25	9984.35
846.2441	918.6786	10831.65	9957.95
846.3892	920.7051	10897.9	10020.65
846.5344	922.7309	10991.7	10120.25
846.6795	924.756	11062.4	10187.45
846.8246	926.7804	11124.1	10248.55
846.9698	928.8041	11073.7	10199.45
847.1149	930.8272	11099.85	10226.35
847.2601	932.8495	11008.75	10133.95
847.4052	934.8711	10954.3	10074.85
847.5504	936.892	10781.65	9907.7
847.6955	938.9123	10599.8	9723.5
847.8407	940.9318	10455.95	9579.5
847.9858	942.9506	10340.55	9466.35
848.131	944.9688	10231.9	9355.45
848.2761	946.9862	10182.9	9308.45
848.4213	949.003	10119.95	9245.7
848.5664	951.019	10117.95	9243.2
848.7115	953.0344	10139.6	9262.3
848.8567	955.0491	10158.4	9281.75
849.0018	957.063	10220.25	9344.5
849.147	959.0763	10297.65	9423.85
849.2921	961.0888	10333.75	9456.2
849.4373	963.1007	10418.6	9543.3
849.5824	965.1119	10469.85	9594.55
849.7275	967.1223	10480.2	9603.5
849.8727	969.1321	10495.15	9620.65
850.0178	971.1412	10521.5	9646.4
850.1629	973.1495	10537	9662.55
850.3081	975.1572	10598.85	9687.45
850.4532	977.1641	10589.1	9711
850.5983	979.1704	10564.2	9684.85
850.7435	981.1759	10537.85	9660
850.8886	983.1808	10586.7	9709.15
851.0337	985.1849	10685.45	9801.4
851.1788	987.1884	10840.1	9964.05
851.324	989.1911	11043.2	10164.3
851.4691	991.1932	11188.55	10307.5
851.6142	993.1945	11219.2	10344.7
851.7593	995.1951	11180.35	10302.7
851.9045	997.1951	11136.8	10253.7
852.0496	999.1943	11059.6	10184.95
852.1947	1001.1928	11004.45	10127.55
852.3398	1003.1906	10954	10081.95
852.4849	1005.1877	10979.65	10103.05
852.63	1007.1841	10932.4	10055.25
852.7751	1009.1798	10873.3	9996.15
852.9202	1011.1748	10664.45	9789.2
853.0653	1013.1691	10418.3	9540.9
853.2104	1015.1627	10195	9315.8
853.3555	1017.1556	9986.95	9112.55
853.5006	1019.1477	9920	9041.6
853.6457	1021.1392	9826.1	8951
853.7908	1023.1299	9820.8	8943.45
853.9359	1025.12	9831.05	8949.7
854.081	1027.1093	9880.45	9003.6
854.2261	1029.0979	9951.35	9075.7
854.3712	1031.0859	10016.4	9137.9
854.5163	1033.0731	10021.6	9142.8
854.6613	1035.0596	9900.85	9023.5
854.8064	1037.0454	9780	8903.55
854.9515	1039.0304	9640.3	8760.8
855.0965	1041.0148	9515.65	8639.1
855.2416	1042.9985	9404.75	8526.25
855.3867	1044.9814	9380.7	8504.65
855.5317	1046.9636	9306.8	8426.6
855.6768	1048.9452	9284.7	8409.6
855.8219	1050.926	9284.4	8406.4
855.9669	1052.9061	9256.85	8379.45
856.112	1054.8855	9235.8	8358.55
856.257	1056.8642	9281.8	8405.1
856.4021	1058.8421	9310	8429.35
856.5471	1060.8194	9334.35	8456.5
856.6921	1062.7959	9361.65	8485.2
856.8372	1064.7717	9361.65	8481.75
856.9822	1066.7469	9355.75	8478.05
857.1272	1068.7213	9335	8455.2
857.2723	1070.695	9301.9	8424.4
857.4173	1072.6679	9215.25	8335.65
857.5623	1074.6402	9155.2	8275.65
857.7073	1076.6117	9142.5	8259.4
857.8523	1078.5826	9153.2	8273.25
857.9973	1080.5527	9218.2	8336.8
858.1423	1082.5221	9332.25	8455.85
858.2873	1084.4908	9538.7	8661.6
858.4323	1086.4587	9737.7	8858.45
858.5773	1088.426	9881.9	9001.9
858.7223	1090.3925	9900.3	9018.2
858.8673	1092.3584	9798.55	8923.75
859.0123	1094.3235	9660.8	8783.55
859.1573	1096.2879	9517.65	8638.75
859.3022	1098.2515	9494	8613.5
859.4472	1100.2145	9533.4	8654.7
859.5922	1102.1767	9602	8721.1
859.7371	1104.1382	9750.45	8870.45
859.8821	1106.099	9945.75	9064.25
860.027	1108.0591	10155.8	9278.6
860.172	1110.0185	10309.65	9427.85
860.3169	1111.9771	10271.35	9394.75
860.4619	1113.9351	10034.35	9155.85
860.6068	1115.8923	9717.1	8837.25
860.7517	1117.8488	9375.5	8492.2
860.8967	1119.8045	9094.25	8213.25
861.0416	1121.7596	8959.05	8078.95
861.1865	1123.7139	8890.3	8011.45
861.3314	1125.6675	8885.7	8007.05
861.4763	1127.6204	8931.1	8052.45
861.6212	1129.5726	8929.1	8049.4
861.7661	1131.524	8941.75	8063.4
861.911	1133.4748	8988.2	8111.15
862.0559	1135.4248	8992.4	8112.45
862.2008	1137.3741	9002.6	8124.65
862.3457	1139.3226	8981.4	8098.3
862.4905	1141.2705	8913.45	8035.5
862.6354	1143.2176	8828.6	7945.3
862.7803	1145.164	8841.35	7961.35
862.9251	1147.1097	8872	7992.55
863.07	1149.0546	8853.25	7973.35
863.2148	1150.9989	8746.1	7866.05
863.3597	1152.9424	8581.05	7700.5
863.5045	1154.8852	8383.7	7502.9
863.6493	1156.8272	8266.8	7389.05
863.7942	1158.7686	8187.55	7297.9
863.939	1160.7092	8146	7265
864.0838	1162.6491	8144.7	7262.8
864.2286	1164.5883	8193.25	7313.2
864.3734	1166.5267	8258.75	7378.4
864.5182	1168.4644	8416.65	7536.4
864.663	1170.4014	8595.75	7710.45
864.8078	1172.3377	8795.1	7917.45
864.9526	1174.2732	9050.2	8167.9
865.0974	1176.2081	9252.95	8373.4
865.2421	1178.1421	9425.65	8543.5
865.3869	1180.0755	9551	8672.95
865.5317	1182.0082	9613	8733.1
865.6764	1183.9401	9545.55	8666.25
865.8212	1185.8713	9357.8	8476.85
865.9659	1187.8017	9132.55	8251.65
866.1106	1189.7315	8866.05	7985.35
866.2554	1191.6605	8615.75	7707.65
866.4001	1193.5888	8418.3	7537.5
