Software Version:	3.9.2.0
Unit SN:	10000200
Spectrometer SN:	6960
Date:	3/14/2024 12:34:32 PM
Data Line Index:	25
Spectral Points:	2048
Integration time (ms):	125
Averages:	20
Delay (ms):	30000
Sequence Number:	1
Processing:	dark subtract
Laser Power (mW):	300
Laser Current (mA):	823
Laser Diode Temp (C):	25.1
Laser Case Temp (C):	26.5
System Temp (C):	26.5
Spectrometer Temp (C):	23.9
CCD Temp (C):	0.008
Secondary Temp (C):	20.008
Heatsink Temp (C):	22.847
CCDPCB Temp (C):	36.485
SecondaryPCB Temp (C):	33.884

Wavelength	RamanShift	Raw Counts	Dark Subtracted
787.061	30.1047	417.6	6.55
787.2016	32.3739	416	5.8
787.3422	34.6426	417.8	6.35
787.4828	36.9109	418.8	4.5
787.6235	39.1787	425.35	8.6
787.7642	41.4461	430	9.05
787.9049	43.7131	434.35	11
788.0456	45.9796	437.6	9.65
788.1863	48.2456	442.25	10.4
788.3271	50.5112	446.85	10.8
788.4679	52.7764	450.55	9.95
788.6087	55.0411	454.5	12.45
788.7496	57.3054	459.7	15.1
788.8904	59.5692	461.85	12.85
789.0313	61.8326	466.15	13.7
789.1722	64.0955	472.25	15.65
789.3132	66.3579	477.6	15.75
789.4541	68.6199	484.85	19.45
789.5951	70.8815	492.4	24.9
789.7361	73.1426	508.1	36.8
789.8771	75.4032	537.55	63.25
790.0181	77.6634	604.45	123.8
790.1592	79.9231	746.35	261.45
790.3003	82.1824	1060.8	571.2
790.4414	84.4412	1573.6	1079.35
790.5825	86.6995	2241.9	1742.6
790.7237	88.9574	2905.45	2397.8
790.8648	91.2148	3371.45	2862.45
791.006	93.4717	3602.3	3088.05
791.1472	95.7282	3662.75	3143.4
791.2885	97.9842	3671.15	3151
791.4297	100.2398	3649.1	3126.85
791.571	102.4949	3623.5	3097.25
791.7123	104.7495	3609.25	3075.95
791.8536	107.0036	3569.65	3037.65
791.9949	109.2573	3525.7	2993.7
792.1363	111.5105	3472.55	2940.05
792.2777	113.7632	3416.5	2881.1
792.4191	116.0154	3352.6	2807.95
792.5605	118.2672	3292.3	2752.15
792.7019	120.5185	3217.95	2676.8
792.8434	122.7693	3172.7	2630.05
792.9849	125.0197	3111.3	2567
793.1264	127.2696	3043.6	2494.75
793.2679	129.519	3005.55	2455.4
793.4094	131.7679	2977.05	2424.65
793.551	134.0163	2965.65	2408.5
793.6926	136.2642	2949.5	2388
793.8342	138.5117	2961.4	2394.9
793.9758	140.7587	2957.1	2391.35
794.1175	143.0052	2926.5	2359.45
794.2591	145.2512	2888.2	2320.5
794.4008	147.4967	2845.55	2275.45
794.5425	149.7417	2807.05	2234.85
794.6842	151.9863	2798.2	2221.95
794.826	154.2304	2782.95	2203.7
794.9677	156.4739	2764.2	2178.5
795.1095	158.717	2769.4	2186.15
795.2513	160.9596	2792.5	2203.1
795.3931	163.2017	2814.4	2222.05
795.535	165.4433	2832.8	2239.35
795.6768	167.6844	2816.7	2222.15
795.8187	169.925	2820.65	2221.25
795.9606	172.1651	2787.8	2187.4
796.1025	174.4047	2738.25	2133.05
796.2445	176.6439	2703	2096.65
796.3864	178.8825	2676.95	2065.95
796.5284	181.1206	2670.8	2055.6
796.6704	183.3582	2667.5	2050.8
796.8124	185.5954	2646.55	2025.95
796.9544	187.832	2646.5	2022.75
797.0965	190.0681	2669.95	2044.55
797.2386	192.3037	2652.95	2025
797.3806	194.5388	2656.15	2024.7
797.5228	196.7734	2662.05	2027.25
797.6649	199.0075	2674.85	2035.8
797.807	201.2411	2694.35	2053.9
797.9492	203.4742	2704.1	2062.55
798.0914	205.7068	2719.6	2076.75
798.2336	207.9389	2738.45	2096.6
798.3758	210.1704	2740.8	2097.05
798.518	212.4015	2745.4	2096.3
798.6603	214.632	2743.15	2093.1
798.8025	216.862	2743.5	2097.7
798.9448	219.0915	2726.85	2089.7
799.0871	221.3205	2735.45	2102.95
799.2294	223.549	2741.2	2114.3
799.3718	225.777	2752.2	2120.8
799.5141	228.0044	2738.45	2107.5
799.6565	230.2314	2727.55	2097.45
799.7989	232.4578	2719.15	2088.7
799.9413	234.6837	2699.55	2061.35
800.0837	236.909	2694.3	2057
800.2262	239.1339	2705.45	2044.05
800.3687	241.3582	2694.3	2047
800.5111	243.582	2699.35	2022.3
800.6536	245.8053	2695.65	2028.45
800.7961	248.0281	2698.95	2037.1
800.9387	250.2503	2713.95	2049.35
801.0812	252.472	2720.05	2048.1
801.2238	254.6932	2721.4	2044.35
801.3664	256.9139	2726.7	2048.65
801.509	259.134	2727.55	2045.1
801.6516	261.3536	2729.55	2052.35
801.7942	263.5727	2761.7	2082.55
801.9369	265.7912	2766.55	2085.5
802.0795	268.0092	2814.25	2132.95
802.2222	270.2267	2856.15	2173
802.3649	272.4436	2893.4	2210.5
802.5076	274.6601	2916.6	2222
802.6504	276.8759	2925.5	2236.8
802.7931	279.0913	2929.95	2244
802.9359	281.3061	2936.1	2248.6
803.0787	283.5204	2967.9	2276.2
803.2215	285.7341	2997.45	2300.4
803.3643	287.9473	3004.45	2305.55
803.5071	290.16	3000.4	2297.8
803.6499	292.3721	2964.75	2266.25
803.7928	294.5837	2930.75	2230.1
803.9357	296.7947	2898.95	2200.95
804.0786	299.0052	2880.25	2179.15
804.2215	301.2152	2867.1	2163.45
804.3644	303.4246	2867.5	2168
804.5074	305.6334	2843.5	2142.45
804.6503	307.8418	2840.65	2136.85
804.7933	310.0495	2827.1	2121.45
804.9363	312.2568	2793.85	2093.5
805.0793	314.4635	2750.9	2045.05
805.2223	316.6696	2719.1	2012.6
805.3653	318.8752	2706.7	1991.25
805.5084	321.0802	2661.45	1952
805.6514	323.2847	2673.35	1961.25
805.7945	325.4887	2647.4	1934.4
805.9376	327.692	2668.7	1954.95
806.0807	329.8949	2689.15	1972.95
806.2238	332.0972	2715.85	1997.85
806.367	334.2989	2758.95	2038.25
806.5101	336.5001	2765.4	2045.4
806.6533	338.7007	2743.75	2022.9
806.7965	340.9008	2711.85	1989.8
806.9397	343.1003	2666.2	1940.55
807.0829	345.2992	2618.15	1895.3
807.2261	347.4976	2587.95	1863.8
807.3693	349.6955	2564.1	1833.65
807.5126	351.8927	2545.1	1816.1
807.6559	354.0895	2525.2	1782.8
807.7991	356.2856	2522.7	1788.85
807.9424	358.4812	2502.4	1769.2
808.0857	360.6763	2504.95	1771.15
808.2291	362.8707	2494.8	1758.5
808.3724	365.0646	2498.2	1760.15
808.5158	367.258	2491.6	1751.3
808.6591	369.4508	2511.7	1767.45
808.8025	371.643	2528.6	1783.5
808.9459	373.8346	2542.4	1796.2
809.0893	376.0257	2579.6	1829.25
809.2327	378.2162	2601.2	1853.4
809.3762	380.4062	2613.5	1862.25
809.5196	382.5956	2588.05	1834.65
809.6631	384.7844	2565.5	1815.1
809.8066	386.9726	2519.6	1765.45
809.9501	389.1603	2492.45	1738.4
810.0936	391.3474	2508.4	1732.2
810.2371	393.5339	2474.95	1722
810.3806	395.7199	2465.8	1714.5
810.5241	397.9052	2474.8	1725.3
810.6677	400.09	2513.05	1763.6
810.8113	402.2743	2543.2	1795.65
810.9548	404.4579	2560.8	1813.8
811.0984	406.641	2604.2	1855.15
811.2421	408.8235	2636.3	1887.95
811.3857	411.0054	2673.65	1924.25
811.5293	413.1868	2724.55	1973.4
811.673	415.3675	2803.35	2048.75
811.8166	417.5477	2822.25	2067.6
811.9603	419.7273	2762.3	2003.95
812.104	421.9064	2671.5	1903.8
812.2477	424.0848	2595.75	1833.45
812.3914	426.2627	2548.95	1785.95
812.5351	428.4399	2505.6	1739.8
812.6788	430.6166	2466.95	1697.75
812.8226	432.7928	2427.65	1655.95
812.9663	434.9683	2396.05	1626.65
813.1101	437.1432	2385.7	1611
813.2539	439.3176	2366.6	1590.35
813.3977	441.4914	2350.4	1574.05
813.5415	443.6645	2345	1566.3
813.6853	445.8371	2347	1571.45
813.8291	448.0091	2340.15	1565
813.973	450.1806	2346.35	1568.3
814.1168	452.3514	2341	1562.05
814.2607	454.5216	2336.45	1548.55
814.4046	456.6913	2317.65	1536.25
814.5485	458.8603	2322.05	1541.2
814.6924	461.0288	2347.5	1567.45
814.8363	463.1967	2319.1	1539.4
814.9802	465.3639	2324.8	1542.05
815.1241	467.5306	2321.7	1538.65
815.2681	469.6967	2303.25	1519.65
815.412	471.8622	2307.05	1522
815.556	474.0271	2298.5	1515
815.7	476.1914	2291.9	1502.8
815.844	478.3551	2287.25	1502.35
815.988	480.5182	2297.45	1510.85
816.132	482.6807	2289.95	1499.95
816.276	484.8426	2307.45	1521
816.4201	487.0039	2333.65	1544.35
816.5641	489.1647	2371.75	1582.85
816.7082	491.3248	2401.9	1611.95
816.8522	493.4843	2411.3	1623.85
816.9963	495.6432	2412.1	1624.05
817.1404	497.8015	2388.9	1594.95
817.2845	499.9592	2357.2	1567.1
817.4286	502.1163	2309.7	1519.85
817.5727	504.2728	2279.2	1484.8
817.7168	506.4287	2260.5	1467.2
817.861	508.5839	2247.35	1452.75
818.0051	510.7386	2240.25	1445.3
818.1493	512.8927	2249.25	1446.6
818.2935	515.0461	2244.85	1446.45
818.4377	517.199	2254	1460.95
818.5818	519.3512	2287.65	1490.55
818.726	521.5029	2336.9	1533.7
818.8703	523.6539	2375.9	1576
819.0145	525.8043	2384.45	1585.2
819.1587	527.9541	2349.65	1545.65
819.303	530.1033	2295.8	1492.2
819.4472	532.2519	2259.6	1458.05
819.5915	534.3999	2240.6	1434.3
819.7357	536.5472	2230.4	1426.95
819.88	538.694	2226.65	1423.35
820.0243	540.8401	2235.7	1430.5
820.1686	542.9856	2249.55	1442.2
820.3129	545.1305	2268.7	1460.5
820.4572	547.2748	2278.6	1472.7
820.6016	549.4185	2287.65	1480.8
820.7459	551.5615	2279.2	1469.3
820.8902	553.704	2279.55	1471.05
821.0346	555.8458	2299.55	1490.35
821.1789	557.987	2315.3	1506.5
821.3233	560.1276	2332.3	1523.7
821.4677	562.2675	2393.05	1588.65
821.6121	564.4069	2432.2	1624.55
821.7565	566.5456	2463.55	1656.95
821.9009	568.6837	2453.3	1644.6
822.0453	570.8212	2399.55	1592.35
822.1897	572.958	2331.9	1523.05
822.3342	575.0942	2288.8	1479.75
822.4786	577.2299	2264	1454.45
822.6231	579.3648	2250.55	1438.25
822.7675	581.4992	2228.2	1415.5
822.912	583.6329	2220.7	1408.7
823.0565	585.766	2232.2	1419.9
823.201	587.8985	2262.4	1453.45
823.3454	590.0304	2304.9	1480.3
823.4899	592.1616	2321.2	1504.55
823.6345	594.2922	2336.05	1521.7
823.779	596.4222	2309.1	1492.55
823.9235	598.5515	2263.95	1447.05
824.068	600.6802	2215.35	1398.15
824.2126	602.8083	2183.15	1363.8
824.3571	604.9358	2165.8	1347.15
824.5017	607.0626	2167.5	1346.85
824.6462	609.1888	2173.4	1352.9
824.7908	611.3144	2182.45	1363
824.9354	613.4393	2208.85	1389.5
825.08	615.5636	2250.35	1428.95
825.2246	617.6873	2289.85	1472.35
825.3692	619.8103	2307.5	1484.75
825.5138	621.9327	2316.05	1490.9
825.6584	624.0544	2299.65	1477.5
825.803	626.1756	2253.85	1432.15
825.9477	628.2961	2206.1	1384.8
826.0923	630.4159	2186.5	1364.05
826.237	632.5351	2173.75	1350.6
826.3816	634.6537	2174.1	1348.75
826.5263	636.7716	2173.45	1348.6
826.6709	638.8889	2152.75	1325.95
826.8156	641.0056	2169	1344
826.9603	643.1216	2177.35	1351
827.105	645.237	2189.85	1361.15
827.2497	647.3518	2176.9	1349.25
827.3944	649.4659	2150.2	1322.95
827.5391	651.5793	2126.75	1298.55
827.6838	653.6922	2126.5	1300.1
827.8285	655.8043	2121.35	1293.3
827.9733	657.9159	2107.55	1277.7
828.118	660.0268	2095.65	1262.3
828.2627	662.137	2090.75	1259.7
828.4075	664.2466	2087.7	1255.6
828.5522	666.3556	2088.7	1259.3
828.697	668.4639	2080.1	1247.55
828.8418	670.5716	2074.05	1241.95
828.9865	672.6786	2074.25	1240.8
829.1313	674.785	2067.95	1233.6
829.2761	676.8907	2059.2	1226.2
829.4209	678.9958	2058.55	1226.8
829.5657	681.1002	2066.95	1233.4
829.7105	683.204	2071.15	1234.25
829.8553	685.3072	2067.7	1232.45
830.0001	687.4097	2053	1220.15
830.1449	689.5115	2057.9	1220.3
830.2898	691.6127	2059.4	1224.75
830.4346	693.7132	2053.2	1217.5
830.5794	695.8131	2072.4	1224.55
830.7243	697.9123	2056.85	1218.85
830.8691	700.0109	2050.45	1212.95
831.014	702.1089	2067.1	1230.15
831.1588	704.2061	2080.55	1242.7
831.3037	706.3028	2090	1251.95
831.4486	708.3987	2106.5	1268.75
831.5935	710.4941	2116	1278.45
831.7383	712.5887	2127.1	1287.75
831.8832	714.6827	2118.05	1275
832.0281	716.7761	2110.35	1272.15
832.173	718.8688	2101.6	1260
832.3179	720.9608	2115.55	1272.85
832.4628	723.0522	2114.35	1271.55
832.6077	725.1429	2126.2	1286.35
832.7527	727.233	2164.4	1323.35
832.8976	729.3224	2197	1355.9
833.0425	731.4112	2239.05	1397.1
833.1874	733.4993	2253.55	1409.45
833.3324	735.5867	2230.85	1387.2
833.4773	737.6735	2175.95	1330.75
833.6222	739.7596	2131.9	1286.35
833.7672	741.845	2115.2	1272.3
833.9122	743.9298	2115.4	1268.9
834.0571	746.014	2120.7	1277.45
834.2021	748.0974	2131.1	1286.25
834.347	750.1802	2130.5	1287.2
834.492	752.2624	2122.8	1277.2
834.637	754.3439	2106.85	1257.8
834.782	756.4247	2099.9	1246.85
834.9269	758.5048	2083.1	1239.35
835.0719	760.5843	2094.7	1249
835.2169	762.6631	2100.95	1256.2
835.3619	764.7413	2148.1	1303.25
835.5069	766.8188	2210.75	1362.5
835.6519	768.8956	2263.85	1413.25
835.7969	770.9718	2307.55	1459.4
835.9419	773.0473	2306.15	1458.75
836.0869	775.1221	2258.55	1409.55
836.232	777.1962	2259.05	1410.4
836.377	779.2697	2299.45	1448.35
836.522	781.3426	2376.45	1515.85
836.667	783.4147	2429.95	1579.85
836.8121	785.4862	2432.1	1584.9
836.9571	787.557	2368.6	1518.75
837.1021	789.6271	2272.55	1423.05
837.2472	791.6966	2173.5	1324.45
837.3922	793.7654	2109.1	1259.55
837.5373	795.8335	2050.65	1200.95
837.6823	797.901	2032.5	1180.05
837.8274	799.9678	2021.25	1168.45
837.9724	802.0339	2023.5	1174.5
838.1175	804.0993	2043.6	1186.95
838.2626	806.1641	2012.65	1161.8
838.4076	808.2282	1995	1143.05
838.5527	810.2916	1989.4	1135.1
838.6978	812.3544	1986.2	1135.75
838.8428	814.4164	1964	1113.7
838.9879	816.4778	1973.65	1119.85
839.133	818.5385	1972.3	1120.15
839.2781	820.5986	2000.4	1147
839.4232	822.658	2034.95	1179.65
839.5682	824.7166	2091.65	1238
839.7133	826.7747	2157.65	1306.45
839.8584	828.832	2211.7	1358.05
840.0035	830.8886	2240.05	1384.35
840.1486	832.9446	2267.7	1411.95
840.2937	834.9999	2247.9	1395.05
840.4388	837.0545	2207.3	1350.4
840.5839	839.1085	2134.3	1279.25
840.729	841.1618	2085.4	1227.25
840.8741	843.2143	2031	1178.05
841.0192	845.2662	2000.8	1147.7
841.1643	847.3175	1986.65	1132.55
841.3095	849.368	1983.3	1126.75
841.4546	851.4179	1986.85	1130.7
841.5997	853.467	1981.2	1126.4
841.7448	855.5155	1986.25	1131.2
841.8899	857.5633	1978.65	1123.75
842.0351	859.6105	1973.7	1118.3
842.1802	861.6569	1969.05	1112.35
842.3253	863.7027	1954.7	1097.7
842.4704	865.7478	1950.15	1093.05
842.6156	867.7922	1938.55	1084
842.7607	869.8359	1932.15	1072.55
842.9058	871.8789	1922.45	1064.75
843.0509	873.9212	1961.5	1069.9
843.1961	875.9629	1926	1068
843.3412	878.0039	1929.25	1068.05
843.4863	880.0441	1949.4	1090.55
843.6315	882.0837	1958.15	1096.6
843.7766	884.1226	1976.9	1115.4
843.9218	886.1609	1992.85	1135.3
844.0669	888.1984	2026.35	1168.05
844.212	890.2352	2068.05	1210.85
844.3572	892.2714	2076.05	1213.1
844.5023	894.3069	2069.9	1209.8
844.6475	896.3416	2022.8	1161.3
844.7926	898.3757	1984.8	1122.4
844.9377	900.4091	1969.7	1109.1
845.0829	902.4418	1967	1102.05
845.228	904.4739	1977.8	1116.2
845.3732	906.5052	1988.15	1127.25
845.5183	908.5358	1991.15	1131.3
845.6635	910.5658	1981.45	1120.8
845.8086	912.595	1948.3	1087.8
845.9538	914.6236	1921.8	1062.5
846.0989	916.6515	1903.2	1043.55
846.2441	918.6786	1875.15	1012.15
846.3892	920.7051	1878.65	1014.55
846.5344	922.7309	1873.2	1010.4
846.6795	924.756	1879.4	1016.2
846.8246	926.7804	1884.65	1019.85
846.9698	928.8041	1886.2	1022.45
847.1149	930.8272	1899.85	1037.35
847.2601	932.8495	1895.95	1032.7
847.4052	934.8711	1907.6	1043.85
847.5504	936.892	1911.35	1048.2
847.6955	938.9123	1920.2	1054.2
847.8407	940.9318	1943.25	1078.95
847.9858	942.9506	1954.3	1086.95
848.131	944.9688	1947.55	1083.1
848.2761	946.9862	1933.65	1067.3
848.4213	949.003	1902.9	1039.05
848.5664	951.019	1892.35	1028.2
848.7115	953.0344	1873.05	1008.2
848.8567	955.0491	1868.25	1001.35
849.0018	957.063	1845.75	982.05
849.147	959.0763	1848.95	985.2
849.2921	961.0888	1846.4	979.9
849.4373	963.1007	1843.4	976.3
849.5824	965.1119	1838.55	972.65
849.7275	967.1223	1835.8	969.3
849.8727	969.1321	1815.1	950.55
850.0178	971.1412	1822.95	958.35
850.1629	973.1495	1812.2	945.35
850.3081	975.1572	1854.6	936.3
850.4532	977.1641	1821.25	955.6
850.5983	979.1704	1809.25	940.5
850.7435	981.1759	1809.6	938.3
850.8886	983.1808	1807.7	938
851.0337	985.1849	1805.1	928.3
851.1788	987.1884	1801.25	932.2
851.324	989.1911	1800.7	930.5
851.4691	991.1932	1809.15	940.85
851.6142	993.1945	1802.55	936.05
851.7593	995.1951	1799.2	931.3
851.9045	997.1951	1806	932.7
852.0496	999.1943	1789.65	921.65
852.1947	1001.1928	1794.2	925.1
852.3398	1003.1906	1801.1	934.1
852.4849	1005.1877	1809.25	940.25
852.63	1007.1841	1827.7	957.85
852.7751	1009.1798	1845.75	977.2
852.9202	1011.1748	1842.9	974.1
853.0653	1013.1691	1816.2	946.4
853.2104	1015.1627	1787.6	919.45
853.3555	1017.1556	1760	890.4
853.5006	1019.1477	1754.9	885.55
853.6457	1021.1392	1742.35	874.1
853.7908	1023.1299	1725.1	854.9
853.9359	1025.12	1721.35	848.9
854.081	1027.1093	1717.6	849.75
854.2261	1029.0979	1743.75	875
854.3712	1031.0859	1752.95	884.4
854.5163	1033.0731	1755.6	885.4
854.6613	1035.0596	1761.05	891.4
854.8064	1037.0454	1745.65	875.5
854.9515	1039.0304	1749.9	877.9
855.0965	1041.0148	1731.65	860.85
855.2416	1042.9985	1718.05	844.2
855.3867	1044.9814	1695.15	826.75
855.5317	1046.9636	1694.25	823.1
855.6768	1048.9452	1691.4	821.1
855.8219	1050.926	1709.9	840.9
855.9669	1052.9061	1715	844.35
856.112	1054.8855	1738.65	868.55
856.257	1056.8642	1734.25	864.9
856.4021	1058.8421	1720.8	844.65
856.5471	1060.8194	1724.35	852.75
856.6921	1062.7959	1714.25	844.5
856.8372	1064.7717	1719.85	847.8
856.9822	1066.7469	1712.3	839.9
857.1272	1068.7213	1710.7	834.2
857.2723	1070.695	1713.9	842.4
857.4173	1072.6679	1731.15	858.4
857.5623	1074.6402	1744.3	871.6
857.7073	1076.6117	1761	883.3
857.8523	1078.5826	1746.35	874.75
857.9973	1080.5527	1725	851.1
858.1423	1082.5221	1688.15	815.8
858.2873	1084.4908	1665.35	790.4
858.4323	1086.4587	1654.25	780.9
858.5773	1088.426	1644.15	769.75
858.7223	1090.3925	1648.65	771.55
858.8673	1092.3584	1644.5	772.3
859.0123	1094.3235	1649	776.25
859.1573	1096.2879	1663.35	790.4
859.3022	1098.2515	1679.15	804.9
859.4472	1100.2145	1688.35	812.85
859.5922	1102.1767	1714.3	839.7
859.7371	1104.1382	1732.55	857.65
859.8821	1106.099	1781.55	906.1
860.027	1108.0591	1820.15	946.45
860.172	1110.0185	1850.2	974.85
860.3169	1111.9771	1867.6	994.4
860.4619	1113.9351	1887.45	1014.1
860.6068	1115.8923	1946.05	1071.85
860.7517	1117.8488	1977.5	1102
860.8967	1119.8045	1958.65	1082.7
861.0416	1121.7596	1882.3	1006.2
861.1865	1123.7139	1791.3	918.55
861.3314	1125.6675	1747.95	874
861.4763	1127.6204	1743.05	868.25
861.6212	1129.5726	1759.55	883.35
861.7661	1131.524	1761.4	887.4
861.911	1133.4748	1740.4	865.55
862.0559	1135.4248	1687.4	811.35
862.2008	1137.3741	1640.15	764.65
862.3457	1139.3226	1626.3	748.95
862.4905	1141.2705	1624.15	748.6
862.6354	1143.2176	1626.1	743.7
862.7803	1145.164	1647.9	771.65
862.9251	1147.1097	1639.55	763.05
863.07	1149.0546	1630.25	754.75
863.2148	1150.9989	1605.05	728.55
863.3597	1152.9424	1587.35	712.6
863.5045	1154.8852	1579.85	704.1
863.6493	1156.8272	1566.4	691.5
863.7942	1158.7686	1582.6	701.6
863.939	1160.7092	1571.5	694.7
864.0838	1162.6491	1558.95	680.8
864.2286	1164.5883	1571.5	696.4
864.3734	1166.5267	1583.35	704.35
864.5182	1168.4644	1603.85	728.55
864.663	1170.4014	1615.75	734.8
864.8078	1172.3377	1637.2	760.65
864.9526	1174.2732	1672.35	796.45
865.0974	1176.2081	1718	842.6
865.2421	1178.1421	1822.4	940.2
865.3869	1180.0755	1913.15	1037.7
865.5317	1182.0082	1977.35	1101.1
865.6764	1183.9401	1974.55	1097.3
865.8212	1185.8713	1903.05	1026.05
865.9659	1187.8017	1810.95	932.7
866.1106	1189.7315	1727.95	851.95
866.2554	1191.6605	1688.8	782.95
866.4001	1193.5888	1625.55	748.45
866.5448	1195.5163	1603.8	727
866.6895	1197.4432	1583.15	703.5
866.8342	1199.3693	1573.65	695.95
866.9789	1201.2947	1554.75	670.65
867.1236	1203.2193	1546.8	670.1
867.2683	1205.1432	1551.05	670.3
867.413	1207.0664	1534.35	656.6
867.5576	1208.9889	1549.5	669.15
867.7023	1210.9106	1540.5	663.9
867.847	1212.8316	1539.2	661.75
867.9916	1214.7519	1557.8	670.75
868.1363	1216.6715	1547.25	669.65
868.2809	1218.5903	1567.7	689.15
868.4255	1220.5084	1565.1	686
868.5701	1222.4257	1583.1	703.1
868.7148	1224.3424	1583.4	706.15
868.8594	1226.2583	1594.95	709.65
869.004	1228.1735	1610.75	731.95
869.1486	1230.0879	1632.65	751.35
869.2932	1232.0016	1663.25	785.25
869.4377	1233.9146	1684.95	806.1
869.5823	1235.8269	1685.75	807.9
869.7269	1237.7384	1691.6	813.2
869.8715	1239.6492	1682.6	805.4
870.016	1241.5592	1696.6	816.65
870.1606	1243.4686	1718.35	840.7
870.3051	1245.3772	1769.35	891.65
870.4496	1247.285	1834.15	956.2
870.5941	1249.1922	1890.55	1011.65
