Software Version:	3.9.2.0
Unit SN:	10000200
Spectrometer SN:	6960
Date:	3/14/2024 1:22:51 PM
Data Line Index:	25
Spectral Points:	2048
Integration time (ms):	125
Averages:	20
Delay (ms):	30000
Sequence Number:	1
Processing:	dark subtract
Laser Power (mW):	300
Laser Current (mA):	825
Laser Diode Temp (C):	25
Laser Case Temp (C):	28.4
System Temp (C):	28.4
Spectrometer Temp (C):	26.2
CCD Temp (C):	0.001
Secondary Temp (C):	20.01
Heatsink Temp (C):	24.382
CCDPCB Temp (C):	37.73
SecondaryPCB Temp (C):	35.473

Wavelength	RamanShift	Raw Counts	Dark Subtracted
787.061	30.1047	427.8	15.9
787.2016	32.3739	429.95	18.9
787.3422	34.6426	432.15	19.55
787.4828	36.9109	434.85	21.6
787.6235	39.1787	441.1	23.45
787.7642	41.4461	445.4	23.65
787.9049	43.7131	449.2	23.6
788.0456	45.9796	455.4	28.6
788.1863	48.2456	461.1	27.1
788.3271	50.5112	467.45	29.75
788.4679	52.7764	468.45	29.8
788.6087	55.0411	477.2	35.8
788.7496	57.3054	482.75	36.45
788.8904	59.5692	489.05	41.5
789.0313	61.8326	496.3	42.6
789.1722	64.0955	503.5	46.85
789.3132	66.3579	512.75	49.5
789.4541	68.6199	520.25	55.25
789.5951	70.8815	538.1	68.55
789.7361	73.1426	569.45	97.25
789.8771	75.4032	645.1	168.75
790.0181	77.6634	825.8	344.5
790.1592	79.9231	1261	772.75
790.3003	82.1824	2161.2	1661.65
790.4414	84.4412	3728.55	3215.05
790.5825	86.6995	5903.9	5369.85
790.7237	88.9574	8044.15	7490.2
790.8648	91.2148	9592.35	9024.9
791.006	93.4717	10343.15	9766.05
791.1472	95.7282	10508.15	9927.65
791.2885	97.9842	10545.45	9959.55
791.4297	100.2398	10336.65	9748.95
791.571	102.4949	10142.6	9547.55
791.7123	104.7495	9889.75	9292.85
791.8536	107.0036	9631.2	9036.5
791.9949	109.2573	9399.05	8804.75
792.1363	111.5105	9157.5	8561.1
792.2777	113.7632	8934.45	8335.3
792.4191	116.0154	8771.8	8161.9
792.5605	118.2672	8621.8	8022
792.7019	120.5185	8441.55	7837.6
792.8434	122.7693	8367.35	7762.25
792.9849	125.0197	8231.85	7622
793.1264	127.2696	8145.7	7535.45
793.2679	129.519	8102.5	7489.9
793.4094	131.7679	8006.85	7394.2
793.551	134.0163	7932.05	7312
793.6926	136.2642	7847.75	7224.9
793.8342	138.5117	7767.85	7136.2
793.9758	140.7587	7659.45	7030.2
794.1175	143.0052	7541.35	6910.1
794.2591	145.2512	7456.45	6824.3
794.4008	147.4967	7346.75	6717.1
794.5425	149.7417	7267.65	6631.25
794.6842	151.9863	7227.7	6590.45
794.826	154.2304	7179.7	6537.15
794.9677	156.4739	7123.85	6477.2
795.1095	158.717	7102.8	6460.35
795.2513	160.9596	7083.9	6433.4
795.3931	163.2017	7046.4	6394.5
795.535	165.4433	6975.75	6319.9
795.6768	167.6844	6879.2	6223.5
795.8187	169.925	6790.65	6129.6
795.9606	172.1651	6703.7	6042.7
796.1025	174.4047	6607.45	5943.25
796.2445	176.6439	6527.5	5863.4
796.3864	178.8825	6467	5798.9
796.5284	181.1206	6459.3	5788
796.6704	183.3582	6429.55	5751.35
796.8124	185.5954	6375.45	5698.5
796.9544	187.832	6381.2	5700.1
797.0965	190.0681	6351.25	5669.75
797.2386	192.3037	6360.95	5678
797.3806	194.5388	6324.75	5634
797.5228	196.7734	6362.7	5670
797.6649	199.0075	6383.15	5688.7
797.807	201.2411	6422.1	5724.2
797.9492	203.4742	6462.85	5767.55
798.0914	205.7068	6503.25	5804.85
798.2336	207.9389	6521.25	5820.85
798.3758	210.1704	6583.55	5883.95
798.518	212.4015	6597.85	5892.9
798.6603	214.632	6651.85	5948.2
798.8025	216.862	6658.95	5958.3
798.9448	219.0915	6675.05	5982
799.0871	221.3205	6679.95	5990.75
799.2294	223.549	6699.3	6015.1
799.3718	225.777	6704.3	6019.25
799.5141	228.0044	6711.2	6025.5
799.6565	230.2314	6726.45	6039.45
799.7989	232.4578	6734.55	6046.1
799.9413	234.6837	6727.25	6035.55
800.0837	236.909	6754.8	6057.7
800.2262	239.1339	6716.85	5996.75
800.3687	241.3582	6706.3	6003.85
800.5111	243.582	6701.6	5974.05
800.6536	245.8053	6706.3	5983.05
800.7961	248.0281	6698.4	5979.15
800.9387	250.2503	6696.7	5975
801.0812	252.472	6725.9	6000.8
801.2238	254.6932	6740.55	6010.6
801.3664	256.9139	6786.05	6054
801.509	259.134	6840.55	6107.65
801.6516	261.3536	6895.95	6164.45
801.7942	263.5727	7000.5	6266.15
801.9369	265.7912	7088.2	6353.2
802.0795	268.0092	7176.4	6443.5
802.2222	270.2267	7266.35	6531.15
802.3649	272.4436	7320.9	6584
802.5076	274.6601	7363.2	6617.5
802.6504	276.8759	7329.5	6593.95
802.7931	279.0913	7332	6590.85
802.9359	281.3061	7321.05	6576.95
803.0787	283.5204	7333.8	6591.9
803.2215	285.7341	7358.95	6608.65
803.3643	287.9473	7380.4	6621.65
803.5071	290.16	7338.7	6581.65
803.6499	292.3721	7331.5	6581.65
803.7928	294.5837	7369	6620.85
803.9357	296.7947	7360.8	6609.75
804.0786	299.0052	7394.1	6645.1
804.2215	301.2152	7364.7	6611.9
804.3644	303.4246	7362.4	6613
804.5074	305.6334	7292.55	6541.05
804.6503	307.8418	7174.25	6418.25
804.7933	310.0495	7069	6314.1
804.9363	312.2568	6940	6187.35
805.0793	314.4635	6814	6057.35
805.2223	316.6696	6693.9	5937.9
805.3653	318.8752	6595.4	5829.35
805.5084	321.0802	6544	5786.35
805.6514	323.2847	6534.95	5775.05
805.7945	325.4887	6538.5	5778.3
805.9376	327.692	6564.85	5806.7
806.0807	329.8949	6563.2	5801.1
806.2238	332.0972	6541.35	5781.7
806.367	334.2989	6510	5746.5
806.5101	336.5001	6461.65	5696.8
806.6533	338.7007	6387.65	5620.2
806.7965	340.9008	6316.85	5546.8
806.9397	343.1003	6249.9	5479.3
807.0829	345.2992	6208.7	5438.15
807.2261	347.4976	6144.15	5369.2
807.3693	349.6955	6109.05	5333.85
807.5126	351.8927	6078.4	5301.9
807.6559	354.0895	6064.45	5277.3
807.7991	356.2856	6033.25	5255
807.9424	358.4812	5993.35	5216.25
808.0857	360.6763	5975.55	5198.75
808.2291	362.8707	5981.1	5197.5
808.3724	365.0646	5992.1	5208.8
808.5158	367.258	6002.9	5218.05
808.6591	369.4508	5998.95	5207.05
808.8025	371.643	6057.3	5270.4
808.9459	373.8346	6082.7	5290.05
809.0893	376.0257	6102.8	5311.3
809.2327	378.2162	6133.5	5342
809.3762	380.4062	6158.65	5364.25
809.5196	382.5956	6093.05	5297.55
809.6631	384.7844	6069.35	5272.15
809.8066	386.9726	5997.85	5199.25
809.9501	389.1603	5941.65	5142.25
810.0936	391.3474	5962.45	5129.7
810.2371	393.5339	5921.9	5123.05
810.3806	395.7199	5899.5	5108.15
810.5241	397.9052	5921.7	5132.8
810.6677	400.09	5937.35	5147.65
810.8113	402.2743	5990	5201.05
810.9548	404.4579	6054.3	5265.65
811.0984	406.641	6133.8	5344.8
811.2421	408.8235	6195.5	5405.25
811.3857	411.0054	6243.45	5452.05
811.5293	413.1868	6311.5	5517.05
811.673	415.3675	6326.5	5531.05
811.8166	417.5477	6298.8	5504.2
811.9603	419.7273	6238.25	5440.4
812.104	421.9064	6172.45	5366.4
812.2477	424.0848	6125.65	5326.3
812.3914	426.2627	6062	5254.45
812.5351	428.4399	5983.5	5178.3
812.6788	430.6166	5859.9	5053.1
812.8226	432.7928	5748.55	4937.5
812.9663	434.9683	5663.1	4853.05
813.1101	437.1432	5584.9	4772.3
813.2539	439.3176	5527.35	4716.5
813.3977	441.4914	5507.65	4697.1
813.5415	443.6645	5480.75	4666.65
813.6853	445.8371	5457.3	4642.1
813.8291	448.0091	5440.9	4625.35
813.973	450.1806	5422.3	4607.8
814.1168	452.3514	5414.9	4600.35
814.2607	454.5216	5438.75	4613.3
814.4046	456.6913	5417	4602.25
814.5485	458.8603	5414.75	4599.75
814.6924	461.0288	5428.8	4610.15
814.8363	463.1967	5409.5	4591
814.9802	465.3639	5418.45	4598.35
815.1241	467.5306	5400.95	4581.55
815.2681	469.6967	5381.95	4560.15
815.412	471.8622	5353.4	4535.05
815.556	474.0271	5369.9	4551.9
815.7	476.1914	5376.25	4554.05
815.844	478.3551	5363.8	4541.8
815.988	480.5182	5381.85	4558.4
816.132	482.6807	5390.05	4567.95
816.276	484.8426	5449.8	4628.1
816.4201	487.0039	5523.95	4701.25
816.5641	489.1647	5623.9	4803
816.7082	491.3248	5731.95	4905.65
816.8522	493.4843	5748.1	4923.8
816.9963	495.6432	5719.85	4894.4
817.1404	497.8015	5682.1	4854.8
817.2845	499.9592	5630.5	4803.95
817.4286	502.1163	5543.25	4716.75
817.5727	504.2728	5448.95	4621.85
817.7168	506.4287	5390.25	4563.25
817.861	508.5839	5321.7	4493.95
818.0051	510.7386	5286.65	4460.25
818.1493	512.8927	5233.95	4399.35
818.2935	515.0461	5238.3	4408.1
818.4377	517.199	5259.65	4430.95
818.5818	519.3512	5316.25	4487.05
818.726	521.5029	5402.95	4566.85
818.8703	523.6539	5473.9	4641.6
819.0145	525.8043	5522.4	4692.2
819.1587	527.9541	5477.85	4643.05
819.303	530.1033	5392.95	4563.2
819.4472	532.2519	5322.35	4489
819.5915	534.3999	5289.25	4452.35
819.7357	536.5472	5281.65	4450.85
819.88	538.694	5335.5	4502
820.0243	540.8401	5357.2	4522.3
820.1686	542.9856	5417.5	4580.3
820.3129	545.1305	5402.55	4563.9
820.4572	547.2748	5406.9	4568.1
820.6016	549.4185	5387.05	4545.6
820.7459	551.5615	5361.9	4522.9
820.8902	553.704	5359.75	4522.65
821.0346	555.8458	5372.6	4534.1
821.1789	557.987	5442.1	4603.65
821.3233	560.1276	5482.4	4645.05
821.4677	562.2675	5603.35	4766.25
821.6121	564.4069	5741.2	4902.1
821.7565	566.5456	5840.3	5001.65
821.9009	568.6837	5902	5062.15
822.0453	570.8212	5783.65	4948.75
822.1897	572.958	5597.9	4757.75
822.3342	575.0942	5420.05	4580.5
822.4786	577.2299	5293.25	4452.6
822.6231	579.3648	5230.1	4389.35
822.7675	581.4992	5198.35	4359.35
822.912	583.6329	5201	4361.4
823.0565	585.766	5256.8	4414.2
823.201	587.8985	5298.8	4457.5
823.3454	590.0304	5334.45	4469.1
823.4899	592.1616	5334.65	4491.9
823.6345	594.2922	5300.85	4458.4
823.779	596.4222	5236.7	4392.95
823.9235	598.5515	5137.85	4293.8
824.068	600.6802	5080	4236.4
824.2126	602.8083	5013.35	4169.5
824.3571	604.9358	5012.2	4167.4
824.5017	607.0626	5010.9	4164.75
824.6462	609.1888	5033.35	4187.1
824.7908	611.3144	5097.4	4251.65
824.9354	613.4393	5150.35	4304.95
825.08	615.5636	5184.8	4341
825.2246	617.6873	5232.75	4388
825.3692	619.8103	5241.25	4393.3
825.5138	621.9327	5170.75	4321.45
825.6584	624.0544	5099.55	4253.9
825.803	626.1756	5020.6	4175.65
825.9477	628.2961	4982.85	4138.15
826.0923	630.4159	4948.65	4098.9
826.237	632.5351	4931.4	4084.4
826.3816	634.6537	4910.1	4063
826.5263	636.7716	4905.35	4054.45
826.6709	638.8889	4889.35	4039.65
826.8156	641.0056	4914.7	4062.6
826.9603	643.1216	4890.2	4041.55
827.105	645.237	4873.55	4022.4
827.2497	647.3518	4843.9	3994.75
827.3944	649.4659	4816	3964.5
827.5391	651.5793	4784.95	3931.7
827.6838	653.6922	4755.2	3901.7
827.8285	655.8043	4763.6	3914.1
827.9733	657.9159	4744.75	3892.8
828.118	660.0268	4737.2	3881.9
828.2627	662.137	4738	3885.9
828.4075	664.2466	4734.85	3882.4
828.5522	666.3556	4752.7	3898.35
828.697	668.4639	4720.9	3866.2
828.8418	670.5716	4713.05	3856.9
828.9865	672.6786	4691.65	3836.7
829.1313	674.785	4654.25	3798.1
829.2761	676.8907	4638.1	3782.75
829.4209	678.9958	4638.1	3782.6
829.5657	681.1002	4625.2	3770.1
829.7105	683.204	4622.8	3763
829.8553	685.3072	4599.85	3743.55
830.0001	687.4097	4600.35	3745.75
830.1449	689.5115	4603.4	3746.85
830.2898	691.6127	4596	3739.9
830.4346	693.7132	4569.85	3710.25
830.5794	695.8131	4603.85	3730.8
830.7243	697.9123	4600.3	3742.35
830.8691	700.0109	4603	3744.4
831.014	702.1089	4602.75	3747.05
831.1588	704.2061	4627.75	3768.6
831.3037	706.3028	4655.5	3795.5
831.4486	708.3987	4666.55	3806.2
831.5935	710.4941	4673.9	3813.8
831.7383	712.5887	4679.7	3822.55
831.8832	714.6827	4694.55	3832.95
832.0281	716.7761	4699.35	3839.35
832.173	718.8688	4741.75	3879.2
832.3179	720.9608	4778.55	3915.9
832.4628	723.0522	4814.25	3951.55
832.6077	725.1429	4831.9	3971.5
832.7527	727.233	4885	4021.85
832.8976	729.3224	4941.85	4082.3
833.0425	731.4112	4981.85	4118.55
833.1874	733.4993	4926.55	4063.35
833.3324	735.5867	4829.25	3965.95
833.4773	737.6735	4751.5	3887.25
833.6222	739.7596	4671.8	3808.65
833.7672	741.845	4637.25	3776.1
833.9122	743.9298	4610.55	3744.75
834.0571	746.014	4565.45	3702.05
834.2021	748.0974	4560.4	3692.25
834.347	750.1802	4568.55	3706.2
834.492	752.2624	4559.6	3694.95
834.637	754.3439	4551.7	3683.8
834.782	756.4247	4576.1	3702.25
834.9269	758.5048	4605.5	3739.6
835.0719	760.5843	4679.65	3814.7
835.2169	762.6631	4762.55	3897.6
835.3619	764.7413	4901.7	4037.7
835.5069	766.8188	5119.45	4254.65
835.6519	768.8956	5274.85	4405.45
835.7969	770.9718	5399.65	4535.55
835.9419	773.0473	5393.55	4528.8
836.0869	775.1221	5348.55	4483.7
836.232	777.1962	5308.2	4441.35
836.377	779.2697	5310.6	4442.95
836.522	781.3426	5377.5	4502.65
836.667	783.4147	5408.7	4542.5
836.8121	785.4862	5404.15	4539.75
836.9571	787.557	5310.2	4444.15
837.1021	789.6271	5116.65	4247.95
837.2472	791.6966	4908.3	4041.1
837.3922	793.7654	4721.8	3851
837.5373	795.8335	4603.3	3737.25
837.6823	797.901	4506.05	3639.65
837.8274	799.9678	4454.4	3586.35
837.9724	802.0339	4429.05	3562.4
838.1175	804.0993	4415.3	3539.85
838.2626	806.1641	4381.85	3514.95
838.4076	808.2282	4351.05	3483.05
838.5527	810.2916	4320.75	3448.05
838.6978	812.3544	4298.2	3433.5
838.8428	814.4164	4285.45	3420.85
838.9879	816.4778	4306.7	3435.5
839.133	818.5385	4313.7	3445.05
839.2781	820.5986	4356.6	3489
839.4232	822.658	4436.5	3569.75
839.5682	824.7166	4551.6	3682.6
839.7133	826.7747	4716.9	3849.2
839.8584	828.832	4889.65	4021.05
840.0035	830.8886	5034.1	4166.2
840.1486	832.9446	5085.1	4215.9
840.2937	834.9999	5001.55	4134.1
840.4388	837.0545	4885.2	4013.95
840.5839	839.1085	4752.55	3883.05
840.729	841.1618	4631.95	3759.05
840.8741	843.2143	4538.05	3666.9
841.0192	845.2662	4431.85	3561.8
841.1643	847.3175	4414.65	3544.35
841.3095	849.368	4361	3492.95
841.4546	851.4179	4334.35	3464.05
841.5997	853.467	4301.65	3431.85
841.7448	855.5155	4310.55	3438.35
841.8899	857.5633	4291.6	3420
842.0351	859.6105	4271.9	3400.3
842.1802	861.6569	4239.85	3369.35
842.3253	863.7027	4212.35	3344.1
842.4704	865.7478	4190.7	3319.05
842.6156	867.7922	4186.2	3314.65
842.7607	869.8359	4156.65	3286.55
842.9058	871.8789	4161.65	3288.35
843.0509	873.9212	4200.6	3292.6
843.1961	875.9629	4192.8	3321.4
843.3412	878.0039	4219.15	3344.6
843.4863	880.0441	4243.25	3372.85
843.6315	882.0837	4258.55	3386.8
843.7766	884.1226	4305.1	3429.95
843.9218	886.1609	4327.8	3456.35
844.0669	888.1984	4382.45	3508.7
844.212	890.2352	4439.9	3569.05
844.3572	892.2714	4443.85	3567.6
844.5023	894.3069	4435.65	3564.15
844.6475	896.3416	4356.35	3482.75
844.7926	898.3757	4270.55	3397.2
844.9377	900.4091	4258.55	3382.4
845.0829	902.4418	4236.25	3357.2
845.228	904.4739	4244.5	3369.45
845.3732	906.5052	4265.95	3393.2
845.5183	908.5358	4251.15	3377.95
845.6635	910.5658	4216.05	3342
845.8086	912.595	4139	3266.4
845.9538	914.6236	4065.75	3194.05
846.0989	916.6515	4003.45	3129.1
846.2441	918.6786	3987.45	3111.85
846.3892	920.7051	3963.5	3088.1
846.5344	922.7309	3972	3099.5
846.6795	924.756	3967.55	3092.7
846.8246	926.7804	3998.1	3122.85
846.9698	928.8041	3983.3	3105
847.1149	930.8272	4010.65	3134.45
847.2601	932.8495	4010.75	3134.05
847.4052	934.8711	4003.6	3126.2
847.5504	936.892	3998.95	3124.8
847.6955	938.9123	4022.3	3145.8
847.8407	940.9318	4037.4	3162.25
847.9858	942.9506	4052.6	3175.85
848.131	944.9688	4038.6	3162.35
848.2761	946.9862	3987.75	3112.9
848.4213	949.003	3926.35	3051.35
848.5664	951.019	3888.65	3012.15
848.7115	953.0344	3852	2977.3
848.8567	955.0491	3844.9	2967.2
849.0018	957.063	3830.15	2954.7
849.147	959.0763	3841.85	2966.5
849.2921	961.0888	3855.05	2978.25
849.4373	963.1007	3854.75	2977.95
849.5824	965.1119	3852.8	2977.35
849.7275	967.1223	3861.2	2982.5
849.8727	969.1321	3847.65	2973.65
850.0178	971.1412	3829	2951.4
850.1629	973.1495	3804	2925.75
850.3081	975.1572	3829.25	2920.5
850.4532	977.1641	3814.5	2936.7
850.5983	979.1704	3801.85	2925.8
850.7435	981.1759	3789.45	2910.25
850.8886	983.1808	3790.25	2913.6
851.0337	985.1849	3790.75	2905.2
851.1788	987.1884	3788.4	2910.15
851.324	989.1911	3799.85	2922.05
851.4691	991.1932	3810.45	2932.8
851.6142	993.1945	3803.8	2925.3
851.7593	995.1951	3795.4	2916.1
851.9045	997.1951	3805.7	2920.35
852.0496	999.1943	3787.3	2911.75
852.1947	1001.1928	3785.95	2906
852.3398	1003.1906	3802.7	2925.55
852.4849	1005.1877	3818.75	2941.15
852.63	1007.1841	3852.35	2976.15
852.7751	1009.1798	3868.95	2991.75
852.9202	1011.1748	3845.15	2968.3
853.0653	1013.1691	3809.7	2932.05
853.2104	1015.1627	3744.3	2866.8
853.3555	1017.1556	3678.6	2800
853.5006	1019.1477	3648.6	2770.85
853.6457	1021.1392	3597.05	2719.8
853.7908	1023.1299	3593	2713.8
853.9359	1025.12	3591.65	2713.9
854.081	1027.1093	3607.15	2730.35
854.2261	1029.0979	3638.25	2762.25
854.3712	1031.0859	3665.5	2786
854.5163	1033.0731	3650.2	2771.45
854.6613	1035.0596	3663.05	2786.8
854.8064	1037.0454	3635	2756.95
854.9515	1039.0304	3596.2	2718.45
855.0965	1041.0148	3551.35	2673.75
855.2416	1042.9985	3531.75	2653.5
855.3867	1044.9814	3519.25	2641.5
855.5317	1046.9636	3515.8	2636.1
855.6768	1048.9452	3502.05	2626.05
855.8219	1050.926	3512	2635.6
855.9669	1052.9061	3517.4	2639.95
856.112	1054.8855	3526.8	2648.8
856.257	1056.8642	3511.25	2634.5
856.4021	1058.8421	3553.6	2671.25
856.5471	1060.8194	3549.4	2671.4
856.6921	1062.7959	3544.9	2666.3
856.8372	1064.7717	3549.05	2668
856.9822	1066.7469	3576	2696.55
857.1272	1068.7213	3585.45	2701.55
857.2723	1070.695	3622.05	2744.1
857.4173	1072.6679	3633.4	2753.35
857.5623	1074.6402	3662.3	2782.7
857.7073	1076.6117	3649	2766.6
857.8523	1078.5826	3607.5	2726.75
857.9973	1080.5527	3558.5	2676.2
858.1423	1082.5221	3519.15	2638.8
858.2873	1084.4908	3485.75	2608
858.4323	1086.4587	3465.2	2583.5
858.5773	1088.426	3475.8	2593.8
858.7223	1090.3925	3472.45	2589.1
858.8673	1092.3584	3473.35	2593
859.0123	1094.3235	3479.9	2600.9
859.1573	1096.2879	3511.25	2631.45
859.3022	1098.2515	3554.55	2675.6
859.4472	1100.2145	3617.9	2739.8
859.5922	1102.1767	3692.05	2809.6
859.7371	1104.1382	3754.15	2873.7
859.8821	1106.099	3833.7	2955.05
860.027	1108.0591	3897	3016.65
860.172	1110.0185	3978.35	3095.4
860.3169	1111.9771	4003.25	3123.55
860.4619	1113.9351	4053.8	3173.95
860.6068	1115.8923	4060.55	3180.75
860.7517	1117.8488	4054.05	3172.05
860.8967	1119.8045	3943.15	3065.25
861.0416	1121.7596	3861.35	2980.8
861.1865	1123.7139	3764.85	2885.45
861.3314	1125.6675	3738.9	2859.95
861.4763	1127.6204	3725.1	2844.9
861.6212	1129.5726	3719.05	2836.2
861.7661	1131.524	3705.05	2824
861.911	1133.4748	3645.3	2766.5
862.0559	1135.4248	3560	2680.85
862.2008	1137.3741	3485.55	2606.45
862.3457	1139.3226	3451.5	2569.05
862.4905	1141.2705	3440.05	2560.3
862.6354	1143.2176	3427.3	2540.75
862.7803	1145.164	3418.45	2538.3
862.9251	1147.1097	3372.7	2491.8
863.07	1149.0546	3343.55	2463.25
863.2148	1150.9989	3320.7	2441.4
863.3597	1152.9424	3287.25	2407.1
863.5045	1154.8852	3248.8	2369.95
863.6493	1156.8272	3253.05	2372.7
863.7942	1158.7686	3249.05	2363.15
863.939	1160.7092	3255.15	2373.4
864.0838	1162.6491	3257.4	2374.3
864.2286	1164.5883	3301.5	2422.55
864.3734	1166.5267	3329.4	2448.15
864.5182	1168.4644	3364.05	2484.2
864.663	1170.4014	3433.6	2548.85
864.8078	1172.3377	3505.85	2626.3
864.9526	1174.2732	3617.65	2737.8
865.0974	1176.2081	3789.65	2910
865.2421	1178.1421	3971.3	3086.8
865.3869	1180.0755	4156.05	3276.2
865.5317	1182.0082	4262.1	3381.75
865.6764	1183.9401	4266.75	3384.95
865.8212	1185.8713	4163.8	3283.1
865.9659	1187.8017	4023.75	3142.35
866.1106	1189.7315	3866.55	2987.15
866.2554	1191.6605	3741.35	2831.8
866.4001	1193.5888	3623.4	2743.95
866.5448	1195.5163	3563.6	2683.35
866.6895	1197.4432	3516.7	2633.6
866.8342	1199.3693	3505.05	2623.4
866.9789	1201.2947	3475.45	2587.35
867.1236	1203.2193	3478.2	2597.7
867.2683	1205.1432	3457.7	2578.85
867.413	1207.0664	3452.3	2570.65
867.5576	1208.9889	3452.2	2569.2
867.7023	1210.9106	3428.6	2550.5
867.847	1212.8316	3446.55	2568.05
867.9916	1214.7519	3458.75	2567.7
868.1363	1216.6715	3478.9	2598.5
868.2809	1218.5903	3513.3	2633
868.4255	1220.5084	3525.65	2643
868.5701	1222.4257	3564.75	2684.85
868.7148	1224.3424	3592.9	2714.55
868.8594	1226.2583	3645.7	2761.1
869.004	1228.1735	3705.6	2825.6
869.1486	1230.0879	3757.9	2873.85
869.2932	1232.0016	3833.25	2954.45
869.4377	1233.9146	3902.35	3018.8
869.5823	1235.8269	3928.9	3045.95
869.7269	1237.7384	3924.1	3042.45
869.8715	1239.6492	3903.6	3023.4
870.016	1241.5592	3923.05	3040.2
870.1606	1243.4686	3977	3096.2
