Software Version:	3.9.2.0
Unit SN:	10000200
Spectrometer SN:	6960
Date:	3/14/2024 2:20:23 PM
Data Line Index:	25
Spectral Points:	2048
Integration time (ms):	125
Averages:	20
Delay (ms):	30000
Sequence Number:	1
Processing:	dark subtract
Laser Power (mW):	300
Laser Current (mA):	825
Laser Diode Temp (C):	25
Laser Case Temp (C):	29.2
System Temp (C):	29.2
Spectrometer Temp (C):	27
CCD Temp (C):	0.007
Secondary Temp (C):	20.011
Heatsink Temp (C):	25.08
CCDPCB Temp (C):	38.452
SecondaryPCB Temp (C):	36.162

Wavelength	RamanShift	Raw Counts	Dark Subtracted
787.061	30.1047	454.2	43.4
787.2016	32.3739	457.75	48.6
787.3422	34.6426	459.5	50.2
787.4828	36.9109	463.7	51.45
787.6235	39.1787	473.9	58.95
787.7642	41.4461	484.1	63.5
787.9049	43.7131	493.4	69.8
788.0456	45.9796	504.7	77.15
788.1863	48.2456	513.6	82.35
788.3271	50.5112	519.95	84.3
788.4679	52.7764	526.45	89.4
788.6087	55.0411	537.4	96.45
788.7496	57.3054	548.25	102.25
788.8904	59.5692	560.4	112.65
789.0313	61.8326	573.7	122.35
789.1722	64.0955	586.75	130.25
789.3132	66.3579	600.15	137.45
789.4541	68.6199	618.65	153.35
789.5951	70.8815	651.75	182.3
789.7361	73.1426	721.85	249.25
789.8771	75.4032	904.6	428.65
790.0181	77.6634	1359.35	876.3
790.1592	79.9231	2427.05	1940.6
790.3003	82.1824	4787.4	4291.6
790.4414	84.4412	9130.9	8619.85
790.5825	86.6995	15251.7	14719.4
790.7237	88.9574	21464.5	20912.75
790.8648	91.2148	25931.95	25363.75
791.006	93.4717	28133.75	27557.3
791.1472	95.7282	28667.9	28087.35
791.2885	97.9842	28706.75	28124.3
791.4297	100.2398	28243.7	27656.15
791.571	102.4949	27677.05	27085.15
791.7123	104.7495	26952.9	26357.6
791.8536	107.0036	26152.55	25557.55
791.9949	109.2573	25335.65	24743.6
792.1363	111.5105	24526.4	23931.9
792.2777	113.7632	23723.45	23127.95
792.4191	116.0154	22997.4	22392.2
792.5605	118.2672	22452.3	21849.45
792.7019	120.5185	21920.8	21318.1
792.8434	122.7693	21483.9	20879.2
792.9849	125.0197	21140.05	20533.6
793.1264	127.2696	20828.65	20222.1
793.2679	129.519	20674.8	20064.7
793.4094	131.7679	20501.9	19887.3
793.551	134.0163	20383.7	19765.45
793.6926	136.2642	20200.5	19576.65
793.8342	138.5117	20084.05	19451.85
793.9758	140.7587	19876.95	19249.4
794.1175	143.0052	19700.8	19073.1
794.2591	145.2512	19523.45	18893.05
794.4008	147.4967	19289.25	18658.6
794.5425	149.7417	19141.55	18509.45
794.6842	151.9863	19033.85	18396.8
794.826	154.2304	18946.3	18306.25
794.9677	156.4739	18824.8	18178.45
795.1095	158.717	18708.8	18067.55
795.2513	160.9596	18581.7	17930.75
795.3931	163.2017	18330.95	17681.9
795.535	165.4433	18022.95	17370.55
795.6768	167.6844	17642.8	16989.65
795.8187	169.925	17337.65	16681.3
795.9606	172.1651	16941.45	16280.4
796.1025	174.4047	16584.75	15920.5
796.2445	176.6439	16316.3	15653.95
796.3864	178.8825	16046.4	15377.5
796.5284	181.1206	15836.25	15162.6
796.6704	183.3582	15661.3	14986.05
796.8124	185.5954	15521.35	14844.6
796.9544	187.832	15407.7	14726.35
797.0965	190.0681	15311.9	14628.2
797.2386	192.3037	15322.6	14635.45
797.3806	194.5388	15298.5	14611.6
797.5228	196.7734	15317.35	14627.1
797.6649	199.0075	15371.65	14678.6
797.807	201.2411	15509.65	14814
797.9492	203.4742	15553.8	14856.6
798.0914	205.7068	15653.9	14953.85
798.2336	207.9389	15769.3	15067.85
798.3758	210.1704	15868.8	15169.6
798.518	212.4015	16013.5	15308.65
798.6603	214.632	16196.25	15493.75
798.8025	216.862	16377.4	15683.4
798.9448	219.0915	16581.25	15891.85
799.0871	221.3205	16797.85	16111.45
799.2294	223.549	17117.25	16434.95
799.3718	225.777	17476.75	16792.75
799.5141	228.0044	17933.3	17247.75
799.6565	230.2314	18519.3	17837.7
799.7989	232.4578	19057.3	18371.1
799.9413	234.6837	19494.1	18803.95
800.0837	236.909	19748.65	19054.25
800.2262	239.1339	19667.25	18950.8
800.3687	241.3582	19375.9	18673.8
800.5111	243.582	18980.15	18252.4
800.6536	245.8053	18518.15	17800.45
800.7961	248.0281	18076.05	17358.9
800.9387	250.2503	17720.9	16999.9
801.0812	252.472	17446.5	16720.8
801.2238	254.6932	17302.9	16575.25
801.3664	256.9139	17155.65	16427.2
801.509	259.134	17070.8	16337.35
801.6516	261.3536	16942.8	16215.35
801.7942	263.5727	16903.4	16169.75
801.9369	265.7912	16730.9	16000.2
802.0795	268.0092	16650.1	15919.4
802.2222	270.2267	16515.35	15782.8
802.3649	272.4436	16455.15	15719.3
802.5076	274.6601	16417.15	15677.85
802.6504	276.8759	16299.65	15564.6
802.7931	279.0913	16312.3	15575.05
802.9359	281.3061	16320.65	15580
803.0787	283.5204	16434.35	15694.35
803.2215	285.7341	16609.25	15860.8
803.3643	287.9473	16795.45	16035.65
803.5071	290.16	17072.1	16318.85
803.6499	292.3721	17416.35	16669.3
803.7928	294.5837	17886.85	17139.7
803.9357	296.7947	18279.9	17531.9
804.0786	299.0052	18527.4	17775.15
804.2215	301.2152	18360.55	17607.35
804.3644	303.4246	17922.95	17172.6
804.5074	305.6334	17321.7	16571.8
804.6503	307.8418	16766.9	16015.4
804.7933	310.0495	16291.3	15539.95
804.9363	312.2568	15960.45	15208.6
805.0793	314.4635	15724.35	14972
805.2223	316.6696	15658.4	14903.25
805.3653	318.8752	15644.1	14880.65
805.5084	321.0802	15700.15	14943.6
805.6514	323.2847	15824.85	15067
805.7945	325.4887	15883.95	15126.3
805.9376	327.692	15829.5	15070.4
806.0807	329.8949	15677.85	14917.75
806.2238	332.0972	15383.8	14622.4
806.367	334.2989	15065.7	14299.05
806.5101	336.5001	14787.45	14023.9
806.6533	338.7007	14566.95	13801.05
806.7965	340.9008	14437.5	13670.2
806.9397	343.1003	14284.3	13513.85
807.0829	345.2992	14207.35	13437.85
807.2261	347.4976	14203.25	13432.6
807.3693	349.6955	14173.15	13400.2
807.5126	351.8927	14244.2	13470.65
807.6559	354.0895	14237.75	13452.7
807.7991	356.2856	14283.6	13506.05
807.9424	358.4812	14235.25	13459.95
808.0857	360.6763	14297.15	13517.35
808.2291	362.8707	14237.35	13458.85
808.3724	365.0646	14271.05	13489.55
808.5158	367.258	14226	13442.9
808.6591	369.4508	14228.95	13442.25
808.8025	371.643	14278.2	13495.7
808.9459	373.8346	14222.15	13435.5
809.0893	376.0257	14185.25	13394.8
809.2327	378.2162	14087.2	13296.7
809.3762	380.4062	13957.5	13162.65
809.5196	382.5956	13806.2	13009.15
809.6631	384.7844	13692.1	12895
809.8066	386.9726	13554.8	12757.6
809.9501	389.1603	13522.5	12727.2
810.0936	391.3474	13443.15	12604.75
810.2371	393.5339	13417.25	12620.8
810.3806	395.7199	13355.35	12566.85
810.5241	397.9052	13363.15	12578.35
810.6677	400.09	13325.5	12536.25
810.8113	402.2743	13384.95	12599.9
810.9548	404.4579	13437.3	12651.4
811.0984	406.641	13575.15	12788.3
811.2421	408.8235	13792.6	13003.8
811.3857	411.0054	14152.6	13364.15
811.5293	413.1868	14643.95	13850.95
811.673	415.3675	15059.2	14268.65
811.8166	417.5477	15291.65	14496.55
811.9603	419.7273	15362.25	14565.75
812.104	421.9064	15276.4	14471.4
812.2477	424.0848	15091.7	14291.25
812.3914	426.2627	14844.75	14043.8
812.5351	428.4399	14524.5	13721.7
812.6788	430.6166	14147.95	13340.95
812.8226	432.7928	13722.05	12913.75
812.9663	434.9683	13406.55	12597.9
813.1101	437.1432	13150.95	12340.1
813.2539	439.3176	12946.4	12138.25
813.3977	441.4914	12830.45	12022.1
813.5415	443.6645	12779.75	11968.55
813.6853	445.8371	12725.3	11911
813.8291	448.0091	12632.85	11823.75
813.973	450.1806	12579.95	11767.2
814.1168	452.3514	12527.55	11715.45
814.2607	454.5216	12493.65	11669.35
814.4046	456.6913	12403.8	11586.85
814.5485	458.8603	12417.75	11602.5
814.6924	461.0288	12464.05	11652.4
814.8363	463.1967	12529.25	11719
814.9802	465.3639	12663.85	11848.2
815.1241	467.5306	12777.7	11961.1
815.2681	469.6967	12942.85	12127.15
815.412	471.8622	13119.15	12300.2
815.556	474.0271	13294.5	12478.25
815.7	476.1914	13389.95	12571.1
815.844	478.3551	13361.5	12546.45
815.988	480.5182	13326.7	12505.6
816.132	482.6807	13235.7	12415.85
816.276	484.8426	13279.55	12460.5
816.4201	487.0039	13513.65	12695.75
816.5641	489.1647	13902.7	13079.85
816.7082	491.3248	14405.15	13584.95
816.8522	493.4843	14637.5	13817.05
816.9963	495.6432	14647.5	13826.55
817.1404	497.8015	14582.3	13756.95
817.2845	499.9592	14602.25	13780.4
817.4286	502.1163	14576.7	13754.9
817.5727	504.2728	14390.75	13567.9
817.7168	506.4287	14057.7	13234.55
817.861	508.5839	13586.05	12763.3
818.0051	510.7386	13196.35	12372.1
818.1493	512.8927	12915.65	12087.8
818.2935	515.0461	12739	11912.85
818.4377	517.199	12611.8	11784.7
818.5818	519.3512	12520.15	11695.7
818.726	521.5029	12521.2	11688.8
818.8703	523.6539	12468.5	11639.5
819.0145	525.8043	12492.15	11662.45
819.1587	527.9541	12539.35	11708.25
819.303	530.1033	12578.65	11749.75
819.4472	532.2519	12653.6	11823.75
819.5915	534.3999	12830.15	11998.35
819.7357	536.5472	13162.75	12329.85
819.88	538.694	13687.2	12854.2
820.0243	540.8401	14351.9	13520.85
820.1686	542.9856	14971.95	14136.55
820.3129	545.1305	15209.75	14376.4
820.4572	547.2748	15009.45	14175.3
820.6016	549.4185	14595.2	13759.45
820.7459	551.5615	14152.55	13318.45
820.8902	553.704	13913.55	13078.6
821.0346	555.8458	13818.45	12982.95
821.1789	557.987	13751	12917.2
821.3233	560.1276	13570.5	12735.55
821.4677	562.2675	13445.05	12615
821.6121	564.4069	13291.4	12455.05
821.7565	566.5456	13145.45	12310.55
821.9009	568.6837	12996.25	12161.15
822.0453	570.8212	12753.5	11920.9
822.1897	572.958	12492.65	11656.25
822.3342	575.0942	12322.8	11487.25
822.4786	577.2299	12220.65	11384.6
822.6231	579.3648	12248.5	11408.05
822.7675	581.4992	12351.8	11516.75
822.912	583.6329	12564.5	11727.9
823.0565	585.766	12787.65	11950.95
823.201	587.8985	12950.45	12116.05
823.3454	590.0304	12970.35	12123.4
823.4899	592.1616	12891.25	12052.4
823.6345	594.2922	12795.75	11957
823.779	596.4222	12663.45	11823.7
823.9235	598.5515	12450.85	11610.95
824.068	600.6802	12248.8	11409.15
824.2126	602.8083	12079.3	11238.45
824.3571	604.9358	11996.8	11154.4
824.5017	607.0626	11865.65	11022.9
824.6462	609.1888	11806.6	10963.95
824.7908	611.3144	11664.25	10822.85
824.9354	613.4393	11466.5	10623.95
825.08	615.5636	11288.15	10446.3
825.2246	617.6873	11149.1	10309
825.3692	619.8103	11082.2	10237.1
825.5138	621.9327	11057.75	10212.4
825.6584	624.0544	11005.25	10160.15
825.803	626.1756	11007.55	10164.9
825.9477	628.2961	11008.35	10163.9
826.0923	630.4159	10930.85	10086.4
826.237	632.5351	10881.05	10033.85
826.3816	634.6537	10787.35	9941
826.5263	636.7716	10752.75	9906.7
826.6709	638.8889	10726.1	9880.8
826.8156	641.0056	10743.85	9898.4
826.9603	643.1216	10741.8	9893.65
827.105	645.237	10787.75	9938.25
827.2497	647.3518	10743.05	9893.9
827.3944	649.4659	10784.95	9938
827.5391	651.5793	10773.35	9924.6
827.6838	653.6922	10758	9910.5
827.8285	655.8043	10711.5	9861.9
827.9733	657.9159	10690.05	9842.3
828.118	660.0268	10622.75	9770.75
828.2627	662.137	10521.15	9670.45
828.4075	664.2466	10481.35	9630.65
828.5522	666.3556	10442.3	9590.8
828.697	668.4639	10445.3	9590.1
828.8418	670.5716	10495.8	9645.6
828.9865	672.6786	10563.1	9710.35
829.1313	674.785	10645.8	9792.1
829.2761	676.8907	10721.4	9870.15
829.4209	678.9958	10817.45	9966.7
829.5657	681.1002	10785.45	9932.8
829.7105	683.204	10741.25	9886.9
829.8553	685.3072	10671.85	9817.75
830.0001	687.4097	10578.9	9725.95
830.1449	689.5115	10515.25	9658.95
830.2898	691.6127	10421.3	9567.95
830.4346	693.7132	10322.55	9466.6
830.5794	695.8131	10272.1	9400.1
830.7243	697.9123	10199.35	9344.45
830.8691	700.0109	10131.9	9276.75
831.014	702.1089	10095.65	9240.8
831.1588	704.2061	10097.25	9241
831.3037	706.3028	10115.9	9258.65
831.4486	708.3987	10159.55	9303.95
831.5935	710.4941	10261.45	9404.15
831.7383	712.5887	10462.55	9604
831.8832	714.6827	10786.6	9928.65
832.0281	716.7761	11187.5	10330.65
832.173	718.8688	11587	10730.15
832.3179	720.9608	11815.7	10956.2
832.4628	723.0522	11814.05	10950.35
832.6077	725.1429	11555.85	10698.9
832.7527	727.233	11155.7	10298.55
832.8976	729.3224	10815.15	9955.3
833.0425	731.4112	10422	9561.2
833.1874	733.4993	10191.75	9333.1
833.3324	735.5867	10040.4	9179.25
833.4773	737.6735	9946.1	9084.95
833.6222	739.7596	9888.05	9028
833.7672	741.845	9857.75	8997.8
833.9122	743.9298	9821.35	8962
834.0571	746.014	9832.3	8972.65
834.2021	748.0974	9839.1	8978.5
834.347	750.1802	9845.25	8984.7
834.492	752.2624	9814.55	8955.1
834.637	754.3439	9850.15	8988.95
834.782	756.4247	9898.55	9029.05
834.9269	758.5048	9964.1	9105.6
835.0719	760.5843	10114.4	9253.45
835.2169	762.6631	10375.15	9511.5
835.3619	764.7413	10824.65	9962.35
835.5069	766.8188	11370.65	10505.65
835.6519	768.8956	11843.2	10981.1
835.7969	770.9718	12195.15	11333
835.9419	773.0473	12084.65	11225.5
836.0869	775.1221	11761.1	10899.25
836.232	777.1962	11385.8	10524.85
836.377	779.2697	11176.45	10311.95
836.522	781.3426	11212	10332.15
836.667	783.4147	11501	10639.2
836.8121	785.4862	11846.45	10984.1
836.9571	787.557	11870.75	11008.95
837.1021	789.6271	11517.7	10654.8
837.2472	791.6966	10953.75	10090.75
837.3922	793.7654	10433.5	9567.9
837.5373	795.8335	10109.25	9246.15
837.6823	797.901	9869.1	9005.6
837.8274	799.9678	9826.7	8963.4
837.9724	802.0339	9822.6	8959.6
838.1175	804.0993	9894.45	9020.05
838.2626	806.1641	9852.35	8990.4
838.4076	808.2282	9813.15	8950.3
838.5527	810.2916	9690.35	8823.05
838.6978	812.3544	9600.15	8735.7
838.8428	814.4164	9485.55	8622.1
838.9879	816.4778	9443.05	8578
839.133	818.5385	9429.7	8566.8
839.2781	820.5986	9458.85	8595.6
839.4232	822.658	9499.65	8632.85
839.5682	824.7166	9525.6	8660.85
839.7133	826.7747	9636.3	8772.55
839.8584	828.832	9737	8870
840.0035	830.8886	9820.35	8954.15
840.1486	832.9446	9988.25	9121.3
840.2937	834.9999	10103.15	9239.8
840.4388	837.0545	10185.65	9317.1
840.5839	839.1085	10247.1	9380.65
840.729	841.1618	10288.35	9419.95
840.8741	843.2143	10273.15	9404.75
841.0192	845.2662	10214.7	9348.3
841.1643	847.3175	10129.05	9263.05
841.3095	849.368	10019.25	9152.7
841.4546	851.4179	9891.5	9025.05
841.5997	853.467	9717.5	8849.4
841.7448	855.5155	9618.85	8752
841.8899	857.5633	9483.65	8617.65
842.0351	859.6105	9354.7	8490.35
842.1802	861.6569	9293.9	8426.9
842.3253	863.7027	9224.45	8356.1
842.4704	865.7478	9176.4	8308.5
842.6156	867.7922	9181.7	8313.85
842.7607	869.8359	9234.75	8366.4
842.9058	871.8789	9344.4	8477.3
843.0509	873.9212	9550.7	8647.4
843.1961	875.9629	9705.25	8839.15
843.3412	878.0039	9904.25	9036.8
843.4863	880.0441	9994	9126.75
843.6315	882.0837	9993.45	9122.3
843.7766	884.1226	9853.4	8984.65
843.9218	886.1609	9705.05	8837.25
844.0669	888.1984	9529.8	8662.75
844.212	890.2352	9441.65	8573.95
844.3572	892.2714	9380.85	8509.3
844.5023	894.3069	9323.6	8454.75
844.6475	896.3416	9267.75	8399.25
844.7926	898.3757	9250.25	8382.2
844.9377	900.4091	9242.95	8370.1
845.0829	902.4418	9234.15	8360.3
845.228	904.4739	9242.95	8372.2
845.3732	906.5052	9227.35	8356.1
845.5183	908.5358	9092.6	8221.2
845.6635	910.5658	8959.5	8088.25
845.8086	912.595	8805.15	7933
845.9538	914.6236	8677.1	7806.4
846.0989	916.6515	8628.4	7756.45
846.2441	918.6786	8623.9	7748.65
846.3892	920.7051	8688.6	7817.8
846.5344	922.7309	8784.65	7911.45
846.6795	924.756	8858.75	7988.4
846.8246	926.7804	8944	8071.95
846.9698	928.8041	8909.45	8037.4
847.1149	930.8272	8935.3	8063.45
847.2601	932.8495	8878.45	8004.85
847.4052	934.8711	8801.6	7931.8
847.5504	936.892	8621.9	7749.55
847.6955	938.9123	8433.1	7559.65
847.8407	940.9318	8286.65	7415.05
847.9858	942.9506	8149.2	7275.1
848.131	944.9688	8051.45	7179.5
848.2761	946.9862	8006.8	7135.15
848.4213	949.003	7956.7	7083.2
848.5664	951.019	7962.15	7090.65
848.7115	953.0344	7990.95	7118.95
848.8567	955.0491	8027.7	7153.15
849.0018	957.063	8084.45	7211.3
849.147	959.0763	8200.85	7328.8
849.2921	961.0888	8243	7368.3
849.4373	963.1007	8336.35	7464.15
849.5824	965.1119	8356.55	7483.3
849.7275	967.1223	8403.65	7530.8
849.8727	969.1321	8414.65	7543.15
850.0178	971.1412	8460.8	7590.7
850.1629	973.1495	8487.2	7615.1
850.3081	975.1572	8547.35	7634.9
850.4532	977.1641	8548.15	7676.1
850.5983	979.1704	8541.8	7666.6
850.7435	981.1759	8522.5	7645.85
850.8886	983.1808	8572.25	7695.45
851.0337	985.1849	8709.7	7823.3
851.1788	987.1884	8877.75	8002.4
851.324	989.1911	9077.25	8199.05
851.4691	991.1932	9208.15	8332.75
851.6142	993.1945	9275.45	8401.9
851.7593	995.1951	9240.1	8363.1
851.9045	997.1951	9228.45	8346.6
852.0496	999.1943	9115.4	8242
852.1947	1001.1928	9074.9	8200
852.3398	1003.1906	9060	8187
852.4849	1005.1877	9086.3	8210.4
852.63	1007.1841	9028.75	8154.1
852.7751	1009.1798	8925	8048.6
852.9202	1011.1748	8733.2	7859.8
853.0653	1013.1691	8522.65	7647.1
853.2104	1015.1627	8308.65	7433.1
853.3555	1017.1556	8121.25	7247.85
853.5006	1019.1477	7998.2	7123.45
853.6457	1021.1392	7926.6	7054.2
853.7908	1023.1299	7930.75	7057.5
853.9359	1025.12	7981.95	7105.15
854.081	1027.1093	8007.35	7135.2
854.2261	1029.0979	8088	7212.65
854.3712	1031.0859	8143.3	7267.15
854.5163	1033.0731	8141.1	7263.6
854.6613	1035.0596	8059.5	7185.4
854.8064	1037.0454	7929.35	7053.7
854.9515	1039.0304	7826.75	6949.2
855.0965	1041.0148	7688	6810.75
855.2416	1042.9985	7609.5	6733.25
855.3867	1044.9814	7554.75	6681.7
855.5317	1046.9636	7500.75	6624.4
855.6768	1048.9452	7480.6	6606.15
855.8219	1050.926	7486.5	6611.9
855.9669	1052.9061	7454.05	6579.75
856.112	1054.8855	7446.35	6572.65
856.257	1056.8642	7465.9	6590.95
856.4021	1058.8421	7546.05	6665.7
856.5471	1060.8194	7559.1	6682.45
856.6921	1062.7959	7579.25	6702.8
856.8372	1064.7717	7588.6	6712.1
856.9822	1066.7469	7577.85	6701
857.1272	1068.7213	7547.65	6666.8
857.2723	1070.695	7504.35	6628.7
857.4173	1072.6679	7433.6	6556.25
857.5623	1074.6402	7398.45	6522.5
857.7073	1076.6117	7376.3	6495.3
857.8523	1078.5826	7377.1	6503
857.9973	1080.5527	7450.55	6571
858.1423	1082.5221	7604.7	6727.15
858.2873	1084.4908	7827.9	6950.2
858.4323	1086.4587	8052.05	7173.05
858.5773	1088.426	8228.45	7352.85
858.7223	1090.3925	8253.1	7370.8
858.8673	1092.3584	8170.35	7294.25
859.0123	1094.3235	7995.65	7118.65
859.1573	1096.2879	7863.85	6985.55
859.3022	1098.2515	7815.5	6938.95
859.4472	1100.2145	7837.25	6960.75
859.5922	1102.1767	7903.85	7026.5
859.7371	1104.1382	8013.15	7136.05
859.8821	1106.099	8240.8	7361.45
860.027	1108.0591	8448.1	7573.35
860.172	1110.0185	8585.05	7703.55
860.3169	1111.9771	8579.55	7704.65
860.4619	1113.9351	8364.6	7487.2
860.6068	1115.8923	8050.45	7171.55
860.7517	1117.8488	7700.25	6820.35
860.8967	1119.8045	7405.55	6529.2
861.0416	1121.7596	7268.8	6389.3
861.1865	1123.7139	7184.3	6308.75
861.3314	1125.6675	7172	6291.75
861.4763	1127.6204	7249.2	6374.7
861.6212	1129.5726	7256.3	6377.55
861.7661	1131.524	7284.45	6406.6
861.911	1133.4748	7327.6	6449.3
862.0559	1135.4248	7382.05	6503.5
862.2008	1137.3741	7402.9	6526.55
862.3457	1139.3226	7371.45	6493.15
862.4905	1141.2705	7345.45	6467.15
862.6354	1143.2176	7278.45	6393.75
862.7803	1145.164	7306.05	6427.1
862.9251	1147.1097	7348.05	6469.8
863.07	1149.0546	7315.7	6435.8
863.2148	1150.9989	7208.9	6330.9
863.3597	1152.9424	7026.1	6148.4
863.5045	1154.8852	6833.15	5955.6
863.6493	1156.8272	6692	5815
863.7942	1158.7686	6611.45	5727.25
863.939	1160.7092	6570.5	5691.65
864.0838	1162.6491	6571.1	5690.2
864.2286	1164.5883	6622.85	5744.4
864.3734	1166.5267	6675.8	5798.25
864.5182	1168.4644	6826.7	5947.5
864.663	1170.4014	6992.75	6112
864.8078	1172.3377	7221.3	6343.8
864.9526	1174.2732	7433.9	6555
865.0974	1176.2081	7638.7	6760.95
865.2421	1178.1421	7796.35	6916.3
865.3869	1180.0755	7934.55	7056.95
865.5317	1182.0082	7933.7	7056.35
865.6764	1183.9401	7884.9	7005.25
865.8212	1185.8713	7676.7	6798.85
865.9659	1187.8017	7425.2	6548.1
866.1106	1189.7315	7169.75	6292.15
866.2554	1191.6605	6938.6	6033.9
866.4001	1193.5888	6733.4	5855.05
866.5448	1195.5163	6613.85	5737.15
866.6895	1197.4432	6515.8	5637.5
866.8342	1199.3693	6431.35	5553.85
866.9789	1201.2947	6376	5495
867.1236	1203.2193	6368.95	5488.85
867.2683	1205.1432	6366.95	5486.05
867.413	1207.0664	6423.9	5544.9
