Software Version:	3.9.2.0
Unit SN:	10000200
Spectrometer SN:	6960
Date:	3/14/2024 1:26:02 PM
Data Line Index:	25
Spectral Points:	2048
Integration time (ms):	125
Averages:	20
Delay (ms):	30000
Sequence Number:	1
Processing:	dark subtract
Laser Power (mW):	305
Laser Current (mA):	825
Laser Diode Temp (C):	25
Laser Case Temp (C):	28.5
System Temp (C):	28.5
Spectrometer Temp (C):	26.2
CCD Temp (C):	0.013
Secondary Temp (C):	20.007
Heatsink Temp (C):	24.274
CCDPCB Temp (C):	37.752
SecondaryPCB Temp (C):	35.373

Wavelength	RamanShift	Raw Counts	Dark Subtracted
787.061	30.1047	465.2	53.9
787.2016	32.3739	467.55	58.4
787.3422	34.6426	473.9	62.85
787.4828	36.9109	484.5	72
787.6235	39.1787	490.9	75.85
787.7642	41.4461	501.5	79.95
787.9049	43.7131	509.1	84.5
788.0456	45.9796	517.55	90.2
788.1863	48.2456	529.45	97.3
788.3271	50.5112	540.45	102.1
788.4679	52.7764	548.45	109.05
788.6087	55.0411	559	116.25
788.7496	57.3054	568.6	121.55
788.8904	59.5692	584.35	134.1
789.0313	61.8326	593.4	138.65
789.1722	64.0955	609.55	152.95
789.3132	66.3579	632.3	169.3
789.4541	68.6199	649.45	185.2
789.5951	70.8815	685.65	218.7
789.7361	73.1426	775.9	304.15
789.8771	75.4032	998.2	521.3
790.0181	77.6634	1541.7	1057.95
790.1592	79.9231	2840.8	2352.05
790.3003	82.1824	5700.55	5201.6
790.4414	84.4412	10895.25	10378.85
790.5825	86.6995	18144	17602.6
790.7237	88.9574	25321.15	24755.05
790.8648	91.2148	30289.2	29707.6
791.006	93.4717	32603.65	32013.55
791.1472	95.7282	33052.35	32460.35
791.2885	97.9842	32870.65	32271.7
791.4297	100.2398	32186.75	31583.35
791.571	102.4949	31418.6	30809.95
791.7123	104.7495	30498.8	29889.15
791.8536	107.0036	29631	29016.4
791.9949	109.2573	28817.95	28211.95
792.1363	111.5105	28067.75	27455.95
792.2777	113.7632	27436.15	26825.55
792.4191	116.0154	26880.25	26258.15
792.5605	118.2672	26563.9	25950.8
792.7019	120.5185	26132.6	25513.25
792.8434	122.7693	25894.2	25273.85
792.9849	125.0197	25680	25055.2
793.1264	127.2696	25414.4	24789.05
793.2679	129.519	25263.3	24634.1
793.4094	131.7679	24986.5	24356.85
793.551	134.0163	24749.45	24117.75
793.6926	136.2642	24422	23781.15
793.8342	138.5117	24061.6	23415.3
793.9758	140.7587	23674.2	23035.75
794.1175	143.0052	23359.25	22715.45
794.2591	145.2512	22986.6	22341.05
794.4008	147.4967	22690.65	22045.75
794.5425	149.7417	22468.75	21820.9
794.6842	151.9863	22281.35	21631.75
794.826	154.2304	22173.5	21519.2
794.9677	156.4739	21964.25	21304.1
795.1095	158.717	21906.8	21250.75
795.2513	160.9596	21725.85	21059.15
795.3931	163.2017	21452	20788.9
795.535	165.4433	21173.4	20505.8
795.6768	167.6844	20881.3	20213.6
795.8187	169.925	20538.25	19867.75
795.9606	172.1651	20183.05	19509.9
796.1025	174.4047	19966.2	19284.5
796.2445	176.6439	19664.75	18983.6
796.3864	178.8825	19479	18791.25
796.5284	181.1206	19335.45	18647.65
796.6704	183.3582	19161.9	18474.9
796.8124	185.5954	19086.9	18399.05
796.9544	187.832	19025.15	18331.4
797.0965	190.0681	19000.3	18306.2
797.2386	192.3037	18961.5	18261.25
797.3806	194.5388	18952.65	18250.05
797.5228	196.7734	18988.1	18284.1
797.6649	199.0075	19056.2	18348.75
797.807	201.2411	19209.5	18496.15
797.9492	203.4742	19258.75	18551.1
798.0914	205.7068	19423.4	18708.55
798.2336	207.9389	19518.9	18805.2
798.3758	210.1704	19674.1	18955.15
798.518	212.4015	19796.75	19078.4
798.6603	214.632	19937.3	19216.9
798.8025	216.862	20066.85	19352.55
798.9448	219.0915	20136.35	19428.95
799.0871	221.3205	20208.75	19504.9
799.2294	223.549	20296.8	19598.9
799.3718	225.777	20412.7	19717.3
799.5141	228.0044	20473.55	19773.65
799.6565	230.2314	20605.65	19906.3
799.7989	232.4578	20700.9	20000.8
799.9413	234.6837	20819.15	20112.9
800.0837	236.909	20879.85	20174.4
800.2262	239.1339	20863.65	20130.55
800.3687	241.3582	20802.5	20088.75
800.5111	243.582	20687.55	19944.45
800.6536	245.8053	20648.75	19912.95
800.7961	248.0281	20549.1	19822.9
800.9387	250.2503	20545.25	19805.7
801.0812	252.472	20593.95	19855.85
801.2238	254.6932	20738.75	19993.9
801.3664	256.9139	20791.4	20046.55
801.509	259.134	21021.8	20274.9
801.6516	261.3536	21225.85	20477.5
801.7942	263.5727	21540.7	20791.75
801.9369	265.7912	21795.55	21051.1
802.0795	268.0092	22080.3	21334.1
802.2222	270.2267	22256.35	21506.5
802.3649	272.4436	22384.4	21633.55
802.5076	274.6601	22401.8	21642.55
802.6504	276.8759	22277.7	21523.65
802.7931	279.0913	22198.35	21446.95
802.9359	281.3061	22070.55	21317.7
803.0787	283.5204	22026.2	21269.85
803.2215	285.7341	22005.8	21245.25
803.3643	287.9473	21993	21221.7
803.5071	290.16	22040.05	21273.45
803.6499	292.3721	22133.1	21374.4
803.7928	294.5837	22320.9	21558.9
803.9357	296.7947	22525.4	21764.3
804.0786	299.0052	22683.9	21924.8
804.2215	301.2152	22645.65	21882
804.3644	303.4246	22496.7	21733
804.5074	305.6334	22128.3	21371.15
804.6503	307.8418	21726.95	20960.7
804.7933	310.0495	21317.05	20551.35
804.9363	312.2568	20852.35	20085.65
805.0793	314.4635	20444.1	19676.35
805.2223	316.6696	20147.65	19378.3
805.3653	318.8752	19853	19076.15
805.5084	321.0802	19726.5	18957.45
805.6514	323.2847	19751.75	18980.25
805.7945	325.4887	19793.7	19024.25
805.9376	327.692	19733	18962.35
806.0807	329.8949	19748.65	18974.75
806.2238	332.0972	19554.8	18783
806.367	334.2989	19346.3	18567.9
806.5101	336.5001	19075	18298.75
806.6533	338.7007	18873.4	18094.65
806.7965	340.9008	18719.45	17938.7
806.9397	343.1003	18539.6	17759.75
807.0829	345.2992	18409.65	17627.85
807.2261	347.4976	18298.5	17513.9
807.3693	349.6955	18207.4	17418.3
807.5126	351.8927	18183.35	17396.35
807.6559	354.0895	18097.35	17301.4
807.7991	356.2856	18029.7	17239.6
807.9424	358.4812	17997	17208.1
808.0857	360.6763	18014.65	17220.2
808.2291	362.8707	17939.55	17148.45
808.3724	365.0646	17986.65	17196.1
808.5158	367.258	17985.75	17188.7
808.6591	369.4508	18025.2	17227.8
808.8025	371.643	18177.2	17378
808.9459	373.8346	18227.65	17427.65
809.0893	376.0257	18292.35	17488.6
809.2327	378.2162	18324.85	17522.35
809.3762	380.4062	18284.2	17477.85
809.5196	382.5956	18142.45	17333.25
809.6631	384.7844	18063.9	17259.25
809.8066	386.9726	17880.1	17072.5
809.9501	389.1603	17769.3	16961.55
810.0936	391.3474	17727.8	16883.05
810.2371	393.5339	17677.3	16869.15
810.3806	395.7199	17620.2	16814.6
810.5241	397.9052	17625.5	16825.45
810.6677	400.09	17711.4	16912.25
810.8113	402.2743	17840.1	17041.95
810.9548	404.4579	17947.3	17148.7
811.0984	406.641	18139.05	17334.9
811.2421	408.8235	18342.35	17542.25
811.3857	411.0054	18470.1	17668.05
811.5293	413.1868	18630.35	17828.1
811.673	415.3675	18675.15	17872.55
811.8166	417.5477	18660.9	17854.2
811.9603	419.7273	18599.7	17791.95
812.104	421.9064	18493.95	17680.15
812.2477	424.0848	18390.8	17582.2
812.3914	426.2627	18257.25	17445.1
812.5351	428.4399	17995.85	17180.15
812.6788	430.6166	17657.75	16839
812.8226	432.7928	17308.35	16489
812.9663	434.9683	16972.85	16154.85
813.1101	437.1432	16768.4	15948.05
813.2539	439.3176	16586.5	15764.65
813.3977	441.4914	16478	15654.1
813.5415	443.6645	16410.5	15589.9
813.6853	445.8371	16278.85	15454.5
813.8291	448.0091	16232.9	15414.35
813.973	450.1806	16194.9	15370.95
814.1168	452.3514	16155.4	15330.35
814.2607	454.5216	16212.3	15378.7
814.4046	456.6913	16157.7	15328.7
814.5485	458.8603	16171.35	15349.45
814.6924	461.0288	16230.2	15403.45
814.8363	463.1967	16241.9	15416.45
814.9802	465.3639	16236.6	15410.85
815.1241	467.5306	16195.65	15366.35
815.2681	469.6967	16172.85	15346.9
815.412	471.8622	16183.6	15355.25
815.556	474.0271	16205.35	15376.55
815.7	476.1914	16221.05	15391
815.844	478.3551	16226.95	15394.9
815.988	480.5182	16279.6	15449.35
816.132	482.6807	16337	15504
816.276	484.8426	16514.65	15682.75
816.4201	487.0039	16837.95	16007.2
816.5641	489.1647	17209.95	16376.75
816.7082	491.3248	17523.05	16690.4
816.8522	493.4843	17598.45	16768.6
816.9963	495.6432	17553.25	16719.2
817.1404	497.8015	17380.85	16545.9
817.2845	499.9592	17243.7	16409.2
817.4286	502.1163	17077.45	16244.4
817.5727	504.2728	16724.25	15886.9
817.7168	506.4287	16451.3	15615.75
817.861	508.5839	16113.85	15279.25
818.0051	510.7386	15891.7	15058
818.1493	512.8927	15811.95	14970
818.2935	515.0461	15779.45	14943.6
818.4377	517.199	15842.9	15009.25
818.5818	519.3512	16005.95	15168.4
818.726	521.5029	16276.45	15433.5
818.8703	523.6539	16528.15	15688.9
819.0145	525.8043	16619.75	15781.35
819.1587	527.9541	16564.45	15723.35
819.303	530.1033	16367.7	15529.7
819.4472	532.2519	16145.7	15305.25
819.5915	534.3999	16093.05	15250.85
819.7357	536.5472	16116.4	15274.7
819.88	538.694	16287.3	15446.9
820.0243	540.8401	16527.85	15686.4
820.1686	542.9856	16745.7	15899.35
820.3129	545.1305	16771.25	15926.65
820.4572	547.2748	16671.9	15829.05
820.6016	549.4185	16495.95	15650.15
820.7459	551.5615	16342.45	15500.2
820.8902	553.704	16312.7	15467.5
821.0346	555.8458	16364.05	15519.5
821.1789	557.987	16560.75	15713
821.3233	560.1276	16780.8	15933.7
821.4677	562.2675	17147.3	16302.5
821.6121	564.4069	17654.7	16811.5
821.7565	566.5456	18097.1	17251.3
821.9009	568.6837	18249.1	17405.55
822.0453	570.8212	17834	16990.45
822.1897	572.958	17147.4	16300.1
822.3342	575.0942	16494.9	15649.15
822.4786	577.2299	15984.3	15138.35
822.6231	579.3648	15759.75	14911.2
822.7675	581.4992	15710.65	14861.55
822.912	583.6329	15746.2	14899.45
823.0565	585.766	15933.2	15085
823.201	587.8985	16050.4	15203.35
823.3454	590.0304	16098.05	15225.45
823.4899	592.1616	16019.3	15168.6
823.6345	594.2922	15899.85	15051
823.779	596.4222	15699.9	14851.05
823.9235	598.5515	15479.15	14627.7
824.068	600.6802	15290.15	14438.8
824.2126	602.8083	15136.2	14286.35
824.3571	604.9358	15086.7	14234.1
824.5017	607.0626	15061.65	14210.5
824.6462	609.1888	15180.3	14327.35
824.7908	611.3144	15329.9	14478.05
824.9354	613.4393	15451.7	14599.95
825.08	615.5636	15570.85	14715.4
825.2246	617.6873	15568.5	14715.2
825.3692	619.8103	15528.65	14676.9
825.5138	621.9327	15318.25	14463.4
825.6584	624.0544	15069.45	14215.95
825.803	626.1756	14844.45	13994.45
825.9477	628.2961	14710.8	13856.15
826.0923	630.4159	14622.75	13769.55
826.237	632.5351	14585.9	13732.65
826.3816	634.6537	14542.7	13689.75
826.5263	636.7716	14541.35	13686.65
826.6709	638.8889	14559.65	13703.75
826.8156	641.0056	14563.2	13706.65
826.9603	643.1216	14542.55	13687.7
827.105	645.237	14508.5	13648.55
827.2497	647.3518	14401.4	13543.55
827.3944	649.4659	14327.4	13470.65
827.5391	651.5793	14245.3	13387.8
827.6838	653.6922	14185.8	13330.35
827.8285	655.8043	14170.05	13313.1
827.9733	657.9159	14159.85	13300.7
828.118	660.0268	14125.45	13265.3
828.2627	662.137	14116.75	13257.05
828.4075	664.2466	14144.75	13282.65
828.5522	666.3556	14091.3	13235
828.697	668.4639	14036.8	13174.55
828.8418	670.5716	13977.4	13118.55
828.9865	672.6786	13947.9	13086.6
829.1313	674.785	13881.75	13020.05
829.2761	676.8907	13815.55	12956.85
829.4209	678.9958	13824.45	12963.75
829.5657	681.1002	13754.9	12893.05
829.7105	683.204	13750.25	12884.65
829.8553	685.3072	13740.55	12876.55
830.0001	687.4097	13693.75	12831.25
830.1449	689.5115	13664.4	12800.3
830.2898	691.6127	13671.3	12811.25
830.4346	693.7132	13638.85	12774.8
830.5794	695.8131	13639.75	12762.7
830.7243	697.9123	13633.95	12771.4
830.8691	700.0109	13670.65	12805.75
831.014	702.1089	13680.35	12817.95
831.1588	704.2061	13705.75	12839.65
831.3037	706.3028	13765.4	12901.6
831.4486	708.3987	13826.6	12963.55
831.5935	710.4941	13823	12959.75
831.7383	712.5887	13861.25	12993.6
831.8832	714.6827	13930.35	13060.35
832.0281	716.7761	14022.2	13157.85
832.173	718.8688	14198.1	13330.05
832.3179	720.9608	14323.6	13456.1
832.4628	723.0522	14459.85	13589.9
832.6077	725.1429	14505.6	13641.85
832.7527	727.233	14593.75	13726.3
832.8976	729.3224	14644.9	13777.4
833.0425	731.4112	14572.2	13706.9
833.1874	733.4993	14417.4	13547.2
833.3324	735.5867	14136.75	13269.05
833.4773	737.6735	13915.35	13042.7
833.6222	739.7596	13697	12828.85
833.7672	741.845	13531.55	12665.9
833.9122	743.9298	13445.8	12576.4
834.0571	746.014	13381.55	12513.6
834.2021	748.0974	13370.95	12500.45
834.347	750.1802	13361.85	12491.55
834.492	752.2624	13365.75	12499.3
834.637	754.3439	13385.7	12516.8
834.782	756.4247	13472.2	12592.6
834.9269	758.5048	13618.35	12751.15
835.0719	760.5843	13905.75	13034.3
835.2169	762.6631	14287.25	13414.4
835.3619	764.7413	14869.2	14001.85
835.5069	766.8188	15537.25	14668.15
835.6519	768.8956	16103.2	15230.35
835.7969	770.9718	16524.8	15656.65
835.9419	773.0473	16480.4	15613.15
836.0869	775.1221	16212.3	15342.5
836.232	777.1962	15933.9	15066
836.377	779.2697	15843.7	14971.4
836.522	781.3426	15920.9	15038.1
836.667	783.4147	16043.1	15172.3
836.8121	785.4862	16086.7	15219.05
836.9571	787.557	15893.65	15022.35
837.1021	789.6271	15380.75	14509.65
837.2472	791.6966	14718.6	13848.9
837.3922	793.7654	14078.55	13204.65
837.5373	795.8335	13633.05	12760.55
837.6823	797.901	13327.35	12456.95
837.8274	799.9678	13130	12257.3
837.9724	802.0339	13043.65	12173.85
838.1175	804.0993	12997.4	12114.65
838.2626	806.1641	12912.9	12039.45
838.4076	808.2282	12794.75	11921.6
838.5527	810.2916	12726.25	11852.65
838.6978	812.3544	12660.15	11790.55
838.8428	814.4164	12558.4	11687.75
838.9879	816.4778	12589.7	11715.35
839.133	818.5385	12616.45	11741.95
839.2781	820.5986	12777.35	11906.55
839.4232	822.658	13017.4	12145.7
839.5682	824.7166	13324.4	12455.15
839.7133	826.7747	13857.35	12986.9
839.8584	828.832	14420.5	13548.45
840.0035	830.8886	14780.2	13904.35
840.1486	832.9446	15005.4	14129.3
840.2937	834.9999	14837.6	13965.75
840.4388	837.0545	14534.6	13659.8
840.5839	839.1085	14147.85	13274.15
840.729	841.1618	13782.3	12906.2
840.8741	843.2143	13497.65	12625.35
841.0192	845.2662	13277.4	12404.35
841.1643	847.3175	13130.9	12259.65
841.3095	849.368	13010.3	12140.1
841.4546	851.4179	12890.55	12017.3
841.5997	853.467	12798.6	11927.5
841.7448	855.5155	12760.85	11885.8
841.8899	857.5633	12623.5	11749.9
842.0351	859.6105	12532.4	11658.9
842.1802	861.6569	12456.55	11582.8
842.3253	863.7027	12340.05	11463.7
842.4704	865.7478	12311.95	11437
842.6156	867.7922	12230.4	11354.9
842.7607	869.8359	12188.1	11313.05
842.9058	871.8789	12207.15	11328.45
843.0509	873.9212	12286.2	11377.2
843.1961	875.9629	12338.55	11461.9
843.3412	878.0039	12436.2	11559.15
843.4863	880.0441	12514.9	11638.85
843.6315	882.0837	12605.65	11729.8
843.7766	884.1226	12630.3	11751.1
843.9218	886.1609	12648.95	11773.1
844.0669	888.1984	12764.8	11889.65
844.212	890.2352	12929.15	12053.5
844.3572	892.2714	12934.2	12054.3
844.5023	894.3069	12854.5	11977.2
844.6475	896.3416	12683.6	11806.7
844.7926	898.3757	12532.45	11655.6
844.9377	900.4091	12417.9	11542.55
845.0829	902.4418	12374.15	11492.2
845.228	904.4739	12376.95	11498.1
845.3732	906.5052	12432.65	11556.5
845.5183	908.5358	12391.8	11516.15
845.6635	910.5658	12288.75	11409.3
845.8086	912.595	12038.25	11162.4
845.9538	914.6236	11837.75	10960.95
846.0989	916.6515	11683.5	10807.8
846.2441	918.6786	11603.9	10726
846.3892	920.7051	11582.25	10701.25
846.5344	922.7309	11605.6	10725.85
846.6795	924.756	11575.65	10698.7
846.8246	926.7804	11645.25	10766.95
846.9698	928.8041	11628.25	10749.15
847.1149	930.8272	11700.7	10821.35
847.2601	932.8495	11665.45	10786.6
847.4052	934.8711	11664.15	10785.95
847.5504	936.892	11595.25	10717.7
847.6955	938.9123	11580.65	10699.7
847.8407	940.9318	11588.5	10709.95
847.9858	942.9506	11583.35	10702.95
848.131	944.9688	11506.65	10627.3
848.2761	946.9862	11412.35	10531
848.4213	949.003	11239.25	10362.95
848.5664	951.019	11129.6	10249.5
848.7115	953.0344	11087.85	10209.3
848.8567	955.0491	11034.55	10153.95
849.0018	957.063	11071.65	10190.75
849.147	959.0763	11124.3	10246.55
849.2921	961.0888	11118.7	10236.3
849.4373	963.1007	11201.45	10321.85
849.5824	965.1119	11224.95	10346.05
849.7275	967.1223	11195.55	10314.85
849.8727	969.1321	11153	10274.75
850.0178	971.1412	11159.65	10278.95
850.1629	973.1495	11100.9	10222.6
850.3081	975.1572	11139.75	10226.1
850.4532	977.1641	11122.3	10243
850.5983	979.1704	11086.25	10207.55
850.7435	981.1759	11056.2	10174.05
850.8886	983.1808	11046.3	10165.65
851.0337	985.1849	11049.95	10158.65
851.1788	987.1884	11100.7	10219.55
851.324	989.1911	11173.55	10288.95
851.4691	991.1932	11233.45	10350
851.6142	993.1945	11267.5	10389.2
851.7593	995.1951	11200.95	10321.3
851.9045	997.1951	11168	10284
852.0496	999.1943	11130.9	10251.1
852.1947	1001.1928	11133.7	10252.65
852.3398	1003.1906	11150.8	10272.5
852.4849	1005.1877	11278.05	10395.95
852.63	1007.1841	11371.4	10491.6
852.7751	1009.1798	11380.85	10501.55
852.9202	1011.1748	11285.85	10405.7
853.0653	1013.1691	11135.3	10256.05
853.2104	1015.1627	10916.1	10032.75
853.3555	1017.1556	10691.45	9810.75
853.5006	1019.1477	10549.3	9666.7
853.6457	1021.1392	10431.65	9552.8
853.7908	1023.1299	10408.25	9528.85
853.9359	1025.12	10418.5	9536.75
854.081	1027.1093	10442.85	9560.05
854.2261	1029.0979	10589.55	9709.6
854.3712	1031.0859	10620.3	9740.05
854.5163	1033.0731	10660.05	9778
854.6613	1035.0596	10600.95	9722.45
854.8064	1037.0454	10470	9588.35
854.9515	1039.0304	10386.8	9506.4
855.0965	1041.0148	10270.6	9390.95
855.2416	1042.9985	10148.7	9268.35
855.3867	1044.9814	10078.2	9198.8
855.5317	1046.9636	10008.05	9124.3
855.6768	1048.9452	10019.7	9138.7
855.8219	1050.926	10052.95	9173.65
855.9669	1052.9061	10053.7	9173.7
856.112	1054.8855	10046.35	9164.8
856.257	1056.8642	10099.3	9219.35
856.4021	1058.8421	10164	9281
856.5471	1060.8194	10186.8	9305.15
856.6921	1062.7959	10219.9	9340
856.8372	1064.7717	10252.1	9368.7
856.9822	1066.7469	10315.8	9435
857.1272	1068.7213	10404.35	9519.6
857.2723	1070.695	10484.35	9604
857.4173	1072.6679	10527.6	9643.9
857.5623	1074.6402	10562.1	9680.95
857.7073	1076.6117	10506.55	9621
857.8523	1078.5826	10381.55	9499.7
857.9973	1080.5527	10227.85	9343.1
858.1423	1082.5221	10119.2	9237.25
858.2873	1084.4908	10065.15	9182.85
858.4323	1086.4587	10069.1	9185.5
858.5773	1088.426	10071.15	9188.85
858.7223	1090.3925	10102.7	9216.4
858.8673	1092.3584	10144.9	9265.2
859.0123	1094.3235	10154	9271.35
859.1573	1096.2879	10178	9293.65
859.3022	1098.2515	10325.25	9444.45
859.4472	1100.2145	10514.4	9633.2
859.5922	1102.1767	10689.2	9806.55
859.7371	1104.1382	10921.75	10038.3
859.8821	1106.099	11166.5	10283.6
860.027	1108.0591	11394.45	10511.35
860.172	1110.0185	11553.6	10671.45
860.3169	1111.9771	11624.9	10743.65
860.4619	1113.9351	11518.95	10636.6
860.6068	1115.8923	11429.05	10545
860.7517	1117.8488	11293.4	10410.8
860.8967	1119.8045	11087.55	10203.5
861.0416	1121.7596	10938.6	10057.05
861.1865	1123.7139	10779.35	9896.25
861.3314	1125.6675	10701.2	9817.1
861.4763	1127.6204	10714.4	9831.2
861.6212	1129.5726	10670.25	9785.9
861.7661	1131.524	10584.75	9701.6
861.911	1133.4748	10441.15	9558.8
862.0559	1135.4248	10240.6	9355.75
862.2008	1137.3741	10107.6	9225.7
862.3457	1139.3226	9959.45	9075.55
862.4905	1141.2705	9903.45	9022.2
862.6354	1143.2176	9788.75	8900.8
862.7803	1145.164	9753.45	8870.65
862.9251	1147.1097	9678.55	8795.6
863.07	1149.0546	9555.45	8671.15
863.2148	1150.9989	9444.2	8560.9
863.3597	1152.9424	9334.25	8453.15
863.5045	1154.8852	9257.15	8372.45
863.6493	1156.8272	9221.15	8340.25
863.7942	1158.7686	9224.25	8334
863.939	1160.7092	9227.95	8344.2
864.0838	1162.6491	9263.65	8380.35
864.2286	1164.5883	9371.25	8490.15
864.3734	1166.5267	9494.05	8609.4
864.5182	1168.4644	9670.1	8788.35
864.663	1170.4014	9838.5	8952.45
864.8078	1172.3377	10093.9	9213
864.9526	1174.2732	10382.3	9500.65
865.0974	1176.2081	10804.5	9923
865.2421	1178.1421	11330.35	10443.6
865.3869	1180.0755	11878.65	10997.85
865.5317	1182.0082	12256.9	11371.85
865.6764	1183.9401	12463.35	11578.5
865.8212	1185.8713	12309.45	11425.75
865.9659	1187.8017	11957.45	11075.5
