Software Version:	3.9.2.0
Unit SN:	10000200
Spectrometer SN:	6960
Date:	3/14/2024 1:19:39 PM
Data Line Index:	25
Spectral Points:	2048
Integration time (ms):	125
Averages:	20
Delay (ms):	30000
Sequence Number:	1
Processing:	dark subtract
Laser Power (mW):	300
Laser Current (mA):	824
Laser Diode Temp (C):	25
Laser Case Temp (C):	28.3
System Temp (C):	28.3
Spectrometer Temp (C):	26.2
CCD Temp (C):	0.004
Secondary Temp (C):	20.011
Heatsink Temp (C):	24.153
CCDPCB Temp (C):	37.652
SecondaryPCB Temp (C):	35.484

Wavelength	RamanShift	Raw Counts	Dark Subtracted
787.061	30.1047	455.95	45.1
787.2016	32.3739	452	44.75
787.3422	34.6426	460.2	50.45
787.4828	36.9109	462.65	50.45
787.6235	39.1787	471.15	55.95
787.7642	41.4461	484.1	63.35
787.9049	43.7131	491.4	66.4
788.0456	45.9796	498.15	70.5
788.1863	48.2456	509.8	78.35
788.3271	50.5112	517.6	82.25
788.4679	52.7764	523.05	84.65
788.6087	55.0411	532.7	90.75
788.7496	57.3054	547.5	100.95
788.8904	59.5692	554.9	105.35
789.0313	61.8326	564.45	109.95
789.1722	64.0955	577.8	119.45
789.3132	66.3579	596.4	134.25
789.4541	68.6199	609.25	145.45
789.5951	70.8815	645	177.45
789.7361	73.1426	714.45	244.3
789.8771	75.4032	904.25	427.45
790.0181	77.6634	1359.2	876.6
790.1592	79.9231	2426.55	1938.95
790.3003	82.1824	4747.45	4250.05
790.4414	84.4412	9003.75	8492.6
790.5825	86.6995	14887.6	14355.05
790.7237	88.9574	20678.05	20128.05
790.8648	91.2148	24730.4	24167.6
791.006	93.4717	26663.2	26094.75
791.1472	95.7282	27003.6	26426.95
791.2885	97.9842	26832.7	26257.1
791.4297	100.2398	26254.1	25674.45
791.571	102.4949	25574.85	24989.95
791.7123	104.7495	24753.85	24161.9
791.8536	107.0036	23987.8	23397.1
791.9949	109.2573	23277.9	22690.4
792.1363	111.5105	22643.55	22051.25
792.2777	113.7632	22089.1	21497.05
792.4191	116.0154	21562.55	20958.25
792.5605	118.2672	21248.65	20653.8
792.7019	120.5185	20892.35	20298.35
792.8434	122.7693	20658.7	20059.6
792.9849	125.0197	20424.75	19821.5
793.1264	127.2696	20178.5	19569.75
793.2679	129.519	20067.1	19458.95
793.4094	131.7679	19845.6	19235.4
793.551	134.0163	19648.3	19036.4
793.6926	136.2642	19351.2	18732.55
793.8342	138.5117	19051.2	18425.1
793.9758	140.7587	18708.15	18086.05
794.1175	143.0052	18438.55	17814.85
794.2591	145.2512	18145.75	17521.2
794.4008	147.4967	17852.75	17223.3
794.5425	149.7417	17652.15	17023.7
794.6842	151.9863	17497.35	16866.35
794.826	154.2304	17402.65	16767.35
794.9677	156.4739	17258.65	16619.15
795.1095	158.717	17177.6	16537.75
795.2513	160.9596	17036.7	16393.6
795.3931	163.2017	16790.25	16143.25
795.535	165.4433	16551.65	15904.75
795.6768	167.6844	16271.5	15625.3
795.8187	169.925	16016.8	15366
795.9606	172.1651	15700.3	15046.5
796.1025	174.4047	15447.25	14788.7
796.2445	176.6439	15223.4	14561.55
796.3864	178.8825	15073.3	14408.9
796.5284	181.1206	14934.6	14264.75
796.6704	183.3582	14805.25	14134.25
796.8124	185.5954	14712.7	14039.3
796.9544	187.832	14673.2	13996.25
797.0965	190.0681	14631	13956.5
797.2386	192.3037	14649.45	13969.85
797.3806	194.5388	14633.55	13951.15
797.5228	196.7734	14629.6	13942.25
797.6649	199.0075	14670.05	13979.45
797.807	201.2411	14800.25	14105.4
797.9492	203.4742	14872.25	14179.15
798.0914	205.7068	14989.45	14297.25
798.2336	207.9389	15075.85	14382.9
798.3758	210.1704	15213.7	14516.1
798.518	212.4015	15265.9	14567.25
798.6603	214.632	15418	14718.65
798.8025	216.862	15520.6	14828.65
798.9448	219.0915	15578.3	14892
799.0871	221.3205	15635.65	14952.7
799.2294	223.549	15758.6	15080.7
799.3718	225.777	15792.45	15113.45
799.5141	228.0044	15887.25	15201.3
799.6565	230.2314	16016.75	15335.4
799.7989	232.4578	16141.75	15460.05
799.9413	234.6837	16248.4	15559.75
800.0837	236.909	16314.45	15628.95
800.2262	239.1339	16334.65	15622.35
800.3687	241.3582	16253.1	15557.35
800.5111	243.582	16131.65	15409.2
800.6536	245.8053	16085.9	15369.2
800.7961	248.0281	16029.45	15320.9
800.9387	250.2503	15975.8	15259.65
801.0812	252.472	15994.1	15271.8
801.2238	254.6932	16100.15	15378.1
801.3664	256.9139	16137.6	15414.55
801.509	259.134	16328.55	15599
801.6516	261.3536	16477.85	15749.5
801.7942	263.5727	16754.6	16026.25
801.9369	265.7912	16910.5	16181.6
802.0795	268.0092	17171.75	16445.6
802.2222	270.2267	17347.45	16613.5
802.3649	272.4436	17434.05	16703.7
802.5076	274.6601	17471.05	16733.3
802.6504	276.8759	17424.3	16688.65
802.7931	279.0913	17341	16605.7
802.9359	281.3061	17222.65	16485.4
803.0787	283.5204	17168.5	16432.55
803.2215	285.7341	17139.1	16394.3
803.3643	287.9473	17184.9	16430.8
803.5071	290.16	17222.05	16470.1
803.6499	292.3721	17278	16534.6
803.7928	294.5837	17426.2	16682.15
803.9357	296.7947	17601.25	16853.3
804.0786	299.0052	17766.3	17020.25
804.2215	301.2152	17721.9	16972.55
804.3644	303.4246	17585.8	16841.25
804.5074	305.6334	17300	16556.15
804.6503	307.8418	16969.65	16220.15
804.7933	310.0495	16616.75	15870.3
804.9363	312.2568	16213.3	15463.7
805.0793	314.4635	15869.35	15119.75
805.2223	316.6696	15597.7	14844.9
805.3653	318.8752	15383.15	14621.5
805.5084	321.0802	15316.95	14563.4
805.6514	323.2847	15317.1	14562.65
805.7945	325.4887	15348.55	14593.35
805.9376	327.692	15302.25	14544.55
806.0807	329.8949	15308	14552.9
806.2238	332.0972	15161.65	14403.35
806.367	334.2989	14951.2	14190.8
806.5101	336.5001	14753.25	13993.3
806.6533	338.7007	14558	13796.45
806.7965	340.9008	14435.2	13671.85
806.9397	343.1003	14264.3	13498.7
807.0829	345.2992	14150.4	13383.3
807.2261	347.4976	14077.7	13307.2
807.3693	349.6955	13958.9	13187.05
807.5126	351.8927	13969.2	13198.1
807.6559	354.0895	13869.95	13085.65
807.7991	356.2856	13854.95	13079.8
807.9424	358.4812	13787.8	13016.15
808.0857	360.6763	13806.05	13031.3
808.2291	362.8707	13768.1	12994.05
808.3724	365.0646	13786.95	13006.25
808.5158	367.258	13823.4	13041.4
808.6591	369.4508	13844.3	13059.75
808.8025	371.643	13973.15	13187.25
808.9459	373.8346	14024.1	13236.5
809.0893	376.0257	14102.8	13313.35
809.2327	378.2162	14095.4	13305.7
809.3762	380.4062	14093.75	13303.75
809.5196	382.5956	13988.2	13192.7
809.6631	384.7844	13885.65	13091.55
809.8066	386.9726	13741.2	12948.45
809.9501	389.1603	13664.9	12870.6
810.0936	391.3474	13643.7	12817.75
810.2371	393.5339	13575.3	12780.55
810.3806	395.7199	13508.45	12721.1
810.5241	397.9052	13532.3	12745.7
810.6677	400.09	13621.85	12836.2
810.8113	402.2743	13713.95	12930.7
810.9548	404.4579	13837.15	13055.75
811.0984	406.641	14005.5	13222.05
811.2421	408.8235	14170.95	13386.25
811.3857	411.0054	14294.25	13508.15
811.5293	413.1868	14479.5	13691.35
811.673	415.3675	14511.8	13721
811.8166	417.5477	14505.7	13717.7
811.9603	419.7273	14470.9	13679.2
812.104	421.9064	14376.9	13576.65
812.2477	424.0848	14311.35	13518.8
812.3914	426.2627	14179	13378.05
812.5351	428.4399	13960.65	13159.75
812.6788	430.6166	13649.5	12841.85
812.8226	432.7928	13365.35	12561.65
812.9663	434.9683	13088.4	12283.45
813.1101	437.1432	12865.35	12056.55
813.2539	439.3176	12736.45	11928.6
813.3977	441.4914	12611.5	11800.65
813.5415	443.6645	12593.5	11783.35
813.6853	445.8371	12499.3	11690.6
813.8291	448.0091	12477.35	11669
813.973	450.1806	12437.8	11628.05
814.1168	452.3514	12413.95	11601.1
814.2607	454.5216	12463.85	11643.7
814.4046	456.6913	12380.7	11568.5
814.5485	458.8603	12423.35	11611.05
814.6924	461.0288	12497.1	11684.4
814.8363	463.1967	12479.2	11665.7
814.9802	465.3639	12476.45	11661.85
815.1241	467.5306	12461.1	11644.2
815.2681	469.6967	12459.8	11645.55
815.412	471.8622	12473.9	11657.55
815.556	474.0271	12481.95	11666.35
815.7	476.1914	12505.7	11686.3
815.844	478.3551	12529.05	11713.75
815.988	480.5182	12554.9	11737.55
816.132	482.6807	12614.95	11797.2
816.276	484.8426	12754.8	11936.75
816.4201	487.0039	13043.05	12224.1
816.5641	489.1647	13376.8	12555.1
816.7082	491.3248	13673.95	12855
816.8522	493.4843	13744	12924
816.9963	495.6432	13703.9	12883.7
817.1404	497.8015	13539.9	12717.35
817.2845	499.9592	13430.5	12611.3
817.4286	502.1163	13244.55	12423.6
817.5727	504.2728	12969.85	12144.55
817.7168	506.4287	12731.25	11909.55
817.861	508.5839	12452.1	11629.3
818.0051	510.7386	12281.6	11458.75
818.1493	512.8927	12197.55	11364.4
818.2935	515.0461	12145.95	11321.1
818.4377	517.199	12225.65	11399.9
818.5818	519.3512	12339.95	11515.35
818.726	521.5029	12557.35	11724.6
818.8703	523.6539	12783.8	11956.05
819.0145	525.8043	12858.45	12030.95
819.1587	527.9541	12817.6	11989.55
819.303	530.1033	12634.35	11805.35
819.4472	532.2519	12491.8	11659.85
819.5915	534.3999	12441	11609.45
819.7357	536.5472	12471.45	11641.65
819.88	538.694	12649.25	11818.45
820.0243	540.8401	12867.75	12034.25
820.1686	542.9856	13061.3	12227.9
820.3129	545.1305	13100.65	12268.55
820.4572	547.2748	13005.7	12171.95
820.6016	549.4185	12841.95	12009.25
820.7459	551.5615	12726.8	11893.95
820.8902	553.704	12697.8	11861.7
821.0346	555.8458	12740	11906.7
821.1789	557.987	12883.95	12051.85
821.3233	560.1276	13055.75	12220.9
821.4677	562.2675	13384.1	12550.45
821.6121	564.4069	13781.15	12946.2
821.7565	566.5456	14170.65	13338.1
821.9009	568.6837	14293.65	13454.55
822.0453	570.8212	13988.85	13156.5
822.1897	572.958	13381.3	12547.35
822.3342	575.0942	12804.3	11970.95
822.4786	577.2299	12404.3	11570.3
822.6231	579.3648	12195.3	11358.55
822.7675	581.4992	12155.45	11316.75
822.912	583.6329	12227.85	11390.2
823.0565	585.766	12368.75	11532.25
823.201	587.8985	12466.55	11632
823.3454	590.0304	12549.6	11688.15
823.4899	592.1616	12490.05	11647.95
823.6345	594.2922	12366.1	11527.1
823.779	596.4222	12207.35	11367.8
823.9235	598.5515	12028.8	11186.15
824.068	600.6802	11858.25	11016.45
824.2126	602.8083	11730.8	10892.4
824.3571	604.9358	11688.35	10846.1
824.5017	607.0626	11673.95	10834.2
824.6462	609.1888	11758.35	10916.9
824.7908	611.3144	11871.9	11030
824.9354	613.4393	11962.9	11121.35
825.08	615.5636	12065.45	11222.2
825.2246	617.6873	12079.15	11235.4
825.3692	619.8103	12002.9	11160.85
825.5138	621.9327	11880.35	11033.45
825.6584	624.0544	11711.05	10867.85
825.803	626.1756	11510.4	10668.8
825.9477	628.2961	11392.4	10547.45
826.0923	630.4159	11324.95	10480.8
826.237	632.5351	11300.45	10457.4
826.3816	634.6537	11283.8	10440.65
826.5263	636.7716	11265.85	10418.7
826.6709	638.8889	11261.3	10414.35
826.8156	641.0056	11280.15	10433.15
826.9603	643.1216	11246.05	10398
827.105	645.237	11232.95	10384.25
827.2497	647.3518	11137.55	10287.6
827.3944	649.4659	11086.3	10238.2
827.5391	651.5793	11022	10175.2
827.6838	653.6922	10981.7	10133.6
827.8285	655.8043	10975.3	10127.25
827.9733	657.9159	10971.65	10123.7
828.118	660.0268	10930.25	10076.2
828.2627	662.137	10914	10061.05
828.4075	664.2466	10910.8	10059
828.5522	666.3556	10919.55	10068.9
828.697	668.4639	10862.8	10010.15
828.8418	670.5716	10811.85	9959.75
828.9865	672.6786	10799.75	9948.05
829.1313	674.785	10730.6	9878.85
829.2761	676.8907	10713.75	9862.75
829.4209	678.9958	10721.45	9870.5
829.5657	681.1002	10683.35	9831.1
829.7105	683.204	10667.75	9811.8
829.8553	685.3072	10642.35	9785.45
830.0001	687.4097	10590.9	9737.4
830.1449	689.5115	10612	9756.5
830.2898	691.6127	10582.05	9732.25
830.4346	693.7132	10561.6	9705.35
830.5794	695.8131	10552.5	9689.35
830.7243	697.9123	10563.65	9707.4
830.8691	700.0109	10586.2	9727.85
831.014	702.1089	10582.85	9725.4
831.1588	704.2061	10662.55	9807.75
831.3037	706.3028	10696.7	9841.9
831.4486	708.3987	10717.85	9863.5
831.5935	710.4941	10726.9	9869.4
831.7383	712.5887	10786.75	9928.6
831.8832	714.6827	10858	9997.9
832.0281	716.7761	10937.6	10081.65
832.173	718.8688	11104.8	10247.7
832.3179	720.9608	11210.25	10350.1
832.4628	723.0522	11340.1	10478.7
832.6077	725.1429	11353.15	10497.95
832.7527	727.233	11427.35	10568.45
832.8976	729.3224	11444.85	10586.9
833.0425	731.4112	11367.4	10506.35
833.1874	733.4993	11254.2	10391.35
833.3324	735.5867	11067.65	10209.4
833.4773	737.6735	10830.05	9971.2
833.6222	739.7596	10670.2	9808.65
833.7672	741.845	10563.15	9703
833.9122	743.9298	10450.5	9588.6
834.0571	746.014	10407.15	9548.7
834.2021	748.0974	10391.65	9529.25
834.347	750.1802	10398.15	9536.8
834.492	752.2624	10408.35	9548.9
834.637	754.3439	10434.85	9570.75
834.782	756.4247	10528	9658.55
834.9269	758.5048	10644.1	9784.75
835.0719	760.5843	10858.2	9997.05
835.2169	762.6631	11187.25	10326.25
835.3619	764.7413	11654.35	10793.1
835.5069	766.8188	12249	11387.05
835.6519	768.8956	12752.6	11886.05
835.7969	770.9718	13123.55	12259.35
835.9419	773.0473	13085.8	12228.25
836.0869	775.1221	12862.6	11999.35
836.232	777.1962	12612.95	11752.05
836.377	779.2697	12527.35	11662.6
836.522	781.3426	12593.05	11718.5
836.667	783.4147	12711.85	11849.4
836.8121	785.4862	12785.5	11923.45
836.9571	787.557	12622.95	11760.5
837.1021	789.6271	12203.9	11339.4
837.2472	791.6966	11661	10795
837.3922	793.7654	11093.4	10229.95
837.5373	795.8335	10715.55	9855.05
837.6823	797.901	10441.35	9578.55
837.8274	799.9678	10299.45	9435.35
837.9724	802.0339	10194.85	9330.3
838.1175	804.0993	10170.95	9297.05
838.2626	806.1641	10107.65	9245.1
838.4076	808.2282	10032.7	9164.3
838.5527	810.2916	9971.1	9102.3
838.6978	812.3544	9900.4	9034.8
838.8428	814.4164	9841.1	8976.15
838.9879	816.4778	9862.9	8999.15
839.133	818.5385	9884.5	9020.3
839.2781	820.5986	9993.65	9129.95
839.4232	822.658	10202.35	9336.3
839.5682	824.7166	10471.6	9609.35
839.7133	826.7747	10864.35	9998.85
839.8584	828.832	11336.45	10470.75
840.0035	830.8886	11672.55	10805.6
840.1486	832.9446	11854.2	10986.25
840.2937	834.9999	11721.3	10854.3
840.4388	837.0545	11502.3	10632.75
840.5839	839.1085	11180.7	10312.7
840.729	841.1618	10904.85	10034.4
840.8741	843.2143	10669.2	9803.15
841.0192	845.2662	10493.45	9624.9
841.1643	847.3175	10373.95	9509.3
841.3095	849.368	10252.2	9386.5
841.4546	851.4179	10155.35	9290.1
841.5997	853.467	10068.05	9199.6
841.7448	855.5155	10011.3	9141.05
841.8899	857.5633	9932.65	9063.3
842.0351	859.6105	9843.7	8976.85
842.1802	861.6569	9771.4	8901.75
842.3253	863.7027	9682.5	8815.25
842.4704	865.7478	9650.45	8782.45
842.6156	867.7922	9590.5	8722.55
842.7607	869.8359	9597.15	8729.1
842.9058	871.8789	9601.35	8731.9
843.0509	873.9212	9701.35	8798.1
843.1961	875.9629	9741.35	8872.5
843.3412	878.0039	9840.55	8968.3
843.4863	880.0441	9898.9	9028.8
843.6315	882.0837	9926.95	9056.75
843.7766	884.1226	9961.65	9088.9
843.9218	886.1609	9988.5	9118.6
844.0669	888.1984	10081.35	9213.2
844.212	890.2352	10197.1	9327.9
844.3572	892.2714	10234.35	9361.5
844.5023	894.3069	10177.3	9306
844.6475	896.3416	10028.25	9158.7
844.7926	898.3757	9892.3	9019.95
844.9377	900.4091	9800.85	8926.4
845.0829	902.4418	9768.35	8895.4
845.228	904.4739	9783.8	8912.15
845.3732	906.5052	9845.65	8975.05
845.5183	908.5358	9814.9	8942.15
845.6635	910.5658	9687.5	8813.35
845.8086	912.595	9504.65	8632.55
845.9538	914.6236	9333.25	8460.9
846.0989	916.6515	9196.2	8323.95
846.2441	918.6786	9115.1	8241.35
846.3892	920.7051	9076.65	8203.55
846.5344	922.7309	9092.95	8219.9
846.6795	924.756	9120	8246.85
846.8246	926.7804	9178.25	8304.2
846.9698	928.8041	9163.6	8289.45
847.1149	930.8272	9218.55	8346.7
847.2601	932.8495	9190.3	8316.75
847.4052	934.8711	9202.4	8328.45
847.5504	936.892	9140.35	8267.8
847.6955	938.9123	9135.9	8262.2
847.8407	940.9318	9139.2	8267.2
847.9858	942.9506	9158.15	8286.7
848.131	944.9688	9083.05	8210.85
848.2761	946.9862	8996.5	8124.65
848.4213	949.003	8852.9	7980.45
848.5664	951.019	8768	7893.9
848.7115	953.0344	8704.5	7830
848.8567	955.0491	8693.45	7817.6
849.0018	957.063	8698.95	7824.35
849.147	959.0763	8781.05	7909.9
849.2921	961.0888	8797.05	7921.55
849.4373	963.1007	8850.8	7975.5
849.5824	965.1119	8833.25	7956.75
849.7275	967.1223	8830.1	7956.15
849.8727	969.1321	8811.65	7938.75
850.0178	971.1412	8804.25	7931.4
850.1629	973.1495	8773.6	7900.9
850.3081	975.1572	8802.5	7895.05
850.4532	977.1641	8815.8	7940.2
850.5983	979.1704	8773.8	7895.8
850.7435	981.1759	8747.85	7871.5
850.8886	983.1808	8747.4	7871.7
851.0337	985.1849	8750.2	7864.85
851.1788	987.1884	8798.5	7919.05
851.324	989.1911	8872.65	7996.45
851.4691	991.1932	8949.25	8073.5
851.6142	993.1945	8965.35	8091.4
851.7593	995.1951	8920.15	8044.8
851.9045	997.1951	8897.1	8015
852.0496	999.1943	8849.7	7975.6
852.1947	1001.1928	8860.15	7982.8
852.3398	1003.1906	8890	8014.05
852.4849	1005.1877	9008.6	8133.2
852.63	1007.1841	9061.5	8183.8
852.7751	1009.1798	9069.85	8194.2
852.9202	1011.1748	8985.6	8111.95
853.0653	1013.1691	8869.75	7989.35
853.2104	1015.1627	8669.85	7794
853.3555	1017.1556	8497.4	7621.6
853.5006	1019.1477	8370.5	7494.05
853.6457	1021.1392	8287.05	7411
853.7908	1023.1299	8254.5	7379.3
853.9359	1025.12	8262.1	7383.25
854.081	1027.1093	8301.7	7426.7
854.2261	1029.0979	8421.7	7545.55
854.3712	1031.0859	8480.3	7605.2
854.5163	1033.0731	8508.05	7633.3
854.6613	1035.0596	8477.3	7600.2
854.8064	1037.0454	8353.65	7479.1
854.9515	1039.0304	8278.4	7400.85
855.0965	1041.0148	8148.25	7270.7
855.2416	1042.9985	8068.8	7190.95
855.3867	1044.9814	8023.2	7146.6
855.5317	1046.9636	7970.6	7089.9
855.6768	1048.9452	7961.3	7087.2
855.8219	1050.926	8008.05	7131.8
855.9669	1052.9061	8013.4	7138.55
856.112	1054.8855	8025.7	7148.8
856.257	1056.8642	8055	7180.85
856.4021	1058.8421	8094.4	7214.35
856.5471	1060.8194	8094.35	7218.9
856.6921	1062.7959	8125.7	7247.7
856.8372	1064.7717	8178.85	7300.85
856.9822	1066.7469	8245.85	7369
857.1272	1068.7213	8318.85	7442.1
857.2723	1070.695	8361	7484.3
857.4173	1072.6679	8372.8	7492.35
857.5623	1074.6402	8405.5	7527.45
857.7073	1076.6117	8382.95	7498.05
857.8523	1078.5826	8301.35	7425.7
857.9973	1080.5527	8181.6	7301.4
858.1423	1082.5221	8092.9	7215.75
858.2873	1084.4908	8038.75	7161.6
858.4323	1086.4587	8057.9	7176.55
858.5773	1088.426	8105.4	7227.4
858.7223	1090.3925	8118.45	7236.25
858.8673	1092.3584	8106.75	7230.8
859.0123	1094.3235	8123	7246.75
859.1573	1096.2879	8175.15	7297.2
859.3022	1098.2515	8256.4	7379.7
859.4472	1100.2145	8418.55	7541.15
859.5922	1102.1767	8576.55	7693.65
859.7371	1104.1382	8784.7	7906.05
859.8821	1106.099	8984.7	8101.4
860.027	1108.0591	9208.05	8330.5
860.172	1110.0185	9344.8	8462.9
860.3169	1111.9771	9423.95	8543.95
860.4619	1113.9351	9332.05	8455.5
860.6068	1115.8923	9219.75	8338.45
860.7517	1117.8488	9098.6	8218.7
860.8967	1119.8045	8930.25	8053.05
861.0416	1121.7596	8788.2	7907.05
861.1865	1123.7139	8662	7782.95
861.3314	1125.6675	8616.95	7737.75
861.4763	1127.6204	8658.3	7782.2
861.6212	1129.5726	8598.95	7716.75
861.7661	1131.524	8542.4	7664.4
861.911	1133.4748	8404.25	7523.5
862.0559	1135.4248	8246.45	7366.8
862.2008	1137.3741	8107.9	7228
862.3457	1139.3226	7987.7	7108.5
862.4905	1141.2705	7917.5	7039.35
862.6354	1143.2176	7883.8	7001.25
862.7803	1145.164	7841.4	6960.75
862.9251	1147.1097	7771.45	6890.15
863.07	1149.0546	7680.5	6799.15
863.2148	1150.9989	7596.7	6717.05
863.3597	1152.9424	7509.1	6630.45
863.5045	1154.8852	7420.45	6540.45
863.6493	1156.8272	7368	6490.4
863.7942	1158.7686	7380.9	6495.7
863.939	1160.7092	7379	6501
864.0838	1162.6491	7427.8	6547.95
864.2286	1164.5883	7492.35	6614.25
864.3734	1166.5267	7597.2	6716.1
864.5182	1168.4644	7740.3	6862.4
864.663	1170.4014	7879.85	6995.2
864.8078	1172.3377	8101.6	7225.3
864.9526	1174.2732	8350.9	7471.6
865.0974	1176.2081	8715.65	7835.55
865.2421	1178.1421	9148.8	8264.5
865.3869	1180.0755	9593.7	8715.65
865.5317	1182.0082	9952.35	9072.65
865.6764	1183.9401	10108.2	9227.55
865.8212	1185.8713	9993.15	9113.65
865.9659	1187.8017	9685.35	8808.4
866.1106	1189.7315	9329.45	8448.85
866.2554	1191.6605	8975.7	8069.3
866.4001	1193.5888	8713.7	7833.8
866.5448	1195.5163	8537.6	7657.45
866.6895	1197.4432	8448.95	7568.7
866.8342	1199.3693	8367.6	7488
866.9789	1201.2947	8351.15	7463.2
867.1236	1203.2193	8310.1	7432
867.2683	1205.1432	8308.7	7427.2
