Software Version:	3.9.2.0
Unit SN:	10000200
Spectrometer SN:	6960
Date:	3/14/2024 12:24:55 PM
Data Line Index:	25
Spectral Points:	2048
Integration time (ms):	125
Averages:	20
Delay (ms):	30000
Sequence Number:	1
Processing:	dark subtract
Laser Power (mW):	285
Laser Current (mA):	804
Laser Diode Temp (C):	25
Laser Case Temp (C):	24.9
System Temp (C):	24.9
Spectrometer Temp (C):	22.9
CCD Temp (C):	0.004
Secondary Temp (C):	20.007
Heatsink Temp (C):	22.307
CCDPCB Temp (C):	36.196
SecondaryPCB Temp (C):	30.282

Wavelength	RamanShift	Raw Counts	Dark Subtracted
787.061	30.1047	430.55	15.75
787.2016	32.3739	429.1	14.9
787.3422	34.6426	434.5	19.75
787.4828	36.9109	437.2	20.45
787.6235	39.1787	441.25	20.3
787.7642	41.4461	449.3	23.35
787.9049	43.7131	456.05	26.7
788.0456	45.9796	459.55	28.2
788.1863	48.2456	466.7	30.7
788.3271	50.5112	472.3	31.85
788.4679	52.7764	474.45	32.6
788.6087	55.0411	481.1	35.15
788.7496	57.3054	488.55	39.1
788.8904	59.5692	496.05	44.5
789.0313	61.8326	501.9	48.7
789.1722	64.0955	508.75	50.85
789.3132	66.3579	519.8	55.55
789.4541	68.6199	529.5	62.7
789.5951	70.8815	546.6	77.75
789.7361	73.1426	583.9	113
789.8771	75.4032	670.6	194.45
790.0181	77.6634	884.6	404.05
790.1592	79.9231	1385.75	900
790.3003	82.1824	2421.95	1933.45
790.4414	84.4412	4189.65	3698.15
790.5825	86.6995	6573.55	6078.9
790.7237	88.9574	8891.65	8395
790.8648	91.2148	10525.15	10025.3
791.006	93.4717	11324.45	10822.65
791.1472	95.7282	11509.9	11005.25
791.2885	97.9842	11529.2	11020.6
791.4297	100.2398	11366.25	10856.3
791.571	102.4949	11215.15	10700.85
791.7123	104.7495	11079.55	10561.45
791.8536	107.0036	10902.9	10384.6
791.9949	109.2573	10719.9	10201.85
792.1363	111.5105	10542.05	10025.25
792.2777	113.7632	10220.55	9700.9
792.4191	116.0154	9952.35	9421.75
792.5605	118.2672	9632.5	9109.45
792.7019	120.5185	9266.7	8741.25
792.8434	122.7693	8927.6	8398.15
792.9849	125.0197	8594.15	8061.35
793.1264	127.2696	8319.4	7786.2
793.2679	129.519	8142.2	7606.85
793.4094	131.7679	8002.45	7465.4
793.551	134.0163	7918.6	7376.55
793.6926	136.2642	7837.9	7291.3
793.8342	138.5117	7826.05	7274.05
793.9758	140.7587	7757.8	7206.05
794.1175	143.0052	7681.6	7127.75
794.2591	145.2512	7526.3	6970.9
794.4008	147.4967	7331.65	6777.35
794.5425	149.7417	7155.35	6595.8
794.6842	151.9863	7013.3	6454.1
794.826	154.2304	6924	6359.7
794.9677	156.4739	6877.6	6305.85
795.1095	158.717	6918.45	6349
795.2513	160.9596	6972.2	6397.7
795.3931	163.2017	7081.35	6504.15
795.535	165.4433	7196.9	6619.8
795.6768	167.6844	7205.55	6624.2
795.8187	169.925	7161.1	6578.25
795.9606	172.1651	6961.7	6373.65
796.1025	174.4047	6784.5	6191.2
796.2445	176.6439	6637.8	6044.35
796.3864	178.8825	6490.1	5894.5
796.5284	181.1206	6445.8	5845.75
796.6704	183.3582	6381.7	5778.65
796.8124	185.5954	6348.95	5743.5
796.9544	187.832	6325.3	5718.15
797.0965	190.0681	6316.75	5705.7
797.2386	192.3037	6306.25	5691.8
797.3806	194.5388	6302.65	5684.6
797.5228	196.7734	6342.5	5721.9
797.6649	199.0075	6387.5	5763.9
797.807	201.2411	6469.15	5842
797.9492	203.4742	6512.95	5886.95
798.0914	205.7068	6598.35	5971.75
798.2336	207.9389	6654.2	6026
798.3758	210.1704	6724.75	6094.55
798.518	212.4015	6742.7	6107.85
798.6603	214.632	6775.55	6140.35
798.8025	216.862	6763.85	6133.5
798.9448	219.0915	6774.75	6150.95
799.0871	221.3205	6809	6188
799.2294	223.549	6841.3	6226.2
799.3718	225.777	6861.9	6249.6
799.5141	228.0044	6834.5	6217.7
799.6565	230.2314	6832.2	6216.95
799.7989	232.4578	6763.45	6146.65
799.9413	234.6837	6709.65	6083.85
800.0837	236.909	6650.25	6025.7
800.2262	239.1339	6635.85	5987.75
800.3687	241.3582	6605.55	5971
800.5111	243.582	6568.15	5906.8
800.6536	245.8053	6592.25	5939.8
800.7961	248.0281	6620.35	5972.9
800.9387	250.2503	6636.2	5982.15
801.0812	252.472	6631.9	5973.7
801.2238	254.6932	6676.7	6013.15
801.3664	256.9139	6667.6	6002.7
801.509	259.134	6694.95	6026.95
801.6516	261.3536	6773.7	6108.1
801.7942	263.5727	6861.75	6193.05
801.9369	265.7912	7005.85	6337.75
802.0795	268.0092	7182.3	6512.6
802.2222	270.2267	7389.4	6719.05
802.3649	272.4436	7568.05	6896.55
802.5076	274.6601	7695.1	7014.1
802.6504	276.8759	7782.75	7108.1
802.7931	279.0913	7866.6	7191.2
802.9359	281.3061	7913.6	7238.6
803.0787	283.5204	7980.6	7300
803.2215	285.7341	8084.5	7398.65
803.3643	287.9473	8189.85	7503.5
803.5071	290.16	8207.3	7517.9
803.6499	292.3721	8059.1	7372.3
803.7928	294.5837	7872.85	7185.45
803.9357	296.7947	7718.1	7031.05
804.0786	299.0052	7614.55	6927.4
804.2215	301.2152	7540.3	6848.9
804.3644	303.4246	7512.25	6824.85
804.5074	305.6334	7473	6783.7
804.6503	307.8418	7467.35	6773.4
804.7933	310.0495	7403.6	6709.75
804.9363	312.2568	7305.5	6613.35
805.0793	314.4635	7147.15	6452.8
805.2223	316.6696	6987.95	6292.6
805.3653	318.8752	6790.4	6085.6
805.5084	321.0802	6666.9	5972
805.6514	323.2847	6607.2	5908.8
805.7945	325.4887	6621.85	5921.75
805.9376	327.692	6666.2	5964.6
806.0807	329.8949	6817.65	6114.5
806.2238	332.0972	6982.6	6276.8
806.367	334.2989	7164.35	6455.85
806.5101	336.5001	7216.2	6509.25
806.6533	338.7007	7150.6	6443.55
806.7965	340.9008	6964.7	6253.8
806.9397	343.1003	6725.55	6011.4
807.0829	345.2992	6492.1	5777.25
807.2261	347.4976	6324.8	5610.25
807.3693	349.6955	6192.2	5472.55
807.5126	351.8927	6113	5392.65
807.6559	354.0895	6028.4	5297
807.7991	356.2856	5993.9	5271.6
807.9424	358.4812	5949.05	5229.15
808.0857	360.6763	5917.75	5194.3
808.2291	362.8707	5881.1	5158.65
808.3724	365.0646	5876.7	5150.65
808.5158	367.258	5897.25	5169.45
808.6591	369.4508	5956.9	5223.6
808.8025	371.643	6055.6	5321.05
808.9459	373.8346	6147.9	5412.25
809.0893	376.0257	6288.25	5548.65
809.2327	378.2162	6410.85	5671.95
809.3762	380.4062	6516.25	5774.5
809.5196	382.5956	6447.6	5705.45
809.6631	384.7844	6315.3	5572.8
809.8066	386.9726	6152.95	5407.6
809.9501	389.1603	5999.25	5254.65
810.0936	391.3474	5938.75	5160.45
810.2371	393.5339	5886.6	5140.4
810.3806	395.7199	5879.55	5137.7
810.5241	397.9052	5978.4	5239.45
810.6677	400.09	6120.25	5381.3
810.8113	402.2743	6296.4	5558.6
810.9548	404.4579	6435.2	5697.5
811.0984	406.641	6559.7	5821.3
811.2421	408.8235	6720.75	5981.3
811.3857	411.0054	6863.45	6123.35
811.5293	413.1868	6958.4	6216.85
811.673	415.3675	6997.15	6253.35
811.8166	417.5477	6945.3	6198.7
811.9603	419.7273	6887.9	6139.5
812.104	421.9064	6745.5	5988.2
812.2477	424.0848	6607.9	5855.05
812.3914	426.2627	6383.35	5627.75
812.5351	428.4399	6134.7	5377.25
812.6788	430.6166	5927.25	5166.35
812.8226	432.7928	5768.35	5005.05
812.9663	434.9683	5629.9	4867.45
813.1101	437.1432	5556.65	4790.15
813.2539	439.3176	5477.4	4712.65
813.3977	441.4914	5407.15	4638.4
813.5415	443.6645	5385.55	4616.35
813.6853	445.8371	5377.45	4609.2
813.8291	448.0091	5378.85	4610.8
813.973	450.1806	5371.25	4600.55
814.1168	452.3514	5365.75	4593.65
814.2607	454.5216	5376.9	4595.75
814.4046	456.6913	5377.75	4603.2
814.5485	458.8603	5416.25	4644.15
814.6924	461.0288	5428.4	4655.6
814.8363	463.1967	5418.05	4643.95
814.9802	465.3639	5435.05	4657.15
815.1241	467.5306	5387.7	4610.85
815.2681	469.6967	5361.85	4584.85
815.412	471.8622	5352.55	4575.05
815.556	474.0271	5328.05	4549.65
815.7	476.1914	5314.1	4535.2
815.844	478.3551	5298.45	4520.3
815.988	480.5182	5300.4	4518.6
816.132	482.6807	5287.45	4505.8
816.276	484.8426	5361.35	4578.8
816.4201	487.0039	5485.8	4704.3
816.5641	489.1647	5704.35	4921.6
816.7082	491.3248	5908.7	5124.45
816.8522	493.4843	5966.2	5182
816.9963	495.6432	5945.25	5162.1
817.1404	497.8015	5839.65	5051.9
817.2845	499.9592	5674.6	4889.6
817.4286	502.1163	5481.15	4694.05
817.5727	504.2728	5306.5	4518.65
817.7168	506.4287	5218.2	4431.7
817.861	508.5839	5150.35	4362.45
818.0051	510.7386	5103	4315.6
818.1493	512.8927	5115.3	4320
818.2935	515.0461	5126.65	4336.95
818.4377	517.199	5173.95	4385
818.5818	519.3512	5319.95	4527.8
818.726	521.5029	5559.6	4762.7
818.8703	523.6539	5834.45	5042.05
819.0145	525.8043	5931.2	5134.95
819.1587	527.9541	5734	4936.3
819.303	530.1033	5480.45	4684.8
819.4472	532.2519	5260.8	4463.7
819.5915	534.3999	5145	4347.25
819.7357	536.5472	5112.1	4314.75
819.88	538.694	5109.25	4311.5
820.0243	540.8401	5147.9	4350.55
820.1686	542.9856	5224.15	4423.05
820.3129	545.1305	5277.4	4475.4
820.4572	547.2748	5332.7	4532.65
820.6016	549.4185	5346	4543.7
820.7459	551.5615	5367	4564.7
820.8902	553.704	5419.85	4617.1
821.0346	555.8458	5470.45	4667.35
821.1789	557.987	5529.25	4727.1
821.3233	560.1276	5661.25	4855.15
821.4677	562.2675	5914	5111
821.6121	564.4069	6236.3	5433.3
821.7565	566.5456	6461.15	5658.65
821.9009	568.6837	6400.3	5594.45
822.0453	570.8212	6051.2	5245.8
822.1897	572.958	5666.25	4858.75
822.3342	575.0942	5387.45	4582.05
822.4786	577.2299	5227.35	4419.05
822.6231	579.3648	5147.75	4339.75
822.7675	581.4992	5115.05	4306.4
822.912	583.6329	5135.45	4328.35
823.0565	585.766	5243.95	4433.1
823.201	587.8985	5381.2	4573.35
823.3454	590.0304	5609.2	4774.3
823.4899	592.1616	5771.9	4956.6
823.6345	594.2922	5844.5	5032.6
823.779	596.4222	5762	4950.1
823.9235	598.5515	5543.4	4728.4
824.068	600.6802	5297.85	4484.2
824.2126	602.8083	5112.25	4299.2
824.3571	604.9358	5043.05	4227.95
824.5017	607.0626	5000.45	4183.75
824.6462	609.1888	5015.1	4198.3
824.7908	611.3144	5081.45	4262.95
824.9354	613.4393	5206.3	4388.8
825.08	615.5636	5431.05	4612.9
825.2246	617.6873	5624.5	4806.9
825.3692	619.8103	5801.95	4981.8
825.5138	621.9327	5818.25	4996.45
825.6584	624.0544	5746.65	4927.95
825.803	626.1756	5518.05	4698.95
825.9477	628.2961	5269.55	4448.65
826.0923	630.4159	5109.4	4287.45
826.237	632.5351	5087.25	4263.75
826.3816	634.6537	5084.05	4261.75
826.5263	636.7716	5055.4	4231.35
826.6709	638.8889	5032.65	4209.25
826.8156	641.0056	5056.8	4232.6
826.9603	643.1216	5112.2	4288.55
827.105	645.237	5165.2	4340.05
827.2497	647.3518	5118.75	4294.3
827.3944	649.4659	4990.75	4165.35
827.5391	651.5793	4881.65	4054.2
827.6838	653.6922	4850.95	4024.95
827.8285	655.8043	4797.45	3971.85
827.9733	657.9159	4733.2	3905.15
828.118	660.0268	4702.7	3871.9
828.2627	662.137	4699.45	3869.2
828.4075	664.2466	4713.3	3883.4
828.5522	666.3556	4710	3880.65
828.697	668.4639	4683.1	3849.6
828.8418	670.5716	4682.35	3851.85
828.9865	672.6786	4652.45	3820.05
829.1313	674.785	4605.45	3772.7
829.2761	676.8907	4592	3759.8
829.4209	678.9958	4613.15	3782.3
829.5657	681.1002	4585.5	3753.2
829.7105	683.204	4607.9	3772.75
829.8553	685.3072	4606.1	3773.05
830.0001	687.4097	4596.25	3764.6
830.1449	689.5115	4603.7	3767.8
830.2898	691.6127	4587.8	3754.25
830.4346	693.7132	4574.55	3737.3
830.5794	695.8131	4592.95	3744
830.7243	697.9123	4588.55	3750.4
830.8691	700.0109	4586.95	3750.25
831.014	702.1089	4624.7	3788.3
831.1588	704.2061	4670.95	3832.1
831.3037	706.3028	4755.25	3916.05
831.4486	708.3987	4854.5	4015.4
831.5935	710.4941	4917.45	4078.5
831.7383	712.5887	4953.85	4113.45
831.8832	714.6827	4950.95	4106.4
832.0281	716.7761	4899.2	4060.95
832.173	718.8688	4873.5	4032.9
832.3179	720.9608	4853.3	4009.7
832.4628	723.0522	4887.5	4044.75
832.6077	725.1429	4927.65	4088.05
832.7527	727.233	5043.25	4202.65
832.8976	729.3224	5244.7	4403.85
833.0425	731.4112	5496.15	4651.45
833.1874	733.4993	5630.2	4787.8
833.3324	735.5867	5528.25	4681.35
833.4773	737.6735	5245.15	4400.75
833.6222	739.7596	4958.55	4114.85
833.7672	741.845	4761.05	3916.3
833.9122	743.9298	4689.7	3842.7
834.0571	746.014	4646.55	3801.65
834.2021	748.0974	4668.95	3822.2
834.347	750.1802	4670.1	3824.35
834.492	752.2624	4660.1	3815.65
834.637	754.3439	4675.4	3828.9
834.782	756.4247	4668.75	3814
834.9269	758.5048	4705.5	3860.6
835.0719	760.5843	4759.25	3911.25
835.2169	762.6631	4865.75	4019.9
835.3619	764.7413	5059.75	4213.45
835.5069	766.8188	5369.85	4519.4
835.6519	768.8956	5740.3	4889.2
835.7969	770.9718	6016.2	5168.65
835.9419	773.0473	6023.8	5174.4
836.0869	775.1221	5847.75	4999.3
836.232	777.1962	5737.1	4886
836.377	779.2697	5942.15	5090.5
836.522	781.3426	6362.15	5500.05
836.667	783.4147	6724.45	5873.45
836.8121	785.4862	6815	5966.05
836.9571	787.557	6526.75	5677.9
837.1021	789.6271	6021	5168.85
837.2472	791.6966	5493.75	4641.7
837.3922	793.7654	5079.65	4226.45
837.5373	795.8335	4797.95	3943.9
837.6823	797.901	4664.4	3812.2
837.8274	799.9678	4583.8	3730.15
837.9724	802.0339	4577.45	3726.85
838.1175	804.0993	4611.6	3749.6
838.2626	806.1641	4626.25	3773.25
838.4076	808.2282	4573.35	3719.9
838.5527	810.2916	4508.7	3652.1
838.6978	812.3544	4437.3	3584.8
838.8428	814.4164	4402.1	3549.8
838.9879	816.4778	4406.9	3550.15
839.133	818.5385	4442.8	3587.8
839.2781	820.5986	4546.2	3691.45
839.4232	822.658	4743.2	3886.5
839.5682	824.7166	5008	4154.5
839.7133	826.7747	5312.5	4458.3
839.8584	828.832	5630.85	4775.3
840.0035	830.8886	5859.2	5001.7
840.1486	832.9446	6002.65	5145.65
840.2937	834.9999	5971.55	5116.55
840.4388	837.0545	5740.5	4878.6
840.5839	839.1085	5389.35	4531.05
840.729	841.1618	5065.25	4204.85
840.8741	843.2143	4830.75	3971.15
841.0192	845.2662	4661.1	3805.25
841.1643	847.3175	4586.8	3731.2
841.3095	849.368	4548.3	3690.35
841.4546	851.4179	4521.45	3664.65
841.5997	853.467	4505.65	3646.2
841.7448	855.5155	4550.2	3692.45
841.8899	857.5633	4557.7	3697.7
842.0351	859.6105	4559.95	3699.95
842.1802	861.6569	4528.25	3669.2
842.3253	863.7027	4460.3	3599.9
842.4704	865.7478	4386.3	3526.05
842.6156	867.7922	4348.3	3488.75
842.7607	869.8359	4306.1	3445.8
842.9058	871.8789	4279	3418.7
843.0509	873.9212	4289.3	3395.2
843.1961	875.9629	4282.65	3422.05
843.3412	878.0039	4320.1	3456
843.4863	880.0441	4378.95	3518.6
843.6315	882.0837	4441.25	3579.55
843.7766	884.1226	4512	3647.45
843.9218	886.1609	4652.4	3791.7
844.0669	888.1984	4841.45	3980.85
844.212	890.2352	5037.7	4177.55
844.3572	892.2714	5149.3	4283
844.5023	894.3069	5070.1	4207.9
844.6475	896.3416	4869.25	4005.9
844.7926	898.3757	4664.4	3800.55
844.9377	900.4091	4543.15	3679.2
845.0829	902.4418	4549.65	3681.35
845.228	904.4739	4633.15	3767.45
845.3732	906.5052	4738.25	3875.25
845.5183	908.5358	4757.85	3894.6
845.6635	910.5658	4698.4	3833.55
845.8086	912.595	4581.6	3718.25
845.9538	914.6236	4411.25	3545.15
846.0989	916.6515	4282.5	3418.8
846.2441	918.6786	4198.3	3330.3
846.3892	920.7051	4172	3302.85
846.5344	922.7309	4155.9	3291
846.6795	924.756	4129.6	3262.55
846.8246	926.7804	4161	3293.35
846.9698	928.8041	4200.45	3329.8
847.1149	930.8272	4295.3	3429
847.2601	932.8495	4330.35	3463.6
847.4052	934.8711	4334.6	3467.2
847.5504	936.892	4374.9	3507.8
847.6955	938.9123	4430.4	3562.25
847.8407	940.9318	4548.95	3683.2
847.9858	942.9506	4629.8	3761.95
848.131	944.9688	4634.35	3765.75
848.2761	946.9862	4560.35	3694.4
848.4213	949.003	4441.1	3570.9
848.5664	951.019	4320.5	3451.9
848.7115	953.0344	4257.45	3387.3
848.8567	955.0491	4191.7	3321.35
849.0018	957.063	4140.8	3270.95
849.147	959.0763	4123.15	3256.7
849.2921	961.0888	4122.2	3250.15
849.4373	963.1007	4124.8	3255.6
849.5824	965.1119	4086.15	3214.9
849.7275	967.1223	4037.8	3167.35
849.8727	969.1321	4019	3149.9
850.0178	971.1412	4001.6	3131.6
850.1629	973.1495	3980.75	3110.45
850.3081	975.1572	4022.05	3106.75
850.4532	977.1641	3991.35	3122.4
850.5983	979.1704	3995	3123.7
850.7435	981.1759	3989.8	3116.9
850.8886	983.1808	3960.9	3088.5
851.0337	985.1849	3923.95	3043
851.1788	987.1884	3907.7	3031.5
851.324	989.1911	3911.85	3038.2
851.4691	991.1932	3940.4	3066.85
851.6142	993.1945	3976.75	3103.75
851.7593	995.1951	3969.45	3096.05
851.9045	997.1951	3970.8	3092.75
852.0496	999.1943	3933	3061.7
852.1947	1001.1928	3932.35	3058.55
852.3398	1003.1906	3971.15	3096.1
852.4849	1005.1877	4051.75	3180.15
852.63	1007.1841	4166.05	3292.75
852.7751	1009.1798	4244.25	3372.25
852.9202	1011.1748	4234.75	3360.75
853.0653	1013.1691	4147.85	3274.1
853.2104	1015.1627	4010.7	3135.45
853.3555	1017.1556	3886.4	3012.15
853.5006	1019.1477	3794.05	2917.6
853.6457	1021.1392	3744.8	2871.6
853.7908	1023.1299	3702.9	2829.7
853.9359	1025.12	3693.8	2818.8
854.081	1027.1093	3707.25	2833
854.2261	1029.0979	3811.9	2938.8
854.3712	1031.0859	3863.55	2988.15
854.5163	1033.0731	3924.7	3048.05
854.6613	1035.0596	3956.75	3083.6
854.8064	1037.0454	3928.1	3052.5
854.9515	1039.0304	3897.65	3023.05
855.0965	1041.0148	3809.85	2933.95
855.2416	1042.9985	3730.9	2854.4
855.3867	1044.9814	3664.9	2792.05
855.5317	1046.9636	3620.3	2741.4
855.6768	1048.9452	3652.55	2777.7
855.8219	1050.926	3707.8	2832.15
855.9669	1052.9061	3785.6	2909.9
856.112	1054.8855	3824.75	2948.2
856.257	1056.8642	3844.3	2966.55
856.4021	1058.8421	3822.25	2940.75
856.5471	1060.8194	3804.5	2928.85
856.6921	1062.7959	3781.25	2904.7
856.8372	1064.7717	3775.6	2900.25
856.9822	1066.7469	3785.55	2909.45
857.1272	1068.7213	3781.6	2901.05
857.2723	1070.695	3812.35	2936.05
857.4173	1072.6679	3882	3002.9
857.5623	1074.6402	4002.75	3127.15
857.7073	1076.6117	4086.3	3201.55
857.8523	1078.5826	4066.85	3188.95
857.9973	1080.5527	3906.7	3026.1
858.1423	1082.5221	3743.9	2867.3
858.2873	1084.4908	3634.6	2753.3
858.4323	1086.4587	3551.55	2671.95
858.5773	1088.426	3517.75	2638.4
858.7223	1090.3925	3490.45	2608.2
858.8673	1092.3584	3502.7	2623.5
859.0123	1094.3235	3534.6	2655.15
859.1573	1096.2879	3595.9	2717.75
859.3022	1098.2515	3663.4	2782.7
859.4472	1100.2145	3772.2	2894
859.5922	1102.1767	3876.4	2996.2
859.7371	1104.1382	4025.35	3146
859.8821	1106.099	4229.4	3347.2
860.027	1108.0591	4440.05	3559.55
860.172	1110.0185	4615.25	3735.05
860.3169	1111.9771	4748.95	3869.55
860.4619	1113.9351	4925.5	4044
860.6068	1115.8923	5201.15	4321.85
860.7517	1117.8488	5437.5	4555.3
860.8967	1119.8045	5376.75	4496.2
861.0416	1121.7596	5034.7	4153.6
861.1865	1123.7139	4567.1	3686.35
861.3314	1125.6675	4246.85	3366.45
861.4763	1127.6204	4161	3280.45
861.6212	1129.5726	4238.05	3354.65
861.7661	1131.524	4301.5	3422.4
861.911	1133.4748	4193.2	3312.3
862.0559	1135.4248	3967.2	3083.9
862.2008	1137.3741	3723.35	2842.1
862.3457	1139.3226	3599.65	2717.05
862.4905	1141.2705	3555.05	2674.4
862.6354	1143.2176	3575.2	2689.35
862.7803	1145.164	3646.5	2762.25
862.9251	1147.1097	3673.8	2790.75
863.07	1149.0546	3627.85	2744.95
863.2148	1150.9989	3535.35	2653.2
863.3597	1152.9424	3431	2548.6
863.5045	1154.8852	3356.05	2472.45
863.6493	1156.8272	3318.5	2438.75
863.7942	1158.7686	3312.4	2423.35
863.939	1160.7092	3308.65	2425.6
864.0838	1162.6491	3314.8	2431.25
864.2286	1164.5883	3345.75	2463.95
864.3734	1166.5267	3401.3	2517
864.5182	1168.4644	3472.95	2592.95
864.663	1170.4014	3596.3	2709.25
864.8078	1172.3377	3730.5	2849.6
864.9526	1174.2732	3908.6	3026.5
865.0974	1176.2081	4148.5	3266.35
865.2421	1178.1421	4590.2	3704.35
865.3869	1180.0755	5138.5	4257.4
865.5317	1182.0082	5574.05	4690.9
865.6764	1183.9401	5656.3	4771.15
865.8212	1185.8713	5396.8	4513
865.9659	1187.8017	4885	4003.35
866.1106	1189.7315	4397.2	3516.75
866.2554	1191.6605	4020.8	3110.1
866.4001	1193.5888	3775.25	2891.35
866.5448	1195.5163	3632.85	2749.3
866.6895	1197.4432	3532.35	2649.15
866.8342	1199.3693	3461.95	2579.05
866.9789	1201.2947	3396.1	2504.55
867.1236	1203.2193	3365.6	2481.45
867.2683	1205.1432	3334	2450.25
867.413	1207.0664	3323.7	2438.45
867.5576	1208.9889	3327.8	2439.35
867.7023	1210.9106	3322.75	2436.7
867.847	1212.8316	3347.5	2462.75
867.9916	1214.7519	3379.7	2486.25
868.1363	1216.6715	3412.2	2530.05
868.2809	1218.5903	3465.85	2580.15
868.4255	1220.5084	3497.8	2612.55
868.5701	1222.4257	3551.35	2667
868.7148	1224.3424	3575.85	2692.85
868.8594	1226.2583	3633.35	2745.3
869.004	1228.1735	3737.8	2851.75
869.1486	1230.0879	3846.95	2961.15
869.2932	1232.0016	4002.7	3116.9
869.4377	1233.9146	4157.6	3270.25
869.5823	1235.8269	4224.7	3338.45
869.7269	1237.7384	4235.25	3349.75
869.8715	1239.6492	4225.2	3343.05
870.016	1241.5592	4265.05	3378.7
