Software Version:	3.9.2.0
Unit SN:	10000200
Spectrometer SN:	6960
Date:	3/14/2024 12:55:01 PM
Data Line Index:	25
Spectral Points:	2048
Integration time (ms):	125
Averages:	20
Delay (ms):	30000
Sequence Number:	1
Processing:	dark subtract
Laser Power (mW):	300
Laser Current (mA):	823
Laser Diode Temp (C):	25
Laser Case Temp (C):	27.8
System Temp (C):	27.9
Spectrometer Temp (C):	25.6
CCD Temp (C):	0
Secondary Temp (C):	20.006
Heatsink Temp (C):	23.657
CCDPCB Temp (C):	37.241
SecondaryPCB Temp (C):	34.728

Wavelength	RamanShift	Raw Counts	Dark Subtracted
787.061	30.1047	417.3	3.75
787.2016	32.3739	414.75	4.85
787.3422	34.6426	417.45	5.1
787.4828	36.9109	418.95	4.85
787.6235	39.1787	423.4	7.05
787.7642	41.4461	426.45	4.2
787.9049	43.7131	432.85	6.3
788.0456	45.9796	437.6	9
788.1863	48.2456	443.05	8.9
788.3271	50.5112	447.5	11.2
788.4679	52.7764	450.25	11.5
788.6087	55.0411	453.55	12.25
788.7496	57.3054	458.45	10.3
788.8904	59.5692	463.7	16.85
789.0313	61.8326	467.85	14.65
789.1722	64.0955	472.8	12.65
789.3132	66.3579	480.65	18.6
789.4541	68.6199	485.15	21.45
789.5951	70.8815	494.5	26.65
789.7361	73.1426	509.3	36.4
789.8771	75.4032	539	61.75
790.0181	77.6634	604.55	122.35
790.1592	79.9231	747.5	261.8
790.3003	82.1824	1066.55	572.4
790.4414	84.4412	1584.25	1081.4
790.5825	86.6995	2283.35	1769.5
790.7237	88.9574	2960.6	2436.75
790.8648	91.2148	3434.4	2904.3
791.006	93.4717	3674.35	3136.75
791.1472	95.7282	3748.15	3207.3
791.2885	97.9842	3779	3235.95
791.4297	100.2398	3741	3194.3
791.571	102.4949	3711.45	3163.4
791.7123	104.7495	3703.65	3149.05
791.8536	107.0036	3673.95	3120.9
791.9949	109.2573	3625.7	3075
792.1363	111.5105	3555.05	3000.85
792.2777	113.7632	3505.7	2950.35
792.4191	116.0154	3450.5	2883.4
792.5605	118.2672	3396.9	2837.5
792.7019	120.5185	3338.7	2776.55
792.8434	122.7693	3275.2	2710.8
792.9849	125.0197	3231.5	2663.95
793.1264	127.2696	3169.45	2601.05
793.2679	129.519	3168.8	2595.2
793.4094	131.7679	3133.15	2557.4
793.551	134.0163	3122.95	2544.8
793.6926	136.2642	3127.55	2543.4
793.8342	138.5117	3122.5	2536.95
793.9758	140.7587	3115.4	2528.55
794.1175	143.0052	3080.5	2491.05
794.2591	145.2512	3045.3	2455.4
794.4008	147.4967	3001.85	2408.95
794.5425	149.7417	2978.45	2383.85
794.6842	151.9863	2963.8	2365.4
794.826	154.2304	2953.1	2353.6
794.9677	156.4739	2953.1	2345.6
795.1095	158.717	2943.15	2338.4
795.2513	160.9596	2966.6	2356.35
795.3931	163.2017	2966.95	2357.85
795.535	165.4433	2975.8	2361.9
795.6768	167.6844	2959.75	2342.1
795.8187	169.925	2955.55	2333.75
795.9606	172.1651	2915.25	2293.55
796.1025	174.4047	2887.45	2259.85
796.2445	176.6439	2869.75	2241.55
796.3864	178.8825	2834.25	2203.65
796.5284	181.1206	2832.9	2199.95
796.6704	183.3582	2830.15	2192.65
796.8124	185.5954	2835.4	2196.4
796.9544	187.832	2821.2	2175.55
797.0965	190.0681	2827.7	2182.5
797.2386	192.3037	2828.35	2180.5
797.3806	194.5388	2822.05	2170.2
797.5228	196.7734	2831.4	2177.25
797.6649	199.0075	2833.4	2174.9
797.807	201.2411	2859.45	2196.75
797.9492	203.4742	2868.25	2208
798.0914	205.7068	2884.05	2221.65
798.2336	207.9389	2877.4	2215.95
798.3758	210.1704	2906.2	2242.15
798.518	212.4015	2902.65	2230.75
798.6603	214.632	2888.9	2218.9
798.8025	216.862	2897	2236.5
798.9448	219.0915	2901	2245.5
799.0871	221.3205	2885.75	2231.85
799.2294	223.549	2894.5	2247.75
799.3718	225.777	2884.35	2236.55
799.5141	228.0044	2881.7	2231.8
799.6565	230.2314	2865.85	2217.8
799.7989	232.4578	2855.95	2206.95
799.9413	234.6837	2853.45	2197.65
800.0837	236.909	2836	2178.1
800.2262	239.1339	2842.55	2162.15
800.3687	241.3582	2828.75	2160.95
800.5111	243.582	2844.4	2154.1
800.6536	245.8053	2848.6	2164.05
800.7961	248.0281	2832.35	2150.7
800.9387	250.2503	2841.85	2155.95
801.0812	252.472	2837.05	2145.95
801.2238	254.6932	2855.45	2160.6
801.3664	256.9139	2850.35	2154.75
801.509	259.134	2856.75	2161.15
801.6516	261.3536	2864	2167.15
801.7942	263.5727	2895.15	2195.65
801.9369	265.7912	2903.65	2208.65
802.0795	268.0092	2942.7	2244.5
802.2222	270.2267	2968.1	2266.9
802.3649	272.4436	3002.5	2300.1
802.5076	274.6601	3015.95	2304.65
802.6504	276.8759	3021.1	2314.7
802.7931	279.0913	3040.5	2334.05
802.9359	281.3061	3033.9	2327.45
803.0787	283.5204	3057.9	2349.3
803.2215	285.7341	3060.2	2347.15
803.3643	287.9473	3078.7	2361.45
803.5071	290.16	3073.45	2348.55
803.6499	292.3721	3035.45	2320.35
803.7928	294.5837	3029	2311.05
803.9357	296.7947	2995.2	2281.55
804.0786	299.0052	2988.05	2272.6
804.2215	301.2152	2979.15	2258.7
804.3644	303.4246	2958.2	2240.8
804.5074	305.6334	2946.5	2229.25
804.6503	307.8418	2936.15	2216.6
804.7933	310.0495	2899.5	2179
804.9363	312.2568	2881.5	2162.5
805.0793	314.4635	2848.7	2127.05
805.2223	316.6696	2816.25	2090.7
805.3653	318.8752	2779.8	2044.85
805.5084	321.0802	2766.45	2041.8
805.6514	323.2847	2756.05	2028.65
805.7945	325.4887	2753.85	2025.75
805.9376	327.692	2767.65	2038.7
806.0807	329.8949	2799.95	2071.3
806.2238	332.0972	2792.2	2059.75
806.367	334.2989	2820.2	2083.95
806.5101	336.5001	2797.1	2059.3
806.6533	338.7007	2791.1	2054.4
806.7965	340.9008	2759	2022.5
806.9397	343.1003	2727.75	1987.15
807.0829	345.2992	2701.5	1962.3
807.2261	347.4976	2671.45	1926.55
807.3693	349.6955	2650.55	1904
807.5126	351.8927	2628.75	1880.4
807.6559	354.0895	2627.95	1870.6
807.7991	356.2856	2615.75	1866.3
807.9424	358.4812	2603.8	1854.6
808.0857	360.6763	2597.7	1848.5
808.2291	362.8707	2588.2	1838.3
808.3724	365.0646	2580.95	1830.3
808.5158	367.258	2593.7	1840.85
808.6591	369.4508	2602.3	1844.75
808.8025	371.643	2618.7	1860.9
808.9459	373.8346	2630.9	1872.2
809.0893	376.0257	2652.95	1887.3
809.2327	378.2162	2662.5	1896.95
809.3762	380.4062	2660.15	1890.55
809.5196	382.5956	2648.75	1881.2
809.6631	384.7844	2617.6	1850.65
809.8066	386.9726	2589.4	1822.2
809.9501	389.1603	2570.1	1802
810.0936	391.3474	2580.25	1778.55
810.2371	393.5339	2553	1781.75
810.3806	395.7199	2544.75	1779.7
810.5241	397.9052	2551.05	1786.6
810.6677	400.09	2564.95	1801.95
810.8113	402.2743	2600.3	1838.9
810.9548	404.4579	2611.25	1851.25
811.0984	406.641	2639.25	1876.45
811.2421	408.8235	2659.75	1898.5
811.3857	411.0054	2707.75	1942.55
811.5293	413.1868	2770.95	2004.8
811.673	415.3675	2833.65	2067.15
811.8166	417.5477	2848.15	2078.55
811.9603	419.7273	2786.65	2015.8
812.104	421.9064	2689.2	1911.15
812.2477	424.0848	2638.35	1864
812.3914	426.2627	2592.3	1814.75
812.5351	428.4399	2561.05	1781.15
812.6788	430.6166	2516.85	1732.25
812.8226	432.7928	2482.45	1696.6
812.9663	434.9683	2455.5	1671.7
813.1101	437.1432	2425.8	1638.4
813.2539	439.3176	2409.8	1623.7
813.3977	441.4914	2395.65	1610.3
813.5415	443.6645	2393.75	1605.9
813.6853	445.8371	2399.35	1607.65
813.8291	448.0091	2390.65	1604.15
813.973	450.1806	2393.4	1605.3
814.1168	452.3514	2372.25	1580.95
814.2607	454.5216	2374.95	1573.65
814.4046	456.6913	2364.65	1570.4
814.5485	458.8603	2362.25	1567.65
814.6924	461.0288	2361.5	1571.7
814.8363	463.1967	2361.85	1566.8
814.9802	465.3639	2372.7	1576.2
815.1241	467.5306	2343.5	1547.9
815.2681	469.6967	2348.8	1550.65
815.412	471.8622	2323.7	1524.35
815.556	474.0271	2321.95	1526.45
815.7	476.1914	2336.3	1538.1
815.844	478.3551	2318.7	1522.2
815.988	480.5182	2335.5	1537.2
816.132	482.6807	2321.35	1522.5
816.276	484.8426	2334.75	1534.05
816.4201	487.0039	2361.15	1559.75
816.5641	489.1647	2390.55	1589.25
816.7082	491.3248	2413.35	1613.05
816.8522	493.4843	2418.35	1617.75
816.9963	495.6432	2416.25	1615.7
817.1404	497.8015	2396.8	1591.05
817.2845	499.9592	2372.7	1569
817.4286	502.1163	2339.05	1536.3
817.5727	504.2728	2305.85	1498.65
817.7168	506.4287	2291	1487.15
817.861	508.5839	2279.3	1474.75
818.0051	510.7386	2263.2	1461.9
818.1493	512.8927	2279.35	1465.15
818.2935	515.0461	2273.75	1467.1
818.4377	517.199	2274.2	1468.85
818.5818	519.3512	2307.05	1501.6
818.726	521.5029	2347.65	1536.4
818.8703	523.6539	2386.7	1575.85
819.0145	525.8043	2387.5	1577.85
819.1587	527.9541	2361.25	1546.25
819.303	530.1033	2300.8	1489.9
819.4472	532.2519	2277.25	1465.8
819.5915	534.3999	2257.85	1443.95
819.7357	536.5472	2256.1	1442.75
819.88	538.694	2254.1	1441.4
820.0243	540.8401	2265.2	1449.5
820.1686	542.9856	2270.45	1453.8
820.3129	545.1305	2270.35	1454.35
820.4572	547.2748	2281.95	1466.2
820.6016	549.4185	2278.9	1461.2
820.7459	551.5615	2288	1469.55
820.8902	553.704	2294.25	1476.2
821.0346	555.8458	2298.35	1481.85
821.1789	557.987	2315.25	1497.45
821.3233	560.1276	2324.45	1503.85
821.4677	562.2675	2354.55	1538.05
821.6121	564.4069	2392.1	1573.2
821.7565	566.5456	2410.3	1592.4
821.9009	568.6837	2412.8	1592.75
822.0453	570.8212	2374.1	1553.95
822.1897	572.958	2317.85	1498.75
822.3342	575.0942	2293.3	1475.6
822.4786	577.2299	2272.65	1452.55
822.6231	579.3648	2238.6	1416.9
822.7675	581.4992	2226.8	1403.85
822.912	583.6329	2228.1	1407.25
823.0565	585.766	2238.15	1417
823.201	587.8985	2254.25	1433.3
823.3454	590.0304	2288.8	1454.35
823.4899	592.1616	2308.1	1484.6
823.6345	594.2922	2301.55	1479.3
823.779	596.4222	2273.5	1450
823.9235	598.5515	2237.25	1410.75
824.068	600.6802	2193.65	1371.6
824.2126	602.8083	2174.1	1349.5
824.3571	604.9358	2164.55	1337.45
824.5017	607.0626	2170.3	1341.9
824.6462	609.1888	2162.35	1334.7
824.7908	611.3144	2176.55	1348.45
824.9354	613.4393	2198.95	1370.9
825.08	615.5636	2235	1403.65
825.2246	617.6873	2253.2	1425.5
825.3692	619.8103	2257.8	1428.4
825.5138	621.9327	2280.05	1447.15
825.6584	624.0544	2249.5	1420.65
825.803	626.1756	2217	1387.5
825.9477	628.2961	2174.65	1345.1
826.0923	630.4159	2167.35	1339.05
826.237	632.5351	2155.35	1323.5
826.3816	634.6537	2152.15	1321
826.5263	636.7716	2145.1	1309.9
826.6709	638.8889	2146.05	1310.05
826.8156	641.0056	2157.6	1325.35
826.9603	643.1216	2154.9	1320.25
827.105	645.237	2145.7	1311.9
827.2497	647.3518	2143.35	1307.1
827.3944	649.4659	2128.8	1294.3
827.5391	651.5793	2128.8	1292
827.6838	653.6922	2108.05	1271.1
827.8285	655.8043	2097.3	1263.3
827.9733	657.9159	2079.95	1242.75
828.118	660.0268	2079.2	1240.9
828.2627	662.137	2078.6	1240.95
828.4075	664.2466	2081.7	1243.95
828.5522	666.3556	2067.7	1231.5
828.697	668.4639	2065.5	1223.55
828.8418	670.5716	2074.15	1235.5
828.9865	672.6786	2059.85	1220.25
829.1313	674.785	2056.5	1215.9
829.2761	676.8907	2043.1	1204.5
829.4209	678.9958	2048.9	1211.85
829.5657	681.1002	2055	1213.85
829.7105	683.204	2047.55	1204.55
829.8553	685.3072	2045.6	1202.5
830.0001	687.4097	2044.1	1203.5
830.1449	689.5115	2058.7	1215.35
830.2898	691.6127	2036.1	1193.3
830.4346	693.7132	2036.45	1192.35
830.5794	695.8131	2044.4	1191.9
830.7243	697.9123	2048.6	1204.7
830.8691	700.0109	2035.05	1190.55
831.014	702.1089	2040.65	1195.6
831.1588	704.2061	2059.6	1216.8
831.3037	706.3028	2071.5	1224.95
831.4486	708.3987	2074.1	1229.35
831.5935	710.4941	2070.9	1227.3
831.7383	712.5887	2087.05	1239.55
831.8832	714.6827	2087.35	1239.7
832.0281	716.7761	2081.5	1235.15
832.173	718.8688	2075.5	1228.65
832.3179	720.9608	2080.45	1231.85
832.4628	723.0522	2092.1	1245.75
832.6077	725.1429	2101.4	1254.35
832.7527	727.233	2113.05	1266.6
832.8976	729.3224	2153.95	1306.85
833.0425	731.4112	2184.1	1335.2
833.1874	733.4993	2192.95	1344.85
833.3324	735.5867	2173.05	1323.75
833.4773	737.6735	2126.85	1276.6
833.6222	739.7596	2100	1249.1
833.7672	741.845	2078.45	1229.45
833.9122	743.9298	2086.95	1234.75
834.0571	746.014	2086.95	1238.5
834.2021	748.0974	2101.2	1251.35
834.347	750.1802	2095.05	1243.95
834.492	752.2624	2082.95	1234.65
834.637	754.3439	2066.85	1213.4
834.782	756.4247	2065.25	1206.45
834.9269	758.5048	2045.7	1193.65
835.0719	760.5843	2064.3	1214.4
835.2169	762.6631	2073.15	1222
835.3619	764.7413	2102.05	1250.6
835.5069	766.8188	2150.05	1299.75
835.6519	768.8956	2193	1338.9
835.7969	770.9718	2210.25	1358.4
835.9419	773.0473	2216.3	1364.5
836.0869	775.1221	2195	1340.75
836.232	777.1962	2181.4	1326.9
836.377	779.2697	2216.1	1361.05
836.522	781.3426	2290.1	1426.1
836.667	783.4147	2307.5	1452.3
836.8121	785.4862	2298.35	1446.5
836.9571	787.557	2260.5	1407.25
837.1021	789.6271	2168.95	1313.85
837.2472	791.6966	2095.85	1240.8
837.3922	793.7654	2031.85	1176.8
837.5373	795.8335	2020.15	1164.75
837.6823	797.901	1984.35	1130.35
837.8274	799.9678	1984.4	1126.95
837.9724	802.0339	1965.9	1113.15
838.1175	804.0993	1978.75	1113
838.2626	806.1641	1975.3	1118.3
838.4076	808.2282	1956.75	1101.2
838.5527	810.2916	1937.5	1078.6
838.6978	812.3544	1938.25	1081.8
838.8428	814.4164	1928.8	1072.2
838.9879	816.4778	1941.3	1083
839.133	818.5385	1931	1074.45
839.2781	820.5986	1964.9	1108.95
839.4232	822.658	1993.05	1132.6
839.5682	824.7166	2030	1174.75
839.7133	826.7747	2069.85	1212.7
839.8584	828.832	2114.7	1256.85
840.0035	830.8886	2154.8	1296.45
840.1486	832.9446	2172.1	1314.4
840.2937	834.9999	2151.2	1296.15
840.4388	837.0545	2104.95	1241.6
840.5839	839.1085	2064.7	1204.9
840.729	841.1618	2019.95	1157.4
840.8741	843.2143	1982.3	1123.4
841.0192	845.2662	1964.3	1106.35
841.1643	847.3175	1948.25	1088.95
841.3095	849.368	1940.5	1079.8
841.4546	851.4179	1936.35	1078.05
841.5997	853.467	1930.25	1070.65
841.7448	855.5155	1937.55	1078.35
841.8899	857.5633	1929.1	1069.1
842.0351	859.6105	1933.85	1073.6
842.1802	861.6569	1922.65	1062.8
842.3253	863.7027	1903.9	1043.9
842.4704	865.7478	1902.3	1039.2
842.6156	867.7922	1891.8	1028
842.7607	869.8359	1882.65	1020.95
842.9058	871.8789	1882.25	1019.35
843.0509	873.9212	1910.95	1016.8
843.1961	875.9629	1890.9	1028.9
843.3412	878.0039	1895.7	1031.9
843.4863	880.0441	1899.95	1038.55
843.6315	882.0837	1915.35	1051.95
843.7766	884.1226	1927.6	1063.25
843.9218	886.1609	1947.25	1085.1
844.0669	888.1984	1969.05	1107.75
844.212	890.2352	1993.2	1131.75
844.3572	892.2714	2000.35	1135.05
844.5023	894.3069	1992.15	1127.5
844.6475	896.3416	1956.45	1091.15
844.7926	898.3757	1925.9	1062.1
844.9377	900.4091	1914.75	1050.9
845.0829	902.4418	1925.9	1056.75
845.228	904.4739	1918.45	1052.3
845.3732	906.5052	1931.05	1067.4
845.5183	908.5358	1917.45	1054.6
845.6635	910.5658	1912.25	1046.3
845.8086	912.595	1887.6	1024.15
845.9538	914.6236	1877.45	1013.45
846.0989	916.6515	1843.2	980.3
846.2441	918.6786	1844.85	979.1
846.3892	920.7051	1830.1	962.75
846.5344	922.7309	1828.15	961.95
846.6795	924.756	1814.65	946.6
846.8246	926.7804	1824.3	957.3
846.9698	928.8041	1824.45	956.25
847.1149	930.8272	1850.2	983.55
847.2601	932.8495	1844.95	975
847.4052	934.8711	1852.15	987.15
847.5504	936.892	1848	983.1
847.6955	938.9123	1850.7	984.45
847.8407	940.9318	1876.9	1010.85
847.9858	942.9506	1878.65	1009.55
848.131	944.9688	1865.55	999.25
848.2761	946.9862	1855	987
848.4213	949.003	1831.15	963.95
848.5664	951.019	1816.25	948.35
848.7115	953.0344	1801.95	934.35
848.8567	955.0491	1795.4	928.4
849.0018	957.063	1791.55	923.6
849.147	959.0763	1790.3	926.05
849.2921	961.0888	1779.8	911
849.4373	963.1007	1790.45	921.1
849.5824	965.1119	1774.4	906
849.7275	967.1223	1772.25	904.7
849.8727	969.1321	1773.95	906.15
850.0178	971.1412	1764.45	893.85
850.1629	973.1495	1765.1	895.75
850.3081	975.1572	1799.15	890.85
850.4532	977.1641	1763.1	894.8
850.5983	979.1704	1766.6	898
850.7435	981.1759	1756.2	883.25
850.8886	983.1808	1752.35	881.2
851.0337	985.1849	1760.55	880.35
851.1788	987.1884	1748.05	876.1
851.324	989.1911	1740.6	869.7
851.4691	991.1932	1749.55	877.1
851.6142	993.1945	1746.25	875.1
851.7593	995.1951	1740.75	871.1
851.9045	997.1951	1751.55	874.7
852.0496	999.1943	1740.5	871.55
852.1947	1001.1928	1735	862.3
852.3398	1003.1906	1734.8	863.7
852.4849	1005.1877	1760.9	887.05
852.63	1007.1841	1759	886.95
852.7751	1009.1798	1768.5	899.3
852.9202	1011.1748	1760.5	891.9
853.0653	1013.1691	1740.7	868.15
853.2104	1015.1627	1721.4	849.55
853.3555	1017.1556	1707.1	835.35
853.5006	1019.1477	1692.95	820.45
853.6457	1021.1392	1679.55	809.95
853.7908	1023.1299	1672.1	801.35
853.9359	1025.12	1671.2	798.75
854.081	1027.1093	1672.05	800.65
854.2261	1029.0979	1688	816.55
854.3712	1031.0859	1694.05	822.75
854.5163	1033.0731	1700.65	827.25
854.6613	1035.0596	1696.8	826.85
854.8064	1037.0454	1685.6	814.65
854.9515	1039.0304	1676.35	802.65
855.0965	1041.0148	1667.7	795.8
855.2416	1042.9985	1656.7	781.85
855.3867	1044.9814	1644.45	774.4
855.5317	1046.9636	1648.7	773
855.6768	1048.9452	1640.15	768.4
855.8219	1050.926	1652.6	779.55
855.9669	1052.9061	1660.6	787.3
856.112	1054.8855	1662.35	788.75
856.257	1056.8642	1654.85	782.2
856.4021	1058.8421	1654.45	778.35
856.5471	1060.8194	1652.25	779.6
856.6921	1062.7959	1645.95	771.4
856.8372	1064.7717	1653.2	779.7
856.9822	1066.7469	1648.2	774.85
857.1272	1068.7213	1648.8	773.55
857.2723	1070.695	1652.85	779.45
857.4173	1072.6679	1655.2	782.2
857.5623	1074.6402	1669.45	795.8
857.7073	1076.6117	1679.6	797.85
857.8523	1078.5826	1664.15	787.75
857.9973	1080.5527	1645.85	769.5
858.1423	1082.5221	1617.95	743.75
858.2873	1084.4908	1602.7	729.05
858.4323	1086.4587	1596.85	722.2
858.5773	1088.426	1590.2	715.25
858.7223	1090.3925	1591.9	711.3
858.8673	1092.3584	1581.8	709.4
859.0123	1094.3235	1591.25	717.8
859.1573	1096.2879	1594.15	718.35
859.3022	1098.2515	1608.1	733.5
859.4472	1100.2145	1620.2	746.4
859.5922	1102.1767	1646.15	768.7
859.7371	1104.1382	1663.9	788.4
859.8821	1106.099	1694.8	817
860.027	1108.0591	1719.2	845.4
860.172	1110.0185	1736.3	860.45
860.3169	1111.9771	1762.15	888.55
860.4619	1113.9351	1783.95	908.65
860.6068	1115.8923	1812.85	937.55
860.7517	1117.8488	1835.6	955.35
860.8967	1119.8045	1808.85	933.15
861.0416	1121.7596	1746.35	870.55
861.1865	1123.7139	1690.2	814.95
861.3314	1125.6675	1654.1	779.8
861.4763	1127.6204	1654.85	778.6
861.6212	1129.5726	1658.65	780.85
861.7661	1131.524	1656.35	780.6
861.911	1133.4748	1632.6	756.9
862.0559	1135.4248	1610.05	733.65
862.2008	1137.3741	1580.3	703.05
862.3457	1139.3226	1562.85	686.3
862.4905	1141.2705	1553.5	676.85
862.6354	1143.2176	1561.75	681.25
862.7803	1145.164	1568.65	691.6
862.9251	1147.1097	1564.8	687
863.07	1149.0546	1552.4	675.1
863.2148	1150.9989	1538.2	660.6
863.3597	1152.9424	1522.95	645.15
863.5045	1154.8852	1510.85	635
863.6493	1156.8272	1501.85	626.55
863.7942	1158.7686	1511.05	627.8
863.939	1160.7092	1505	628.5
864.0838	1162.6491	1509.35	630
864.2286	1164.5883	1522.4	645.85
864.3734	1166.5267	1522.6	643.2
864.5182	1168.4644	1537	660.9
864.663	1170.4014	1551.6	669.5
864.8078	1172.3377	1563.55	687.4
864.9526	1174.2732	1602.2	727.2
865.0974	1176.2081	1643.3	765.4
865.2421	1178.1421	1710.9	830.05
865.3869	1180.0755	1764.7	888.45
865.5317	1182.0082	1812.8	933.65
865.6764	1183.9401	1793.85	915.3
865.8212	1185.8713	1737.1	860.65
865.9659	1187.8017	1667.2	789.9
866.1106	1189.7315	1609.6	732.65
866.2554	1191.6605	1591.45	684.6
866.4001	1193.5888	1547.05	668.25
866.5448	1195.5163	1525.3	648.75
866.6895	1197.4432	1504.35	626.05
866.8342	1199.3693	1494.2	615.45
866.9789	1201.2947	1492.1	608.9
867.1236	1203.2193	1483.7	605.5
867.2683	1205.1432	1471.4	594.45
867.413	1207.0664	1475.2	596.65
867.5576	1208.9889	1471	588.5
867.7023	1210.9106	1477.55	599.75
867.847	1212.8316	1465.1	588.1
867.9916	1214.7519	1482.1	593.85
868.1363	1216.6715	1483.2	606.7
868.2809	1218.5903	1489.35	610.75
868.4255	1220.5084	1495.4	616.35
868.5701	1222.4257	1500.15	621.5
868.7148	1224.3424	1504.6	627.1
868.8594	1226.2583	1514.65	630.1
869.004	1228.1735	1533.7	653.05
869.1486	1230.0879	1547.15	668.65
869.2932	1232.0016	1566.8	687.85
869.4377	1233.9146	1589.4	709.2
869.5823	1235.8269	1601.85	724.5
869.7269	1237.7384	1601.7	723.4
869.8715	1239.6492	1601.6	722.45
870.016	1241.5592	1610	729.3
870.1606	1243.4686	1634.9	757.25
870.3051	1245.3772	1669.55	790.75
870.4496	1247.285	1713.8	835.4
870.5941	1249.1922	1754.15	875.35
870.7387	1251.0986	1805.55	927.7
