Software Version:	3.9.2.0
Unit SN:	10000200
Spectrometer SN:	6960
Date:	3/14/2024 1:13:18 PM
Data Line Index:	25
Spectral Points:	2048
Integration time (ms):	125
Averages:	20
Delay (ms):	30000
Sequence Number:	1
Processing:	dark subtract
Laser Power (mW):	305
Laser Current (mA):	825
Laser Diode Temp (C):	25.1
Laser Case Temp (C):	28.1
System Temp (C):	28.2
Spectrometer Temp (C):	26.1
CCD Temp (C):	0.008
Secondary Temp (C):	19.998
Heatsink Temp (C):	24.07
CCDPCB Temp (C):	37.641
SecondaryPCB Temp (C):	35.384

Wavelength	RamanShift	Raw Counts	Dark Subtracted
787.061	30.1047	440.4	30.65
787.2016	32.3739	445	36.1
787.3422	34.6426	445.95	35.45
787.4828	36.9109	450	37.6
787.6235	39.1787	459.5	43.9
787.7642	41.4461	467.4	48.2
787.9049	43.7131	471.95	47.45
788.0456	45.9796	480.3	53.55
788.1863	48.2456	486.2	54.85
788.3271	50.5112	494.65	57.9
788.4679	52.7764	497.65	59.55
788.6087	55.0411	507.3	67
788.7496	57.3054	516.7	71.75
788.8904	59.5692	523.2	75.35
789.0313	61.8326	534.1	80.45
789.1722	64.0955	543.8	87.05
789.3132	66.3579	556.4	94.05
789.4541	68.6199	567.2	103.75
789.5951	70.8815	594.45	126.55
789.7361	73.1426	647.5	175.5
789.8771	75.4032	785.6	307.95
790.0181	77.6634	1120.65	636.35
790.1592	79.9231	1908.45	1420.05
790.3003	82.1824	3608.4	3114.75
790.4414	84.4412	6611.95	6104.45
790.5825	86.6995	10843.75	10322.45
790.7237	88.9574	14966.75	14432.1
790.8648	91.2148	17852.5	17309.45
791.006	93.4717	19231.15	18682.25
791.1472	95.7282	19506.65	18949.65
791.2885	97.9842	19371.75	18816.55
791.4297	100.2398	18897.95	18335.9
791.571	102.4949	18398.05	17834.2
791.7123	104.7495	17828.4	17261.9
791.8536	107.0036	17224.1	16656.45
791.9949	109.2573	16680.8	16114.15
792.1363	111.5105	16212	15643
792.2777	113.7632	15771.25	15199.65
792.4191	116.0154	15398.65	14817.85
792.5605	118.2672	15139.95	14563.55
792.7019	120.5185	14876.5	14302.75
792.8434	122.7693	14685.9	14107.55
792.9849	125.0197	14530.9	13949.4
793.1264	127.2696	14345.5	13760.25
793.2679	129.519	14228.75	13642.15
793.4094	131.7679	14039.95	13451.4
793.551	134.0163	13872.8	13277.75
793.6926	136.2642	13694.6	13097.8
793.8342	138.5117	13444.05	12843.75
793.9758	140.7587	13215.3	12611.6
794.1175	143.0052	13027.9	12425.05
794.2591	145.2512	12756.15	12151.75
794.4008	147.4967	12562.6	11958.15
794.5425	149.7417	12394.4	11786.95
794.6842	151.9863	12281.7	11669.5
794.826	154.2304	12221.05	11607.4
794.9677	156.4739	12137.45	11516.85
795.1095	158.717	12055.05	11437.65
795.2513	160.9596	11943.5	11317.5
795.3931	163.2017	11803.2	11176.5
795.535	165.4433	11613.85	10988.4
795.6768	167.6844	11408.6	10778.9
795.8187	169.925	11211.2	10576.5
795.9606	172.1651	10976.7	10342.15
796.1025	174.4047	10805.25	10167.15
796.2445	176.6439	10634.85	9992.15
796.3864	178.8825	10484.7	9841.75
796.5284	181.1206	10405.6	9754.95
796.6704	183.3582	10315.1	9663.4
796.8124	185.5954	10260.25	9605.45
796.9544	187.832	10208.4	9554.1
797.0965	190.0681	10195.25	9534.4
797.2386	192.3037	10176.55	9514.1
797.3806	194.5388	10163.55	9498.6
797.5228	196.7734	10195.95	9530.4
797.6649	199.0075	10245	9576.95
797.807	201.2411	10295.15	9620.7
797.9492	203.4742	10387.65	9712.35
798.0914	205.7068	10455.05	9780.3
798.2336	207.9389	10513.85	9839.15
798.3758	210.1704	10610.2	9931.35
798.518	212.4015	10657.5	9976.35
798.6603	214.632	10767.5	10086.1
798.8025	216.862	10840.3	10165.9
798.9448	219.0915	10885.15	10217.6
799.0871	221.3205	10923.95	10258
799.2294	223.549	10969.9	10311.45
799.3718	225.777	11032.95	10374.3
799.5141	228.0044	11094.8	10433.35
799.6565	230.2314	11173.8	10513
799.7989	232.4578	11259.45	10596.55
799.9413	234.6837	11318.2	10645.25
800.0837	236.909	11378.7	10705.4
800.2262	239.1339	11349.45	10655.1
800.3687	241.3582	11334.75	10654.95
800.5111	243.582	11245.7	10540.85
800.6536	245.8053	11195	10497.3
800.7961	248.0281	11152.45	10460.25
800.9387	250.2503	11113.05	10415.1
801.0812	252.472	11147.05	10443.3
801.2238	254.6932	11204.25	10497.35
801.3664	256.9139	11267.1	10560.75
801.509	259.134	11384	10670.45
801.6516	261.3536	11515.1	10808.55
801.7942	263.5727	11708.6	10995.3
801.9369	265.7912	11849.1	11136.9
802.0795	268.0092	12040.5	11330.85
802.2222	270.2267	12148.3	11436.2
802.3649	272.4436	12250	11537.1
802.5076	274.6601	12275.05	11552.8
802.6504	276.8759	12226.7	11511.55
802.7931	279.0913	12166.3	11446.2
802.9359	281.3061	12085.75	11365.3
803.0787	283.5204	12039.25	11319
803.2215	285.7341	12027.45	11302.85
803.3643	287.9473	12019.35	11292
803.5071	290.16	12054.65	11320.2
803.6499	292.3721	12116.85	11390.85
803.7928	294.5837	12232.55	11505.05
803.9357	296.7947	12353.7	11627.15
804.0786	299.0052	12439.05	11708.95
804.2215	301.2152	12422.9	11689.4
804.3644	303.4246	12323.05	11595.35
804.5074	305.6334	12098.75	11371.85
804.6503	307.8418	11855.25	11124.75
804.7933	310.0495	11575.75	10841
804.9363	312.2568	11322.95	10589.7
805.0793	314.4635	11079.8	10343.75
805.2223	316.6696	10858.45	10120.9
805.3653	318.8752	10694.3	9952.3
805.5084	321.0802	10641.75	9904.7
805.6514	323.2847	10677.35	9937.35
805.7945	325.4887	10673.35	9932.2
805.9376	327.692	10650.25	9910.35
806.0807	329.8949	10635.05	9896.25
806.2238	332.0972	10536	9792.75
806.367	334.2989	10425.4	9678.95
806.5101	336.5001	10274.4	9529.15
806.6533	338.7007	10132.6	9385.45
806.7965	340.9008	10019	9271.25
806.9397	343.1003	9918.65	9167.65
807.0829	345.2992	9817.3	9066.15
807.2261	347.4976	9757.7	9004.5
807.3693	349.6955	9695.1	8938.4
807.5126	351.8927	9687.45	8931.3
807.6559	354.0895	9640.65	8870.4
807.7991	356.2856	9593.75	8835.6
807.9424	358.4812	9573.65	8814.6
808.0857	360.6763	9550.3	8792.55
808.2291	362.8707	9513.95	8752.95
808.3724	365.0646	9532.2	8767.15
808.5158	367.258	9589.1	8824.5
808.6591	369.4508	9603.7	8838.35
808.8025	371.643	9689.15	8921.4
808.9459	373.8346	9715.6	8943.45
809.0893	376.0257	9782.5	9005.25
809.2327	378.2162	9788.2	9014.1
809.3762	380.4062	9769.4	8992.4
809.5196	382.5956	9703.35	8927.25
809.6631	384.7844	9669.3	8893.15
809.8066	386.9726	9544.35	8762.8
809.9501	389.1603	9475.85	8697.65
810.0936	391.3474	9451.9	8642.6
810.2371	393.5339	9408.8	8629.3
810.3806	395.7199	9379.35	8605.35
810.5241	397.9052	9399.8	8628.85
810.6677	400.09	9445.55	8674.25
810.8113	402.2743	9524.5	8755.45
810.9548	404.4579	9631.35	8861.8
811.0984	406.641	9764.45	8995.25
811.2421	408.8235	9867.8	9097.15
811.3857	411.0054	9961.9	9189.4
811.5293	413.1868	10090.8	9316.65
811.673	415.3675	10128.45	9352.45
811.8166	417.5477	10140.65	9363.45
811.9603	419.7273	10080.05	9299.15
812.104	421.9064	9996.7	9208.65
812.2477	424.0848	9961.7	9177.05
812.3914	426.2627	9857.75	9070.9
812.5351	428.4399	9682.05	8892.65
812.6788	430.6166	9496.7	8705.75
812.8226	432.7928	9285.65	8494.35
812.9663	434.9683	9053.6	8261.55
813.1101	437.1432	8920.75	8124.35
813.2539	439.3176	8802.75	8009.7
813.3977	441.4914	8707.4	7914.1
813.5415	443.6645	8684.4	7884.5
813.6853	445.8371	8649.95	7855.35
813.8291	448.0091	8617.9	7820.9
813.973	450.1806	8602.7	7804.7
814.1168	452.3514	8566.45	7766.4
814.2607	454.5216	8593.5	7784.4
814.4046	456.6913	8576.25	7776.3
814.5485	458.8603	8618.05	7819.7
814.6924	461.0288	8630	7829.25
814.8363	463.1967	8620.05	7819.85
814.9802	465.3639	8622.8	7821.8
815.1241	467.5306	8600.15	7794.95
815.2681	469.6967	8606.65	7803.9
815.412	471.8622	8615.5	7810.55
815.556	474.0271	8639.75	7837.65
815.7	476.1914	8649.6	7842.7
815.844	478.3551	8664.85	7859.65
815.988	480.5182	8662.45	7858
816.132	482.6807	8729.45	7921.95
816.276	484.8426	8809	8002.7
816.4201	487.0039	9047.45	8239.55
816.5641	489.1647	9292.45	8484.15
816.7082	491.3248	9488.45	8681.2
816.8522	493.4843	9546.1	8736.85
816.9963	495.6432	9502.5	8695.45
817.1404	497.8015	9374.7	8563.3
817.2845	499.9592	9316.35	8508.4
817.4286	502.1163	9194.7	8386.2
817.5727	504.2728	8963.9	8150.25
817.7168	506.4287	8817.8	8008
817.861	508.5839	8602.95	7790.8
818.0051	510.7386	8456.2	7644.6
818.1493	512.8927	8431.8	7610.8
818.2935	515.0461	8404.7	7591.6
818.4377	517.199	8452.75	7641.75
818.5818	519.3512	8540.65	7725.65
818.726	521.5029	8722.75	7902.25
818.8703	523.6539	8893.25	8078
819.0145	525.8043	8938.7	8120.5
819.1587	527.9541	8883.4	8066.8
819.303	530.1033	8742	7924.6
819.4472	532.2519	8643.85	7826.05
819.5915	534.3999	8598.7	7779.9
819.7357	536.5472	8624.4	7803.85
819.88	538.694	8770.05	7950.7
820.0243	540.8401	8911	8091.2
820.1686	542.9856	9053.35	8231
820.3129	545.1305	9069.45	8246.6
820.4572	547.2748	9020.2	8196.3
820.6016	549.4185	8898.45	8073.25
820.7459	551.5615	8786.95	7962.1
820.8902	553.704	8788.9	7965.85
821.0346	555.8458	8815	7994
821.1789	557.987	8920.05	8098.15
821.3233	560.1276	9078.45	8250.4
821.4677	562.2675	9302.2	8477.35
821.6121	564.4069	9600.6	8776.85
821.7565	566.5456	9880.6	9058.1
821.9009	568.6837	9996.05	9168.95
822.0453	570.8212	9734.1	8909.75
822.1897	572.958	9302.65	8474.9
822.3342	575.0942	8885.2	8059.9
822.4786	577.2299	8599.75	7772.9
822.6231	579.3648	8451.4	7624.05
822.7675	581.4992	8406.3	7579.45
822.912	583.6329	8470.4	7644
823.0565	585.766	8568.9	7743.5
823.201	587.8985	8671.7	7846.95
823.3454	590.0304	8722.55	7873.4
823.4899	592.1616	8691	7862.4
823.6345	594.2922	8623.1	7798.25
823.779	596.4222	8485.2	7656.85
823.9235	598.5515	8353.7	7524.7
824.068	600.6802	8218.45	7386.95
824.2126	602.8083	8129.4	7296.75
824.3571	604.9358	8109.75	7280.45
824.5017	607.0626	8085.35	7253.55
824.6462	609.1888	8152.45	7319.45
824.7908	611.3144	8244.85	7410.8
824.9354	613.4393	8326.4	7494.1
825.08	615.5636	8388.85	7553.55
825.2246	617.6873	8398.55	7562.85
825.3692	619.8103	8366.5	7532.55
825.5138	621.9327	8246.6	7410.6
825.6584	624.0544	8108.7	7276.15
825.803	626.1756	8009	7177
825.9477	628.2961	7902.8	7066.5
826.0923	630.4159	7841.35	7006.85
826.237	632.5351	7822.85	6987.1
826.3816	634.6537	7794.95	6959.85
826.5263	636.7716	7805.9	6968.9
826.6709	638.8889	7798.05	6960.35
826.8156	641.0056	7833.65	6994.35
826.9603	643.1216	7803.1	6965.65
827.105	645.237	7779.7	6938.15
827.2497	647.3518	7719.5	6880.1
827.3944	649.4659	7683	6843.75
827.5391	651.5793	7654.7	6814.65
827.6838	653.6922	7595.8	6756.8
827.8285	655.8043	7587.35	6748.9
827.9733	657.9159	7580.05	6739.65
828.118	660.0268	7574.7	6728.75
828.2627	662.137	7557	6715.6
828.4075	664.2466	7567.5	6724.8
828.5522	666.3556	7573.6	6732.4
828.697	668.4639	7513.75	6669.3
828.8418	670.5716	7496.65	6653.35
828.9865	672.6786	7461.5	6621.7
829.1313	674.785	7421.2	6578.5
829.2761	676.8907	7430.3	6584.45
829.4209	678.9958	7406.2	6565.25
829.5657	681.1002	7375.75	6529.1
829.7105	683.204	7361.45	6514.85
829.8553	685.3072	7351.65	6507.1
830.0001	687.4097	7326.4	6480.75
830.1449	689.5115	7339.9	6491.75
830.2898	691.6127	7324.8	6479.15
830.4346	693.7132	7297.45	6451.2
830.5794	695.8131	7308.45	6445.6
830.7243	697.9123	7321.65	6473.7
830.8691	700.0109	7325.2	6478.25
831.014	702.1089	7354.15	6507.6
831.1588	704.2061	7378.1	6529.85
831.3037	706.3028	7425.4	6573.7
831.4486	708.3987	7432.8	6583.55
831.5935	710.4941	7460.65	6611.9
831.7383	712.5887	7472.25	6621.9
831.8832	714.6827	7526.55	6671.65
832.0281	716.7761	7597.45	6749.8
832.173	718.8688	7705	6853.85
832.3179	720.9608	7784.05	6932.45
832.4628	723.0522	7846.6	6995.3
832.6077	725.1429	7900.6	7050.5
832.7527	727.233	7946.7	7095.9
832.8976	729.3224	7962.7	7109.95
833.0425	731.4112	7935.9	7082.5
833.1874	733.4993	7846.55	6990.95
833.3324	735.5867	7700	6846.75
833.4773	737.6735	7540.35	6688.25
833.6222	739.7596	7400.25	6546.15
833.7672	741.845	7324.85	6471.85
833.9122	743.9298	7263.7	6408.15
834.0571	746.014	7243.65	6390.2
834.2021	748.0974	7216.3	6361.25
834.347	750.1802	7226.5	6373.5
834.492	752.2624	7236.1	6382
834.637	754.3439	7233	6376.45
834.782	756.4247	7330.4	6467.4
834.9269	758.5048	7406.8	6553.5
835.0719	760.5843	7548.5	6693.05
835.2169	762.6631	7783.55	6930.35
835.3619	764.7413	8144.75	7293.2
835.5069	766.8188	8583.15	7726.3
835.6519	768.8956	8954.05	8094.15
835.7969	770.9718	9216.45	8361.75
835.9419	773.0473	9170.25	8315.3
836.0869	775.1221	9005.65	8149.6
836.232	777.1962	8850	7990.95
836.377	779.2697	8791.55	7933.4
836.522	781.3426	8870.8	8007.4
836.667	783.4147	8938.05	8079.35
836.8121	785.4862	8960	8104.7
836.9571	787.557	8850.85	7991.95
837.1021	789.6271	8525	7666.85
837.2472	791.6966	8102.2	7244.15
837.3922	793.7654	7726.65	6869.85
837.5373	795.8335	7454.65	6597.55
837.6823	797.901	7255.55	6397.75
837.8274	799.9678	7151.15	6291.2
837.9724	802.0339	7083.65	6226.1
838.1175	804.0993	7075.7	6207.45
838.2626	806.1641	7027.55	6167.9
838.4076	808.2282	6962.4	6102.2
838.5527	810.2916	6929.7	6067.2
838.6978	812.3544	6883.15	6026.6
838.8428	814.4164	6855.05	5999
838.9879	816.4778	6863.45	6003.8
839.133	818.5385	6868.65	6009.2
839.2781	820.5986	6970	6112.65
839.4232	822.658	7107.65	6246.3
839.5682	824.7166	7318	6459.05
839.7133	826.7747	7635.55	6775.65
839.8584	828.832	7956.05	7094.95
840.0035	830.8886	8200.05	7338.45
840.1486	832.9446	8318.8	7459.9
840.2937	834.9999	8266.65	7407.25
840.4388	837.0545	8055	7193.15
840.5839	839.1085	7834.35	6971
840.729	841.1618	7606	6740.35
840.8741	843.2143	7443.85	6584.5
841.0192	845.2662	7296.6	6437.15
841.1643	847.3175	7220.7	6360.9
841.3095	849.368	7118.8	6257.9
841.4546	851.4179	7086.75	6223.8
841.5997	853.467	7024.2	6164.05
841.7448	855.5155	6995.8	6132.35
841.8899	857.5633	6928.35	6067.95
842.0351	859.6105	6871.85	6007.6
842.1802	861.6569	6807.85	5947.6
842.3253	863.7027	6757.3	5892.45
842.4704	865.7478	6726.35	5860
842.6156	867.7922	6697.4	5832.5
842.7607	869.8359	6662.75	5800.4
842.9058	871.8789	6698	5834.65
843.0509	873.9212	6744.7	5843.8
843.1961	875.9629	6773.55	5910.25
843.3412	878.0039	6848.3	5983.25
843.4863	880.0441	6870.35	6006.9
843.6315	882.0837	6927.25	6062
843.7766	884.1226	6954.55	6086.8
843.9218	886.1609	6985.85	6122.25
844.0669	888.1984	7044.6	6182.55
844.212	890.2352	7145.45	6282.75
844.3572	892.2714	7163.5	6294.35
844.5023	894.3069	7105.9	6240.8
844.6475	896.3416	7001.8	6136.95
844.7926	898.3757	6893.45	6027.8
844.9377	900.4091	6819.65	5953.35
845.0829	902.4418	6826.85	5957.25
845.228	904.4739	6826.45	5959.15
845.3732	906.5052	6881.7	6014.8
845.5183	908.5358	6844.8	5979.15
845.6635	910.5658	6774.35	5906.75
845.8086	912.595	6628.95	5762.65
845.9538	914.6236	6489.9	5624.4
846.0989	916.6515	6401.8	5533.85
846.2441	918.6786	6352.3	5483.75
846.3892	920.7051	6325.3	5455
846.5344	922.7309	6353.8	5484.25
846.6795	924.756	6374.15	5508.05
846.8246	926.7804	6404.3	5534.4
846.9698	928.8041	6400.3	5530.5
847.1149	930.8272	6426.95	5558.9
847.2601	932.8495	6423.35	5555.3
847.4052	934.8711	6407.35	5539.25
847.5504	936.892	6411.25	5542.7
847.6955	938.9123	6380.7	5511.05
847.8407	940.9318	6376.4	5508.7
847.9858	942.9506	6386	5516.05
848.131	944.9688	6358.9	5491.3
848.2761	946.9862	6308.45	5439.65
848.4213	949.003	6195.4	5326.65
848.5664	951.019	6122.1	5253.4
848.7115	953.0344	6080.15	5210.55
848.8567	955.0491	6064	5195.45
849.0018	957.063	6080.05	5208.55
849.147	959.0763	6120.1	5251.45
849.2921	961.0888	6138.05	5266.25
849.4373	963.1007	6166.4	5294.75
849.5824	965.1119	6166.75	5298.3
849.7275	967.1223	6164.7	5296.5
849.8727	969.1321	6152.95	5283.2
850.0178	971.1412	6139.15	5270.6
850.1629	973.1495	6115.5	5244.05
850.3081	975.1572	6149.9	5249.25
850.4532	977.1641	6135	5267.05
850.5983	979.1704	6102.45	5231.5
850.7435	981.1759	6083.5	5209.85
850.8886	983.1808	6095.1	5222.45
851.0337	985.1849	6113.2	5231.3
851.1788	987.1884	6150.45	5280.05
851.324	989.1911	6213.2	5337.95
851.4691	991.1932	6252	5378.2
851.6142	993.1945	6233.15	5361.8
851.7593	995.1951	6227.05	5354.15
851.9045	997.1951	6205.7	5329.2
852.0496	999.1943	6171.2	5302.85
852.1947	1001.1928	6189.05	5318.55
852.3398	1003.1906	6228.85	5356.9
852.4849	1005.1877	6287.15	5413.7
852.63	1007.1841	6346.55	5474.35
852.7751	1009.1798	6373.95	5501.55
852.9202	1011.1748	6311.15	5440.6
853.0653	1013.1691	6228.4	5356.5
853.2104	1015.1627	6084.7	5212.55
853.3555	1017.1556	5934.8	5062.75
853.5006	1019.1477	5869.85	4995.65
853.6457	1021.1392	5788.5	4916.7
853.7908	1023.1299	5782.9	4909.45
853.9359	1025.12	5781.7	4909.2
854.081	1027.1093	5814.75	4943
854.2261	1029.0979	5870.5	4998.95
854.3712	1031.0859	5913	5040.3
854.5163	1033.0731	5957.3	5084.25
854.6613	1035.0596	5929.9	5057.95
854.8064	1037.0454	5867.6	4995.95
854.9515	1039.0304	5789.5	4915.9
855.0965	1041.0148	5718.5	4846.05
855.2416	1042.9985	5651.75	4778.3
855.3867	1044.9814	5638.2	4765.95
855.5317	1046.9636	5572.85	4700.15
855.6768	1048.9452	5586.25	4714.9
855.8219	1050.926	5596	4723.4
855.9669	1052.9061	5613.35	4741.9
856.112	1054.8855	5641.75	4769.05
856.257	1056.8642	5654.85	4783.5
856.4021	1058.8421	5680.65	4801.75
856.5471	1060.8194	5693.15	4820.2
856.6921	1062.7959	5715.75	4842.9
856.8372	1064.7717	5741.55	4866.5
856.9822	1066.7469	5784.25	4910.55
857.1272	1068.7213	5834.2	4956.55
857.2723	1070.695	5883	5009
857.4173	1072.6679	5911.7	5035.5
857.5623	1074.6402	5934.85	5062.25
857.7073	1076.6117	5929.5	5052.05
857.8523	1078.5826	5825.6	4952.15
857.9973	1080.5527	5742.35	4864.85
858.1423	1082.5221	5680.8	4806.6
858.2873	1084.4908	5652.85	4779.5
858.4323	1086.4587	5644.05	4766.85
858.5773	1088.426	5676.95	4801.7
858.7223	1090.3925	5689.25	4807.85
858.8673	1092.3584	5711.15	4839.3
859.0123	1094.3235	5701.3	4828.1
859.1573	1096.2879	5754.6	4879.85
859.3022	1098.2515	5827.15	4951.45
859.4472	1100.2145	5935.05	5062.2
859.5922	1102.1767	6057.4	5180.25
859.7371	1104.1382	6208.05	5332.3
859.8821	1106.099	6361.15	5484.35
860.027	1108.0591	6485.7	5610.95
860.172	1110.0185	6598.3	5721.45
860.3169	1111.9771	6645.95	5772.45
860.4619	1113.9351	6592.8	5717.1
860.6068	1115.8923	6531.35	5656.05
860.7517	1117.8488	6457.5	5581
860.8967	1119.8045	6325	5448.45
861.0416	1121.7596	6226.9	5351.7
861.1865	1123.7139	6110.5	5235.55
861.3314	1125.6675	6081.8	5206.15
861.4763	1127.6204	6106.2	5233.55
861.6212	1129.5726	6072.15	5193.9
861.7661	1131.524	6009.85	5134.85
861.911	1133.4748	5923.85	5045.95
862.0559	1135.4248	5807.85	4931.2
862.2008	1137.3741	5718.8	4845.1
862.3457	1139.3226	5616.25	4737.35
862.4905	1141.2705	5605.3	4728.85
862.6354	1143.2176	5548.9	4666.2
862.7803	1145.164	5534.85	4657.75
862.9251	1147.1097	5462	4586.5
863.07	1149.0546	5400.3	4521.6
863.2148	1150.9989	5329.45	4450.25
863.3597	1152.9424	5272.4	4395.85
863.5045	1154.8852	5208.25	4330.5
863.6493	1156.8272	5185.2	4311.3
863.7942	1158.7686	5192.2	4307.25
863.939	1160.7092	5208.8	4333.15
864.0838	1162.6491	5228.4	4350.85
864.2286	1164.5883	5288.7	4411.35
864.3734	1166.5267	5361.5	4483.5
864.5182	1168.4644	5433.2	4556.45
864.663	1170.4014	5565.85	4685.2
864.8078	1172.3377	5732.4	4858.7
864.9526	1174.2732	5928.55	5052.05
865.0974	1176.2081	6202	5324.65
865.2421	1178.1421	6508.5	5627.05
865.3869	1180.0755	6859.45	5984.4
865.5317	1182.0082	7095.35	6218.1
865.6764	1183.9401	7193.15	6314
865.8212	1185.8713	7089.9	6214.55
865.9659	1187.8017	6878.7	5999.9
866.1106	1189.7315	6597.1	5721.2
866.2554	1191.6605	6344.35	5437.2
866.4001	1193.5888	6124	5246.25
866.5448	1195.5163	6027.25	5150.2
866.6895	1197.4432	5956.4	5077.35
866.8342	1199.3693	5915.05	5040.4
866.9789	1201.2947	5903.1	5018.95
867.1236	1203.2193	5859.2	4980.25
867.2683	1205.1432	5868.6	4990.5
867.413	1207.0664	5846.05	4968.45
867.5576	1208.9889	5829.6	4947.75
867.7023	1210.9106	5828.05	4952.65
867.847	1212.8316	5842.5	4965.65
867.9916	1214.7519	5872.25	4985.75
868.1363	1216.6715	5901.5	5025.35
868.2809	1218.5903	5924.65	5047.2
868.4255	1220.5084	5962.95	5086.6
868.5701	1222.4257	6048.4	5170.4
868.7148	1224.3424	6083.15	5205.15
868.8594	1226.2583	6155.3	5274.2
869.004	1228.1735	6253.9	5374.85
869.1486	1230.0879	6357.4	5478.15
