Software Version:	3.9.2.0
Unit SN:	10000200
Spectrometer SN:	6960
Date:	3/14/2024 12:30:32 PM
Data Line Index:	25
Spectral Points:	2048
Integration time (ms):	125
Averages:	20
Delay (ms):	30000
Sequence Number:	1
Processing:	dark subtract
Laser Power (mW):	300
Laser Current (mA):	821
Laser Diode Temp (C):	25
Laser Case Temp (C):	26
System Temp (C):	25.9
Spectrometer Temp (C):	23.6
CCD Temp (C):	0.009
Secondary Temp (C):	20.013
Heatsink Temp (C):	22.601
CCDPCB Temp (C):	36.374
SecondaryPCB Temp (C):	32.928

Wavelength	RamanShift	Raw Counts	Dark Subtracted
787.061	30.1047	418.15	6.55
787.2016	32.3739	415.45	3.95
787.3422	34.6426	417.6	4.6
787.4828	36.9109	419.4	6.35
787.6235	39.1787	423.5	4.05
787.7642	41.4461	429.65	8.65
787.9049	43.7131	433.35	8.05
788.0456	45.9796	436.95	8.4
788.1863	48.2456	442.65	10.35
788.3271	50.5112	447.2	9.85
788.4679	52.7764	451.1	12.75
788.6087	55.0411	453.75	11.55
788.7496	57.3054	458.75	12.9
788.8904	59.5692	461.3	12.25
789.0313	61.8326	466.7	14.75
789.1722	64.0955	474.4	18
789.3132	66.3579	479.95	18.6
789.4541	68.6199	484.7	21.65
789.5951	70.8815	495.35	28.75
789.7361	73.1426	510.25	41.7
789.8771	75.4032	545.5	73.7
790.0181	77.6634	615.25	136.55
790.1592	79.9231	781.5	298.85
790.3003	82.1824	1126.55	638.4
790.4414	84.4412	1707.45	1215.7
790.5825	86.6995	2461.95	1964.8
790.7237	88.9574	3203.15	2700.75
790.8648	91.2148	3729.3	3225.1
791.006	93.4717	3977.85	3469.7
791.1472	95.7282	4050.65	3538.65
791.2885	97.9842	4051.05	3535.75
791.4297	100.2398	4008.25	3491.25
791.571	102.4949	3968.55	3449.35
791.7123	104.7495	3944.1	3419.55
791.8536	107.0036	3917.8	3391.1
791.9949	109.2573	3861.5	3339.25
792.1363	111.5105	3783.3	3256.8
792.2777	113.7632	3711.45	3183.65
792.4191	116.0154	3655.95	3115.35
792.5605	118.2672	3566.65	3032.7
792.7019	120.5185	3481.1	2948.5
792.8434	122.7693	3391.35	2854.65
792.9849	125.0197	3324.55	2785.25
793.1264	127.2696	3239	2697.45
793.2679	129.519	3202.85	2657.65
793.4094	131.7679	3155.4	2607.95
793.551	134.0163	3126.95	2576.15
793.6926	136.2642	3124.05	2567.75
793.8342	138.5117	3120.4	2560.65
793.9758	140.7587	3104.15	2544.85
794.1175	143.0052	3089.5	2525.15
794.2591	145.2512	3040.3	2476.95
794.4008	147.4967	2975.2	2410.25
794.5425	149.7417	2944.85	2379.3
794.6842	151.9863	2908.95	2337.5
794.826	154.2304	2894.1	2320.5
794.9677	156.4739	2881.85	2300.75
795.1095	158.717	2884.9	2305.95
795.2513	160.9596	2922.1	2338.3
795.3931	163.2017	2926.5	2339.85
795.535	165.4433	2945.6	2359.1
795.6768	167.6844	2950.25	2361.85
795.8187	169.925	2951.1	2357.2
795.9606	172.1651	2894.05	2298.4
796.1025	174.4047	2848.85	2247.8
796.2445	176.6439	2811.95	2208.9
796.3864	178.8825	2792.5	2186.8
796.5284	181.1206	2764.1	2154.2
796.6704	183.3582	2748.4	2135.95
796.8124	185.5954	2748.1	2133.65
796.9544	187.832	2738.2	2120.15
797.0965	190.0681	2745.6	2128.3
797.2386	192.3037	2744.35	2123
797.3806	194.5388	2748	2122.7
797.5228	196.7734	2755.55	2127.55
797.6649	199.0075	2763.55	2131.05
797.807	201.2411	2788.05	2153.3
797.9492	203.4742	2812.2	2177.15
798.0914	205.7068	2834.3	2200.95
798.2336	207.9389	2836.5	2199.9
798.3758	210.1704	2855.05	2215.3
798.518	212.4015	2854.35	2210.2
798.6603	214.632	2874.7	2229.9
798.8025	216.862	2861.8	2224.5
798.9448	219.0915	2855.55	2228.05
799.0871	221.3205	2854	2228.35
799.2294	223.549	2866.75	2244.4
799.3718	225.777	2867.15	2244.8
799.5141	228.0044	2856.3	2229.15
799.6565	230.2314	2850.05	2227.1
799.7989	232.4578	2847	2220.2
799.9413	234.6837	2832.9	2200.2
800.0837	236.909	2832.35	2200.15
800.2262	239.1339	2823.25	2165.45
800.3687	241.3582	2823.95	2177.95
800.5111	243.582	2819.4	2148
800.6536	245.8053	2825.95	2164.4
800.7961	248.0281	2819.4	2161.7
800.9387	250.2503	2821.4	2159.75
801.0812	252.472	2830.45	2163.85
801.2238	254.6932	2850.85	2181.35
801.3664	256.9139	2837.7	2163.85
801.509	259.134	2848.15	2170.35
801.6516	261.3536	2855.25	2182
801.7942	263.5727	2890.75	2215.1
801.9369	265.7912	2920.95	2245.85
802.0795	268.0092	2980.45	2304.85
802.2222	270.2267	3017.3	2340.5
802.3649	272.4436	3072.8	2394.1
802.5076	274.6601	3099.3	2412.85
802.6504	276.8759	3110.6	2426.6
802.7931	279.0913	3146.55	2466.3
802.9359	281.3061	3151.45	2466.4
803.0787	283.5204	3165.05	2476.1
803.2215	285.7341	3189.95	2497.35
803.3643	287.9473	3212.35	2519.35
803.5071	290.16	3207.9	2510.45
803.6499	292.3721	3182.65	2489.1
803.7928	294.5837	3132.6	2438.5
803.9357	296.7947	3095.05	2402.35
804.0786	299.0052	3067.85	2373.75
804.2215	301.2152	3047	2348.95
804.3644	303.4246	3037.5	2342.65
804.5074	305.6334	3020.6	2326.05
804.6503	307.8418	3019.85	2320.9
804.7933	310.0495	3005.6	2304.9
804.9363	312.2568	2983.7	2284.5
805.0793	314.4635	2933.7	2231.05
805.2223	316.6696	2885.45	2181.8
805.3653	318.8752	2845.8	2134.45
805.5084	321.0802	2800.25	2096.6
805.6514	323.2847	2796.15	2091.95
805.7945	325.4887	2792.8	2086.3
805.9376	327.692	2809.2	2102.95
806.0807	329.8949	2840.15	2132.2
806.2238	332.0972	2900.2	2187.9
806.367	334.2989	2939.25	2226.4
806.5101	336.5001	2945.55	2231.35
806.6533	338.7007	2915.55	2200.95
806.7965	340.9008	2879.95	2164.15
806.9397	343.1003	2824.25	2104.25
807.0829	345.2992	2772.6	2051.75
807.2261	347.4976	2717.55	1995.25
807.3693	349.6955	2690.6	1961.55
807.5126	351.8927	2665.65	1940.15
807.6559	354.0895	2651.1	1913.4
807.7991	356.2856	2637	1908.55
807.9424	358.4812	2616.8	1890.2
808.0857	360.6763	2612.35	1881.8
808.2291	362.8707	2598.65	1869.45
808.3724	365.0646	2607.4	1874.6
808.5158	367.258	2610.2	1874.85
808.6591	369.4508	2621.1	1880.7
808.8025	371.643	2648.8	1909.5
808.9459	373.8346	2676.15	1934.65
809.0893	376.0257	2718	1972.75
809.2327	378.2162	2759.05	2015.05
809.3762	380.4062	2764.95	2016.4
809.5196	382.5956	2754	2005.8
809.6631	384.7844	2720.05	1974.3
809.8066	386.9726	2662.8	1913.5
809.9501	389.1603	2625.35	1877.35
810.0936	391.3474	2634.05	1854.85
810.2371	393.5339	2613.7	1865.65
810.3806	395.7199	2587.65	1845.8
810.5241	397.9052	2593.95	1854.7
810.6677	400.09	2641.7	1899.9
810.8113	402.2743	2682.2	1940.4
810.9548	404.4579	2712.35	1970.8
811.0984	406.641	2762.7	2020
811.2421	408.8235	2784.35	2039.7
811.3857	411.0054	2857.05	2109.95
811.5293	413.1868	2927.4	2178.45
811.673	415.3675	2987.15	2235.25
811.8166	417.5477	3005.55	2254.3
811.9603	419.7273	2944.65	2189.4
812.104	421.9064	2864.8	2102.1
812.2477	424.0848	2769.65	2009.7
812.3914	426.2627	2719.05	1957.8
812.5351	428.4399	2656.55	1893.9
812.6788	430.6166	2604.85	1837.35
812.8226	432.7928	2557.05	1789.85
812.9663	434.9683	2515.95	1749.7
813.1101	437.1432	2490.8	1719.7
813.2539	439.3176	2474.65	1704.7
813.3977	441.4914	2459.55	1687.5
813.5415	443.6645	2466.8	1692.45
813.6853	445.8371	2443.6	1672.35
813.8291	448.0091	2441.8	1671.25
813.973	450.1806	2452.35	1679.65
814.1168	452.3514	2441	1666.3
814.2607	454.5216	2455.4	1669.9
814.4046	456.6913	2439.6	1663
814.5485	458.8603	2446.2	1669.5
814.6924	461.0288	2447.65	1671.4
814.8363	463.1967	2441.7	1665.65
814.9802	465.3639	2438.15	1659.85
815.1241	467.5306	2433.8	1655.55
815.2681	469.6967	2424.55	1645.15
815.412	471.8622	2421.05	1639.9
815.556	474.0271	2420.95	1640.25
815.7	476.1914	2411.95	1628.65
815.844	478.3551	2403.4	1624.5
815.988	480.5182	2400.2	1618.8
816.132	482.6807	2402.95	1618.25
816.276	484.8426	2420.2	1637.1
816.4201	487.0039	2462.2	1677.4
816.5641	489.1647	2513.05	1729.2
816.7082	491.3248	2554	1768.4
816.8522	493.4843	2571.35	1786.7
816.9963	495.6432	2573.4	1787.6
817.1404	497.8015	2532.05	1743.55
817.2845	499.9592	2490.8	1703.4
817.4286	502.1163	2441.15	1653.25
817.5727	504.2728	2400.35	1610.2
817.7168	506.4287	2389.45	1600.1
817.861	508.5839	2363.7	1573.4
818.0051	510.7386	2343.9	1553.95
818.1493	512.8927	2364.95	1567.5
818.2935	515.0461	2362.4	1571.1
818.4377	517.199	2370.35	1579.2
818.5818	519.3512	2417.7	1626.1
818.726	521.5029	2480	1680.9
818.8703	523.6539	2525.9	1729.2
819.0145	525.8043	2541.45	1743.55
819.1587	527.9541	2499.6	1702.05
819.303	530.1033	2433.05	1634.1
819.4472	532.2519	2385.5	1585.2
819.5915	534.3999	2362.8	1564.8
819.7357	536.5472	2357.65	1556.8
819.88	538.694	2354.8	1553.75
820.0243	540.8401	2364.25	1564.5
820.1686	542.9856	2387.15	1584.25
820.3129	545.1305	2391.45	1588.6
820.4572	547.2748	2405.85	1603.35
820.6016	549.4185	2399.2	1593.2
820.7459	551.5615	2406.65	1603.45
820.8902	553.704	2435.75	1631.55
821.0346	555.8458	2438.5	1633.4
821.1789	557.987	2449.25	1644.9
821.3233	560.1276	2494.9	1689.65
821.4677	562.2675	2545.1	1740.1
821.6121	564.4069	2614.3	1810.5
821.7565	566.5456	2663.95	1860.5
821.9009	568.6837	2642.7	1838.5
822.0453	570.8212	2566.85	1764.35
822.1897	572.958	2483.05	1676.85
822.3342	575.0942	2439.3	1634.8
822.4786	577.2299	2389.7	1582.55
822.6231	579.3648	2362.35	1556.15
822.7675	581.4992	2339	1532.05
822.912	583.6329	2354.65	1548.15
823.0565	585.766	2361.45	1551.6
823.201	587.8985	2413.4	1603.65
823.3454	590.0304	2469.95	1637.6
823.4899	592.1616	2484.8	1672.7
823.6345	594.2922	2497.75	1686.6
823.779	596.4222	2477.75	1667.7
823.9235	598.5515	2409.35	1594.7
824.068	600.6802	2359.95	1546.4
824.2126	602.8083	2320.2	1505.7
824.3571	604.9358	2303.85	1488.45
824.5017	607.0626	2286.9	1472.2
824.6462	609.1888	2295.3	1478.95
824.7908	611.3144	2308.25	1491.95
824.9354	613.4393	2337.95	1521
825.08	615.5636	2400.7	1584.25
825.2246	617.6873	2454.45	1639.55
825.3692	619.8103	2482.3	1663
825.5138	621.9327	2490.55	1670.55
825.6584	624.0544	2464.75	1648.3
825.803	626.1756	2397.55	1578.75
825.9477	628.2961	2346.9	1528.2
826.0923	630.4159	2311	1490.9
826.237	632.5351	2301.3	1481.05
826.3816	634.6537	2300.45	1478.95
826.5263	636.7716	2292.75	1469.85
826.6709	638.8889	2293.85	1471.8
826.8156	641.0056	2287.55	1465.1
826.9603	643.1216	2304.85	1482.35
827.105	645.237	2325	1499.7
827.2497	647.3518	2313.8	1489.65
827.3944	649.4659	2274.85	1450.9
827.5391	651.5793	2250.25	1424.85
827.6838	653.6922	2237.1	1411.9
827.8285	655.8043	2224.1	1400.85
827.9733	657.9159	2211.1	1386
828.118	660.0268	2201.2	1373.25
828.2627	662.137	2202	1376.95
828.4075	664.2466	2203.8	1374.5
828.5522	666.3556	2199.25	1371.45
828.697	668.4639	2206.95	1375.45
828.8418	670.5716	2189.35	1361.05
828.9865	672.6786	2184.15	1353.3
829.1313	674.785	2176.2	1344.85
829.2761	676.8907	2160.15	1329.55
829.4209	678.9958	2175.25	1347
829.5657	681.1002	2172.15	1341.3
829.7105	683.204	2179.3	1344.3
829.8553	685.3072	2170.35	1338.25
830.0001	687.4097	2167.25	1336.8
830.1449	689.5115	2169.6	1334.35
830.2898	691.6127	2166.65	1334.7
830.4346	693.7132	2164.35	1331.1
830.5794	695.8131	2182.25	1334.8
830.7243	697.9123	2156.25	1323.95
830.8691	700.0109	2170.95	1337.8
831.014	702.1089	2170.5	1338.1
831.1588	704.2061	2186.8	1351.6
831.3037	706.3028	2205	1369.5
831.4486	708.3987	2226.45	1392.35
831.5935	710.4941	2245.75	1410.55
831.7383	712.5887	2250.65	1413.75
831.8832	714.6827	2244	1404.5
832.0281	716.7761	2245.55	1410.9
832.173	718.8688	2234.4	1395.4
832.3179	720.9608	2228.85	1388.45
832.4628	723.0522	2244.05	1401.25
832.6077	725.1429	2240.15	1402.9
832.7527	727.233	2277.15	1438.95
832.8976	729.3224	2337.45	1499.45
833.0425	731.4112	2398.65	1558.15
833.1874	733.4993	2426.05	1583.4
833.3324	735.5867	2391.6	1550.9
833.4773	737.6735	2314.6	1471.6
833.6222	739.7596	2259.6	1415.8
833.7672	741.845	2232.65	1390.4
833.9122	743.9298	2219.15	1374.9
834.0571	746.014	2225.35	1383.15
834.2021	748.0974	2247.6	1405.6
834.347	750.1802	2249.9	1406.5
834.492	752.2624	2235.8	1392.4
834.637	754.3439	2222.1	1380
834.782	756.4247	2215.4	1360.1
834.9269	758.5048	2213.1	1370.05
835.0719	760.5843	2215.8	1373
835.2169	762.6631	2246.4	1401.55
835.3619	764.7413	2289.05	1446.6
835.5069	766.8188	2357.15	1512.7
835.6519	768.8956	2443.5	1594.75
835.7969	770.9718	2507	1663.95
835.9419	773.0473	2494	1651.1
836.0869	775.1221	2453.55	1608.95
836.232	777.1962	2432	1586.35
836.377	779.2697	2488.45	1642.2
836.522	781.3426	2591.25	1736.4
836.667	783.4147	2675.4	1829.55
836.8121	785.4862	2677.85	1833.5
836.9571	787.557	2605.45	1759.15
837.1021	789.6271	2482.7	1635.85
837.2472	791.6966	2347.75	1500.8
837.3922	793.7654	2242.55	1393.65
837.5373	795.8335	2184.3	1336.3
837.6823	797.901	2153.9	1305.55
837.8274	799.9678	2129.6	1280.35
837.9724	802.0339	2126.85	1279.65
838.1175	804.0993	2158.9	1302.95
838.2626	806.1641	2137.65	1288.05
838.4076	808.2282	2128.85	1279.6
838.5527	810.2916	2112	1260
838.6978	812.3544	2091	1243.4
838.8428	814.4164	2081.1	1232.45
838.9879	816.4778	2089.8	1237.7
839.133	818.5385	2108.6	1258.45
839.2781	820.5986	2133.75	1283.2
839.4232	822.658	2177.2	1326.35
839.5682	824.7166	2222.65	1372.3
839.7133	826.7747	2316.45	1467.8
839.8584	828.832	2385.2	1535.3
840.0035	830.8886	2450.1	1594.95
840.1486	832.9446	2475.45	1622.5
840.2937	834.9999	2452.25	1601.15
840.4388	837.0545	2407.05	1551.95
840.5839	839.1085	2308.45	1456.3
840.729	841.1618	2219.8	1363
840.8741	843.2143	2172.3	1319.1
841.0192	845.2662	2137.6	1287.4
841.1643	847.3175	2118.5	1266.55
841.3095	849.368	2111.15	1257.15
841.4546	851.4179	2099.45	1246.9
841.5997	853.467	2095.9	1241.95
841.7448	855.5155	2104.75	1250.25
841.8899	857.5633	2113.8	1260.55
842.0351	859.6105	2107.05	1252.65
842.1802	861.6569	2100.95	1246.9
842.3253	863.7027	2081.3	1225.4
842.4704	865.7478	2060.3	1205.6
842.6156	867.7922	2053.7	1199.55
842.7607	869.8359	2040.15	1183.9
842.9058	871.8789	2031.3	1175.25
843.0509	873.9212	2069.3	1180.05
843.1961	875.9629	2039.65	1183.85
843.3412	878.0039	2029.9	1171.75
843.4863	880.0441	2067.65	1211.65
843.6315	882.0837	2071.5	1213.85
843.7766	884.1226	2087.95	1229.75
843.9218	886.1609	2117.7	1260.25
844.0669	888.1984	2174.75	1320.65
844.212	890.2352	2232.25	1377.4
844.3572	892.2714	2248.2	1389.15
844.5023	894.3069	2223.7	1365.9
844.6475	896.3416	2160.4	1302.05
844.7926	898.3757	2120.85	1260.9
844.9377	900.4091	2086.7	1228.7
845.0829	902.4418	2087.65	1226.2
845.228	904.4739	2120.05	1258
845.3732	906.5052	2138.8	1280.8
845.5183	908.5358	2142.2	1284.85
845.6635	910.5658	2117.05	1256.65
845.8086	912.595	2093.6	1234.65
845.9538	914.6236	2052.05	1194.35
846.0989	916.6515	2020.2	1161.8
846.2441	918.6786	1999.9	1139.85
846.3892	920.7051	1985.5	1125.35
846.5344	922.7309	1982.35	1122.7
846.6795	924.756	1981.85	1123.7
846.8246	926.7804	1988.2	1126.2
846.9698	928.8041	2004.95	1144.55
847.1149	930.8272	2021.4	1159.55
847.2601	932.8495	2010.7	1149.6
847.4052	934.8711	2029.8	1167.9
847.5504	936.892	2026.65	1164.9
847.6955	938.9123	2054.8	1191.85
847.8407	940.9318	2071.7	1211.25
847.9858	942.9506	2092	1229.75
848.131	944.9688	2095.3	1232.7
848.2761	946.9862	2069.2	1205.15
848.4213	949.003	2028.3	1166.1
848.5664	951.019	2013.15	1152.7
848.7115	953.0344	1988.6	1125.85
848.8567	955.0491	1967.6	1100.65
849.0018	957.063	1952.75	1090.2
849.147	959.0763	1968.25	1107.45
849.2921	961.0888	1957.05	1091.6
849.4373	963.1007	1955.05	1092.9
849.5824	965.1119	1936	1072.6
849.7275	967.1223	1932.35	1066.35
849.8727	969.1321	1930.05	1065.95
850.0178	971.1412	1930.4	1066.85
850.1629	973.1495	1901.9	1036.45
850.3081	975.1572	1972	1061.95
850.4532	977.1641	1930.85	1065.4
850.5983	979.1704	1914.6	1048.6
850.7435	981.1759	1917.7	1050.2
850.8886	983.1808	1912.6	1046.7
851.0337	985.1849	1903.3	1027.4
851.1788	987.1884	1893.15	1025.95
851.324	989.1911	1901.7	1035.45
851.4691	991.1932	1910.1	1042.1
851.6142	993.1945	1916.2	1050.25
851.7593	995.1951	1902.65	1036.55
851.9045	997.1951	1913.5	1041.95
852.0496	999.1943	1896.05	1031.1
852.1947	1001.1928	1892.2	1025.15
852.3398	1003.1906	1899.65	1033.65
852.4849	1005.1877	1928.7	1060.85
852.63	1007.1841	1956.95	1091.95
852.7751	1009.1798	1960	1095.85
852.9202	1011.1748	1957.95	1093.15
853.0653	1013.1691	1929.2	1061.7
853.2104	1015.1627	1909.5	1043.1
853.3555	1017.1556	1868.5	1001.05
853.5006	1019.1477	1854.25	986
853.6457	1021.1392	1834.95	968.9
853.7908	1023.1299	1829.35	961.45
853.9359	1025.12	1818.9	950.2
854.081	1027.1093	1825.35	957.65
854.2261	1029.0979	1849.6	984.9
854.3712	1031.0859	1872.7	1005.1
854.5163	1033.0731	1872.25	1004.65
854.6613	1035.0596	1875.8	1007.65
854.8064	1037.0454	1868.3	1000.15
854.9515	1039.0304	1848.7	980.1
855.0965	1041.0148	1839.35	970.3
855.2416	1042.9985	1817.6	948.2
855.3867	1044.9814	1801.5	933.95
855.5317	1046.9636	1792.55	919.65
855.6768	1048.9452	1801.55	932.8
855.8219	1050.926	1813.75	945.15
855.9669	1052.9061	1825.45	958.2
856.112	1054.8855	1831.7	962.95
856.257	1056.8642	1844.15	975.4
856.4021	1058.8421	1834.8	962.2
856.5471	1060.8194	1827.8	956.75
856.6921	1062.7959	1822.95	953.05
856.8372	1064.7717	1825	955.45
856.9822	1066.7469	1819.6	946.3
857.1272	1068.7213	1818.55	945.4
857.2723	1070.695	1831.4	961.65
857.4173	1072.6679	1845.85	975.75
857.5623	1074.6402	1874.8	1003.75
857.7073	1076.6117	1896.8	1020.45
857.8523	1078.5826	1876.45	1006.2
857.9973	1080.5527	1842.8	969.85
858.1423	1082.5221	1798.65	927.95
858.2873	1084.4908	1771.4	901.4
858.4323	1086.4587	1754.75	883
858.5773	1088.426	1733.45	860.25
858.7223	1090.3925	1740.45	864.35
858.8673	1092.3584	1738.05	869.05
859.0123	1094.3235	1739.35	868.65
859.1573	1096.2879	1763.05	893.65
859.3022	1098.2515	1780.45	910.65
859.4472	1100.2145	1806	934.8
859.5922	1102.1767	1824.3	948.1
859.7371	1104.1382	1866.55	995.05
859.8821	1106.099	1917.95	1044.15
860.027	1108.0591	1958.25	1086.5
860.172	1110.0185	2009.35	1136.55
860.3169	1111.9771	2035.1	1162.6
860.4619	1113.9351	2078.7	1205.85
860.6068	1115.8923	2135.15	1261.75
860.7517	1117.8488	2186.55	1312.05
860.8967	1119.8045	2162.35	1288.5
861.0416	1121.7596	2088.9	1215.25
861.1865	1123.7139	1967.25	1095.25
861.3314	1125.6675	1889.95	1018.45
861.4763	1127.6204	1885.2	1012.85
861.6212	1129.5726	1892.75	1018.5
861.7661	1131.524	1909	1035.2
861.911	1133.4748	1875.65	1002.2
862.0559	1135.4248	1820.3	944.2
862.2008	1137.3741	1768	895.95
862.3457	1139.3226	1738.25	863.15
862.4905	1141.2705	1732.35	857.35
862.6354	1143.2176	1748.3	869.8
862.7803	1145.164	1752.4	877.2
862.9251	1147.1097	1752.6	877.4
863.07	1149.0546	1735.65	858.4
863.2148	1150.9989	1716.7	843.05
863.3597	1152.9424	1694.65	820.95
863.5045	1154.8852	1666.1	792.6
863.6493	1156.8272	1669.95	798.9
863.7942	1158.7686	1682.5	802.1
863.939	1160.7092	1662.3	787.75
864.0838	1162.6491	1656.15	777.95
864.2286	1164.5883	1667.8	791.45
864.3734	1166.5267	1687.6	810.05
864.5182	1168.4644	1699.45	823.95
864.663	1170.4014	1731.1	850.4
864.8078	1172.3377	1752.05	878.45
864.9526	1174.2732	1800	926.95
865.0974	1176.2081	1870.35	994.3
865.2421	1178.1421	1989.9	1111.05
865.3869	1180.0755	2108.7	1234.65
865.5317	1182.0082	2199.4	1323.05
865.6764	1183.9401	2205.5	1329.55
865.8212	1185.8713	2124.7	1251.25
865.9659	1187.8017	1998.9	1122.65
866.1106	1189.7315	1888.85	1013.25
866.2554	1191.6605	1829.65	926.2
866.4001	1193.5888	1748.6	873.75
866.5448	1195.5163	1723.4	847.45
866.6895	1197.4432	1686.1	810.15
866.8342	1199.3693	1673.75	797.5
866.9789	1201.2947	1661.2	779.6
867.1236	1203.2193	1644.35	768
867.2683	1205.1432	1649.85	772
867.413	1207.0664	1640.95	763.55
867.5576	1208.9889	1643.1	761.65
867.7023	1210.9106	1631.05	755.55
867.847	1212.8316	1638.1	761.6
867.9916	1214.7519	1652.25	766.05
868.1363	1216.6715	1645.1	770.65
868.2809	1218.5903	1673.4	796.25
868.4255	1220.5084	1683.25	808.05
868.5701	1222.4257	1697.05	821.75
868.7148	1224.3424	1695.6	818.4
868.8594	1226.2583	1709.75	830.95
869.004	1228.1735	1738.9	860.15
869.1486	1230.0879	1769.7	893.3
869.2932	1232.0016	1792.4	915.55
869.4377	1233.9146	1841	962.2
869.5823	1235.8269	1838.4	963.6
869.7269	1237.7384	1846.55	970.1
869.8715	1239.6492	1839.1	961.5
870.016	1241.5592	1853.5	974.9
870.1606	1243.4686	1890.7	1013
870.3051	1245.3772	1944.65	1067.1
