Software Version:	3.9.2.0
Unit SN:	10000200
Spectrometer SN:	6960
Date:	3/14/2024 12:25:43 PM
Data Line Index:	25
Spectral Points:	2048
Integration time (ms):	125
Averages:	20
Delay (ms):	30000
Sequence Number:	1
Processing:	dark subtract
Laser Power (mW):	300
Laser Current (mA):	809
Laser Diode Temp (C):	25
Laser Case Temp (C):	25.2
System Temp (C):	25.1
Spectrometer Temp (C):	23
CCD Temp (C):	-0.005
Secondary Temp (C):	20.008
Heatsink Temp (C):	22.295
CCDPCB Temp (C):	36.251
SecondaryPCB Temp (C):	30.693

Wavelength	RamanShift	Raw Counts	Dark Subtracted
787.061	30.1047	424.2	10
787.2016	32.3739	424.55	12.45
787.3422	34.6426	426.05	12.15
787.4828	36.9109	427.55	12.05
787.6235	39.1787	431.55	13.85
787.7642	41.4461	439.05	15.55
787.9049	43.7131	444.05	18
788.0456	45.9796	448.85	19.75
788.1863	48.2456	453.35	19.45
788.3271	50.5112	460	22.9
788.4679	52.7764	463.4	22.75
788.6087	55.0411	470.15	25.8
788.7496	57.3054	476.25	25.65
788.8904	59.5692	478.1	29.1
789.0313	61.8326	482.8	30.95
789.1722	64.0955	492.45	35.2
789.3132	66.3579	498.45	36.85
789.4541	68.6199	506.9	40.9
789.5951	70.8815	522.5	55.7
789.7361	73.1426	550.9	81.2
789.8771	75.4032	614.25	139.7
790.0181	77.6634	768.65	291.05
790.1592	79.9231	1134.6	650.65
790.3003	82.1824	1865.5	1378.8
790.4414	84.4412	3111.6	2621.65
790.5825	86.6995	4767.55	4272.3
790.7237	88.9574	6414	5915.55
790.8648	91.2148	7529.3	7029.95
791.006	93.4717	8077.35	7574.15
791.1472	95.7282	8199.65	7695.2
791.2885	97.9842	8159.95	7651.65
791.4297	100.2398	8026.95	7516.45
791.571	102.4949	7904.9	7390.65
791.7123	104.7495	7782.75	7264.45
791.8536	107.0036	7655.15	7137.15
791.9949	109.2573	7498.45	6981.65
792.1363	111.5105	7305.45	6784.6
792.2777	113.7632	7093.1	6570.7
792.4191	116.0154	6836.45	6303.35
792.5605	118.2672	6566.95	6040.2
792.7019	120.5185	6256.4	5730.2
792.8434	122.7693	5962.7	5432.5
792.9849	125.0197	5713.5	5180.4
793.1264	127.2696	5471.1	4936.4
793.2679	129.519	5322.65	4786.5
793.4094	131.7679	5191.35	4653
793.551	134.0163	5125.9	4582.35
793.6926	136.2642	5083.8	4536.6
793.8342	138.5117	5074.9	4523.05
793.9758	140.7587	5035.1	4484.05
794.1175	143.0052	4949.4	4394.2
794.2591	145.2512	4790.75	4236.1
794.4008	147.4967	4643.55	4086.95
794.5425	149.7417	4504.4	3943.95
794.6842	151.9863	4401.1	3836.85
794.826	154.2304	4346.65	3778.75
794.9677	156.4739	4316.75	3742.65
795.1095	158.717	4349.3	3777.3
795.2513	160.9596	4417.15	3839.75
795.3931	163.2017	4507.95	3929.2
795.535	165.4433	4563.75	3983.55
795.6768	167.6844	4583.15	4001.05
795.8187	169.925	4527.15	3942.1
795.9606	172.1651	4386.3	3796.35
796.1025	174.4047	4240.75	3648.5
796.2445	176.6439	4112.85	3517.1
796.3864	178.8825	4015.25	3416.55
796.5284	181.1206	3949.25	3348.1
796.6704	183.3582	3916.9	3312.2
796.8124	185.5954	3887.15	3281.45
796.9544	187.832	3866.95	3257.85
797.0965	190.0681	3865.75	3255.4
797.2386	192.3037	3888.15	3271.65
797.3806	194.5388	3891.7	3274
797.5228	196.7734	3888.75	3267.25
797.6649	199.0075	3924.4	3299.75
797.807	201.2411	4006	3379.4
797.9492	203.4742	4051.55	3423.45
798.0914	205.7068	4108.45	3479.95
798.2336	207.9389	4179.3	3550.7
798.3758	210.1704	4214.4	3583.95
798.518	212.4015	4238.7	3602.7
798.6603	214.632	4241.9	3607.2
798.8025	216.862	4238.2	3607.15
798.9448	219.0915	4236.9	3611.4
799.0871	221.3205	4271.1	3649.3
799.2294	223.549	4304.55	3686.45
799.3718	225.777	4306.55	3688.6
799.5141	228.0044	4307.95	3687.15
799.6565	230.2314	4287.6	3670.45
799.7989	232.4578	4233.5	3615.9
799.9413	234.6837	4212.25	3586.9
800.0837	236.909	4165.7	3538.25
800.2262	239.1339	4140.35	3487.95
800.3687	241.3582	4093.2	3455.45
800.5111	243.582	4120.55	3455.85
800.6536	245.8053	4119.45	3464
800.7961	248.0281	4107	3455.7
800.9387	250.2503	4142.5	3487.1
801.0812	252.472	4146.9	3486.9
801.2238	254.6932	4182.7	3520.35
801.3664	256.9139	4187.2	3519.65
801.509	259.134	4207.35	3537.7
801.6516	261.3536	4256	3589.15
801.7942	263.5727	4351.55	3683.55
801.9369	265.7912	4462.55	3793.25
802.0795	268.0092	4637.95	3966.3
802.2222	270.2267	4819.8	4147.75
802.3649	272.4436	4946.85	4274.9
802.5076	274.6601	5066.7	4381.85
802.6504	276.8759	5099.9	4421.95
802.7931	279.0913	5189.95	4512.65
802.9359	281.3061	5253.45	4575.55
803.0787	283.5204	5310.45	4627.05
803.2215	285.7341	5379.1	4693.95
803.3643	287.9473	5473.8	4786.35
803.5071	290.16	5479.7	4787.1
803.6499	292.3721	5356.6	4669.85
803.7928	294.5837	5200.85	4513.05
803.9357	296.7947	5067.25	4379.7
804.0786	299.0052	4991.8	4302.3
804.2215	301.2152	4946.4	4252.05
804.3644	303.4246	4918.25	4228.5
804.5074	305.6334	4909.9	4220.5
804.6503	307.8418	4899.2	4205.1
804.7933	310.0495	4843.7	4148.9
804.9363	312.2568	4752.4	4060.7
805.0793	314.4635	4640.15	3942.9
805.2223	316.6696	4490.45	3791.5
805.3653	318.8752	4340.95	3634.5
805.5084	321.0802	4244.35	3546.15
805.6514	323.2847	4219.15	3518.8
805.7945	325.4887	4202.6	3502.4
805.9376	327.692	4253.55	3549.55
806.0807	329.8949	4384.95	3683.6
806.2238	332.0972	4540.9	3836.9
806.367	334.2989	4662.6	3953.65
806.5101	336.5001	4700.45	3991.45
806.6533	338.7007	4642.45	3933.9
806.7965	340.9008	4489.6	3779
806.9397	343.1003	4289.2	3575.3
807.0829	345.2992	4118	3403.75
807.2261	347.4976	3968	3252.3
807.3693	349.6955	3867.5	3146.4
807.5126	351.8927	3794.05	3072.3
807.6559	354.0895	3756.05	3023.55
807.7991	356.2856	3724.45	3003.65
807.9424	358.4812	3692.7	2970.85
808.0857	360.6763	3676.6	2952.05
808.2291	362.8707	3631.2	2907.35
808.3724	365.0646	3634.7	2907.55
808.5158	367.258	3660.5	2930.55
808.6591	369.4508	3694.7	2964
808.8025	371.643	3797.4	3065.45
808.9459	373.8346	3890.5	3155.6
809.0893	376.0257	4019.6	3281.65
809.2327	378.2162	4119.25	3379.55
809.3762	380.4062	4176.45	3435.4
809.5196	382.5956	4129.5	3384.35
809.6631	384.7844	4024.4	3281.65
809.8066	386.9726	3867	3121.85
809.9501	389.1603	3767.15	3020.35
810.0936	391.3474	3721.4	2943.4
810.2371	393.5339	3695.85	2949.8
810.3806	395.7199	3692.8	2950.4
810.5241	397.9052	3774.6	3033.6
810.6677	400.09	3909.35	3169.65
810.8113	402.2743	4067.65	3330.8
810.9548	404.4579	4151.85	3415.25
811.0984	406.641	4259.35	3520.65
811.2421	408.8235	4393.25	3652.25
811.3857	411.0054	4506.65	3764.55
811.5293	413.1868	4597.35	3853.5
811.673	415.3675	4647.1	3901.8
811.8166	417.5477	4616.8	3871.5
811.9603	419.7273	4568.15	3818
812.104	421.9064	4455.8	3699.55
812.2477	424.0848	4294.85	3541.75
812.3914	426.2627	4112.5	3354.15
812.5351	428.4399	3921.8	3163.35
812.6788	430.6166	3756.15	2994.65
812.8226	432.7928	3629.3	2867.35
812.9663	434.9683	3518.4	2755.9
813.1101	437.1432	3446.85	2681.55
813.2539	439.3176	3406.8	2641.65
813.3977	441.4914	3362.6	2598.95
813.5415	443.6645	3352.7	2583.3
813.6853	445.8371	3339.75	2571.65
813.8291	448.0091	3337	2570.05
813.973	450.1806	3339.55	2569.8
814.1168	452.3514	3349.4	2578.2
814.2607	454.5216	3366.4	2587.55
814.4046	456.6913	3364	2589.35
814.5485	458.8603	3390.7	2616.9
814.6924	461.0288	3401.85	2628
814.8363	463.1967	3396	2621.45
814.9802	465.3639	3396.45	2620.1
815.1241	467.5306	3379.45	2603.5
815.2681	469.6967	3357.15	2581.95
815.412	471.8622	3337.3	2559.95
815.556	474.0271	3335.05	2557.7
815.7	476.1914	3328.55	2549.6
815.844	478.3551	3319.65	2538.25
815.988	480.5182	3312.35	2533.1
816.132	482.6807	3326.65	2544.95
816.276	484.8426	3376.55	2595.65
816.4201	487.0039	3488.45	2706.55
816.5641	489.1647	3672.7	2888.95
816.7082	491.3248	3809.9	3028
816.8522	493.4843	3855.75	3072.5
816.9963	495.6432	3852.4	3069.95
817.1404	497.8015	3756.05	2970.7
817.2845	499.9592	3630.35	2844.75
817.4286	502.1163	3461.9	2676.25
817.5727	504.2728	3324	2537.2
817.7168	506.4287	3256.2	2469.5
817.861	508.5839	3212.25	2425.3
818.0051	510.7386	3177.75	2390.1
818.1493	512.8927	3192.15	2396.35
818.2935	515.0461	3200.25	2411.5
818.4377	517.199	3240.7	2450.35
818.5818	519.3512	3371.75	2582.5
818.726	521.5029	3579.8	2783.25
818.8703	523.6539	3786.5	2992.7
819.0145	525.8043	3817	3023.9
819.1587	527.9541	3699.15	2904.65
819.303	530.1033	3474.85	2680.95
819.4472	532.2519	3303.75	2508
819.5915	534.3999	3230.5	2433.35
819.7357	536.5472	3190.2	2393.35
819.88	538.694	3204.15	2408.15
820.0243	540.8401	3235.05	2438.5
820.1686	542.9856	3300.85	2502.3
820.3129	545.1305	3351.7	2552.6
820.4572	547.2748	3410	2611.05
820.6016	549.4185	3411.65	2610.15
820.7459	551.5615	3421.45	2619.1
820.8902	553.704	3473.8	2671.7
821.0346	555.8458	3527.9	2726.4
821.1789	557.987	3588.65	2787.8
821.3233	560.1276	3684.5	2880.45
821.4677	562.2675	3895.2	3094.25
821.6121	564.4069	4152.45	3348.6
821.7565	566.5456	4314.85	3511.9
821.9009	568.6837	4263.05	3458.75
822.0453	570.8212	3977.2	3172.7
822.1897	572.958	3658.2	2854.45
822.3342	575.0942	3460.55	2655.95
822.4786	577.2299	3339.25	2533.3
822.6231	579.3648	3276.5	2469.1
822.7675	581.4992	3258.1	2450.65
822.912	583.6329	3288.7	2482.95
823.0565	585.766	3375.45	2569.95
823.201	587.8985	3513.55	2707.75
823.3454	590.0304	3693	2860.4
823.4899	592.1616	3811.65	3000.15
823.6345	594.2922	3870.05	3061.9
823.779	596.4222	3778.15	2967.1
823.9235	598.5515	3622.35	2811.9
824.068	600.6802	3418.3	2608.3
824.2126	602.8083	3270.6	2457.65
824.3571	604.9358	3216.6	2402.2
824.5017	607.0626	3196.1	2383.35
824.6462	609.1888	3210.3	2395.05
824.7908	611.3144	3270.45	2455.6
824.9354	613.4393	3384.8	2570.6
825.08	615.5636	3558.65	2744.05
825.2246	617.6873	3735.05	2919.5
825.3692	619.8103	3839.3	3020.7
825.5138	621.9327	3883.65	3064.9
825.6584	624.0544	3802.7	2987.45
825.803	626.1756	3604.05	2787.35
825.9477	628.2961	3421.7	2604.85
826.0923	630.4159	3321.5	2502.8
826.237	632.5351	3297.45	2481.75
826.3816	634.6537	3275.1	2456.4
826.5263	636.7716	3260.55	2439.05
826.6709	638.8889	3235.6	2415.8
826.8156	641.0056	3270.5	2451.05
826.9603	643.1216	3320.3	2498.25
827.105	645.237	3354.75	2531.3
827.2497	647.3518	3296.6	2474.4
827.3944	649.4659	3205.5	2382.2
827.5391	651.5793	3132.5	2307.65
827.6838	653.6922	3091	2268.4
827.8285	655.8043	3052.15	2229.25
827.9733	657.9159	3019.1	2193.7
828.118	660.0268	2987.75	2160.95
828.2627	662.137	2982.75	2156.95
828.4075	664.2466	2999.9	2174.5
828.5522	666.3556	2998.05	2174.5
828.697	668.4639	2981.6	2152
828.8418	670.5716	2963.3	2135.95
828.9865	672.6786	2940.95	2112.05
829.1313	674.785	2914.25	2085.7
829.2761	676.8907	2907.2	2078.8
829.4209	678.9958	2918.55	2090.6
829.5657	681.1002	2913.45	2084.3
829.7105	683.204	2929.45	2097.05
829.8553	685.3072	2940.05	2109.3
830.0001	687.4097	2932.75	2103.5
830.1449	689.5115	2927.5	2095.7
830.2898	691.6127	2931.15	2101.5
830.4346	693.7132	2906.45	2075.7
830.5794	695.8131	2911.6	2064.6
830.7243	697.9123	2912.05	2077.85
830.8691	700.0109	2927.55	2094.6
831.014	702.1089	2960.3	2129.35
831.1588	704.2061	2998.1	2165.1
831.3037	706.3028	3065.45	2229.8
831.4486	708.3987	3161.85	2325.4
831.5935	710.4941	3213.2	2377.85
831.7383	712.5887	3230.95	2395.2
831.8832	714.6827	3220.9	2381.45
832.0281	716.7761	3178.6	2342.5
832.173	718.8688	3159.4	2322.15
832.3179	720.9608	3164.45	2325.35
832.4628	723.0522	3180.2	2341.9
832.6077	725.1429	3243.4	2406.75
832.7527	727.233	3336.85	2499.1
832.8976	729.3224	3527.85	2690.7
833.0425	731.4112	3715	2874.9
833.1874	733.4993	3806.5	2964.95
833.3324	735.5867	3694.35	2856.4
833.4773	737.6735	3459.4	2620.1
833.6222	739.7596	3245.4	2406.5
833.7672	741.845	3113.05	2271.85
833.9122	743.9298	3044.75	2202.85
834.0571	746.014	3042.95	2203.65
834.2021	748.0974	3057.05	2215.6
834.347	750.1802	3047.05	2203.8
834.492	752.2624	3059.4	2219.35
834.637	754.3439	3040.15	2195.8
834.782	756.4247	3052.65	2199.1
834.9269	758.5048	3074.25	2231.6
835.0719	760.5843	3132	2290.3
835.2169	762.6631	3240.55	2395.7
835.3619	764.7413	3398.9	2556.9
835.5069	766.8188	3659.75	2814.8
835.6519	768.8956	3951.8	3105.45
835.7969	770.9718	4161.75	3318.8
835.9419	773.0473	4142.55	3298.1
836.0869	775.1221	4020.25	3177.2
836.232	777.1962	3959.9	3116.2
836.377	779.2697	4120.35	3274.05
836.522	781.3426	4498.65	3643.1
836.667	783.4147	4792.75	3944.9
836.8121	785.4862	4812.2	3966.05
836.9571	787.557	4561.75	3715.15
837.1021	789.6271	4167.7	3321.1
837.2472	791.6966	3727.2	2880.6
837.3922	793.7654	3393.7	2544.75
837.5373	795.8335	3176.1	2328.9
837.6823	797.901	3057.85	2211.55
837.8274	799.9678	3015.15	2163.55
837.9724	802.0339	3021.85	2175.8
838.1175	804.0993	3057	2197.75
838.2626	806.1641	3040.2	2190.15
838.4076	808.2282	3007.7	2161.25
838.5527	810.2916	2957.25	2104.35
838.6978	812.3544	2888.05	2040.85
838.8428	814.4164	2875.35	2027.2
838.9879	816.4778	2890.7	2040.2
839.133	818.5385	2930.95	2080.75
839.2781	820.5986	3024.05	2173.1
839.4232	822.658	3203.9	2353.85
839.5682	824.7166	3410.75	2561.3
839.7133	826.7747	3665.1	2813.2
839.8584	828.832	3906.65	3055.2
840.0035	830.8886	4103.3	3249.3
840.1486	832.9446	4242.85	3389.4
840.2937	834.9999	4177.2	3326.15
840.4388	837.0545	3971.15	3115.45
840.5839	839.1085	3695.3	2842.2
840.729	841.1618	3425.25	2570.05
840.8741	843.2143	3240.8	2388.9
841.0192	845.2662	3123.8	2272.6
841.1643	847.3175	3061.5	2210.85
841.3095	849.368	3023.35	2171.55
841.4546	851.4179	3009	2155.9
841.5997	853.467	3015.15	2162.25
841.7448	855.5155	3034.2	2180
841.8899	857.5633	3063.7	2210.25
842.0351	859.6105	3048	2193.9
842.1802	861.6569	3001.65	2148.55
842.3253	863.7027	2950.15	2095.6
842.4704	865.7478	2923.3	2070.55
842.6156	867.7922	2871.5	2017.4
842.7607	869.8359	2835.35	1978.3
842.9058	871.8789	2820.4	1965.2
843.0509	873.9212	2857.8	1967.35
843.1961	875.9629	2848.35	1992.05
843.3412	878.0039	2881.8	2025.1
843.4863	880.0441	2906.85	2050.15
843.6315	882.0837	2971.85	2114.35
843.7766	884.1226	3032.4	2173.55
843.9218	886.1609	3143.35	2286.85
844.0669	888.1984	3307.4	2451.35
844.212	890.2352	3481.6	2625.8
844.3572	892.2714	3546.35	2686.05
844.5023	894.3069	3473.05	2614.6
844.6475	896.3416	3302.85	2444.6
844.7926	898.3757	3148.2	2289
844.9377	900.4091	3058.95	2200.6
845.0829	902.4418	3059.75	2197.6
845.228	904.4739	3131.35	2271.15
845.3732	906.5052	3223.7	2365.9
845.5183	908.5358	3232.35	2374
845.6635	910.5658	3186.55	2325.55
845.8086	912.595	3073.75	2213.7
845.9538	914.6236	2955.65	2098.7
846.0989	916.6515	2860.45	2002.5
846.2441	918.6786	2792.3	1931.3
846.3892	920.7051	2768	1907.6
846.5344	922.7309	2757.9	1896.95
846.6795	924.756	2746.35	1885.95
846.8246	926.7804	2784.85	1921.6
846.9698	928.8041	2819.95	1956
847.1149	930.8272	2877.55	2014.7
847.2601	932.8495	2916.2	2053.4
847.4052	934.8711	2936.45	2074.45
847.5504	936.892	2970.1	2107.5
847.6955	938.9123	3006.05	2143.2
847.8407	940.9318	3123.15	2260.15
847.9858	942.9506	3187.6	2324.7
848.131	944.9688	3171.2	2307.75
848.2761	946.9862	3123.35	2259.7
848.4213	949.003	3009.65	2147.9
848.5664	951.019	2942.9	2078.5
848.7115	953.0344	2865.6	2002.3
848.8567	955.0491	2823.65	1959.55
849.0018	957.063	2792	1929.6
849.147	959.0763	2773.5	1911.35
849.2921	961.0888	2763.1	1896.15
849.4373	963.1007	2774.95	1911.95
849.5824	965.1119	2736.7	1873.15
849.7275	967.1223	2703.05	1838.15
849.8727	969.1321	2688	1824.85
850.0178	971.1412	2680.9	1816.3
850.1629	973.1495	2664.25	1798.9
850.3081	975.1572	2703.1	1790.8
850.4532	977.1641	2675.95	1810.2
850.5983	979.1704	2678.15	1811.85
850.7435	981.1759	2681.9	1814
850.8886	983.1808	2654.85	1788.6
851.0337	985.1849	2643	1767.05
851.1788	987.1884	2615.15	1746.95
851.324	989.1911	2626.15	1758
851.4691	991.1932	2648.85	1782.25
851.6142	993.1945	2667.75	1802.05
851.7593	995.1951	2675.55	1809.45
851.9045	997.1951	2680.3	1808.2
852.0496	999.1943	2650.5	1786.15
852.1947	1001.1928	2651.05	1782.65
852.3398	1003.1906	2688.2	1821.5
852.4849	1005.1877	2779.25	1910.1
852.63	1007.1841	2861.15	1993.25
852.7751	1009.1798	2910.85	2044.6
852.9202	1011.1748	2915.85	2048.4
853.0653	1013.1691	2838.9	1970.2
853.2104	1015.1627	2734.95	1866.35
853.3555	1017.1556	2630.85	1761.4
853.5006	1019.1477	2571.3	1702.3
853.6457	1021.1392	2530.85	1661.5
853.7908	1023.1299	2512.5	1643.2
853.9359	1025.12	2496.05	1625.75
854.081	1027.1093	2515.3	1646.2
854.2261	1029.0979	2581.55	1712.15
854.3712	1031.0859	2659.5	1791.15
854.5163	1033.0731	2693.05	1824.4
854.6613	1035.0596	2722.75	1855.15
854.8064	1037.0454	2701.5	1832
854.9515	1039.0304	2666.1	1794.65
855.0965	1041.0148	2603.1	1731.9
855.2416	1042.9985	2540.2	1670.55
855.3867	1044.9814	2478.4	1609
855.5317	1046.9636	2468.2	1598.45
855.6768	1048.9452	2496.4	1628.8
855.8219	1050.926	2550.6	1683.5
855.9669	1052.9061	2611.05	1744.55
856.112	1054.8855	2641.6	1772.2
856.257	1056.8642	2650.15	1780.15
856.4021	1058.8421	2633.65	1759.7
856.5471	1060.8194	2606.95	1734.6
856.6921	1062.7959	2606.45	1734.75
856.8372	1064.7717	2605.55	1733.55
856.9822	1066.7469	2594.8	1722.1
857.1272	1068.7213	2614.65	1740.65
857.2723	1070.695	2647.75	1776.35
857.4173	1072.6679	2709.35	1837.15
857.5623	1074.6402	2806.8	1935.05
857.7073	1076.6117	2861.15	1983.55
857.8523	1078.5826	2828.2	1956.55
857.9973	1080.5527	2708.25	1834.4
858.1423	1082.5221	2594.1	1720.55
858.2873	1084.4908	2499.85	1628.05
858.4323	1086.4587	2438.5	1564.45
858.5773	1088.426	2400.05	1526.7
858.7223	1090.3925	2391.05	1514.35
858.8673	1092.3584	2407.4	1535.5
859.0123	1094.3235	2430.55	1558.6
859.1573	1096.2879	2486.6	1612.75
859.3022	1098.2515	2544.5	1670.3
859.4472	1100.2145	2642.5	1771.15
859.5922	1102.1767	2736.75	1860.7
859.7371	1104.1382	2873.1	1998.55
859.8821	1106.099	3036	2159.85
860.027	1108.0591	3215.75	2343.9
860.172	1110.0185	3344.4	2468.95
860.3169	1111.9771	3467	2595.25
860.4619	1113.9351	3615.05	2742.35
860.6068	1115.8923	3829.05	2955.4
860.7517	1117.8488	4014.7	3137.45
860.8967	1119.8045	3955.65	3080.5
861.0416	1121.7596	3666.65	2790.75
861.1865	1123.7139	3291.35	2418
861.3314	1125.6675	3030	2154.65
861.4763	1127.6204	2986.9	2112.3
861.6212	1129.5726	3057.9	2180.9
861.7661	1131.524	3094.45	2221.55
861.911	1133.4748	2991.65	2118.2
862.0559	1135.4248	2791.95	1915.6
862.2008	1137.3741	2616.45	1741.85
862.3457	1139.3226	2516.55	1639.25
862.4905	1141.2705	2475.45	1598.25
862.6354	1143.2176	2510.6	1630.9
862.7803	1145.164	2577.15	1699.6
862.9251	1147.1097	2597.1	1721.7
863.07	1149.0546	2542.25	1663.9
863.2148	1150.9989	2448.05	1571.1
863.3597	1152.9424	2372.85	1496.35
863.5045	1154.8852	2320.15	1443.05
863.6493	1156.8272	2286.25	1411.9
863.7942	1158.7686	2299.15	1414.9
863.939	1160.7092	2289.4	1412.5
864.0838	1162.6491	2311.9	1432.2
864.2286	1164.5883	2340.95	1465.15
864.3734	1166.5267	2379.35	1502.1
864.5182	1168.4644	2449.7	1571.9
864.663	1170.4014	2547.8	1664.65
864.8078	1172.3377	2651.35	1774.45
864.9526	1174.2732	2803.6	1928.8
865.0974	1176.2081	3040.5	2164.8
865.2421	1178.1421	3405.45	2524.8
865.3869	1180.0755	3851.85	2976.45
865.5317	1182.0082	4173.65	3297.85
865.6764	1183.9401	4230.25	3351.45
865.8212	1185.8713	3986.05	3108.65
865.9659	1187.8017	3580.75	2704.95
866.1106	1189.7315	3164.75	2287.55
866.2554	1191.6605	2884.75	1978.85
866.4001	1193.5888	2683.9	1808.25
866.5448	1195.5163	2583.25	1707.85
866.6895	1197.4432	2494.35	1615.45
866.8342	1199.3693	2424.9	1548.95
866.9789	1201.2947	2383.5	1500.05
867.1236	1203.2193	2360.65	1482.3
867.2683	1205.1432	2347.5	1467.75
867.413	1207.0664	2332.4	1451.8
867.5576	1208.9889	2336.55	1456.05
867.7023	1210.9106	2337.95	1461
867.847	1212.8316	2354.1	1477.9
867.9916	1214.7519	2388.25	1501
868.1363	1216.6715	2416.95	1541.05
868.2809	1218.5903	2461.6	1582.1
868.4255	1220.5084	2491.45	1614.9
868.5701	1222.4257	2553.3	1674.9
868.7148	1224.3424	2566.45	1687.2
868.8594	1226.2583	2617.2	1734.45
869.004	1228.1735	2707.2	1829.35
869.1486	1230.0879	2813.1	1935.3
869.2932	1232.0016	2950.35	2072.1
869.4377	1233.9146	3067.6	2186.75
869.5823	1235.8269	3125	2245.3
869.7269	1237.7384	3133.2	2252.55
869.8715	1239.6492	3104.8	2227.2
