Software Version:	3.9.2.0
Unit SN:	10000200
Spectrometer SN:	6960
Date:	3/14/2024 12:36:53 PM
Data Line Index:	25
Spectral Points:	2048
Integration time (ms):	125
Averages:	20
Delay (ms):	30000
Sequence Number:	1
Processing:	dark subtract
Laser Power (mW):	305
Laser Current (mA):	824
Laser Diode Temp (C):	25
Laser Case Temp (C):	26.7
System Temp (C):	26.7
Spectrometer Temp (C):	24.2
CCD Temp (C):	0.008
Secondary Temp (C):	20.008
Heatsink Temp (C):	22.972
CCDPCB Temp (C):	36.64
SecondaryPCB Temp (C):	34.095

Wavelength	RamanShift	Raw Counts	Dark Subtracted
787.061	30.1047	415.6	4.35
787.2016	32.3739	414.55	4
787.3422	34.6426	417.55	5.65
787.4828	36.9109	420.5	7.3
787.6235	39.1787	425.35	7.2
787.7642	41.4461	430.05	8.6
787.9049	43.7131	432.25	7.35
788.0456	45.9796	436	7.75
788.1863	48.2456	441.25	8
788.3271	50.5112	447.9	10.15
788.4679	52.7764	449.3	9.85
788.6087	55.0411	451.8	8.9
788.7496	57.3054	461.45	14.9
788.8904	59.5692	462.7	15.55
789.0313	61.8326	466.25	14.1
789.1722	64.0955	472.1	13.7
789.3132	66.3579	478.35	16.1
789.4541	68.6199	485.35	21.05
789.5951	70.8815	491.55	23.45
789.7361	73.1426	508.05	39
789.8771	75.4032	540.65	64.95
790.0181	77.6634	596.6	117.1
790.1592	79.9231	739.35	255.35
790.3003	82.1824	1032.9	544.45
790.4414	84.4412	1538	1044.65
790.5825	86.6995	2193	1692.25
790.7237	88.9574	2828.2	2319.35
790.8648	91.2148	3286.2	2773
791.006	93.4717	3507.4	2988.45
791.1472	95.7282	3563.3	3041.8
791.2885	97.9842	3577.55	3052.9
791.4297	100.2398	3548.4	3019.45
791.571	102.4949	3521.45	2989.95
791.7123	104.7495	3501.6	2966.65
791.8536	107.0036	3477.45	2942.95
791.9949	109.2573	3438.5	2903.9
792.1363	111.5105	3372.1	2835.95
792.2777	113.7632	3330.7	2793.15
792.4191	116.0154	3289.65	2741.6
792.5605	118.2672	3200.15	2659.75
792.7019	120.5185	3161.3	2617.6
792.8434	122.7693	3094.05	2546.9
792.9849	125.0197	3044.05	2494.55
793.1264	127.2696	2990.8	2439.5
793.2679	129.519	2965.1	2414.2
793.4094	131.7679	2926.85	2372.5
793.551	134.0163	2924.75	2364.4
793.6926	136.2642	2913.95	2347.25
793.8342	138.5117	2916.6	2347.85
793.9758	140.7587	2901.15	2333.1
794.1175	143.0052	2873.15	2300.35
794.2591	145.2512	2836.4	2266.6
794.4008	147.4967	2794.15	2222.3
794.5425	149.7417	2779.95	2203.85
794.6842	151.9863	2755.15	2175.5
794.826	154.2304	2736.5	2155.9
794.9677	156.4739	2733.65	2147.4
795.1095	158.717	2732.75	2145.5
795.2513	160.9596	2751.2	2158.9
795.3931	163.2017	2761	2168.3
795.535	165.4433	2779.05	2182.8
795.6768	167.6844	2787.45	2189.35
795.8187	169.925	2765.9	2165.65
795.9606	172.1651	2731.3	2125.6
796.1025	174.4047	2693.65	2084.5
796.2445	176.6439	2678.75	2068.45
796.3864	178.8825	2647.25	2033.8
796.5284	181.1206	2651.65	2035.95
796.6704	183.3582	2628.5	2008.4
796.8124	185.5954	2612.8	1992.1
796.9544	187.832	2627.15	2002.4
797.0965	190.0681	2608.5	1978.95
797.2386	192.3037	2629.8	1998.65
797.3806	194.5388	2631.2	1997.9
797.5228	196.7734	2632.8	1995.4
797.6649	199.0075	2639.1	1997.55
797.807	201.2411	2653.3	2009.85
797.9492	203.4742	2672.75	2027.3
798.0914	205.7068	2690.05	2046.05
798.2336	207.9389	2691	2047.55
798.3758	210.1704	2711.85	2067
798.518	212.4015	2710.35	2059.2
798.6603	214.632	2713.3	2058.15
798.8025	216.862	2692.35	2045.35
798.9448	219.0915	2700.6	2061.1
799.0871	221.3205	2692.9	2056.9
799.2294	223.549	2703.05	2073.3
799.3718	225.777	2696.05	2067.25
799.5141	228.0044	2692.7	2059.2
799.6565	230.2314	2678.45	2048.2
799.7989	232.4578	2671.15	2038.95
799.9413	234.6837	2667.65	2026.3
800.0837	236.909	2659.1	2019.05
800.2262	239.1339	2668.8	2005.1
800.3687	241.3582	2648.3	1997.85
800.5111	243.582	2669.35	1992.5
800.6536	245.8053	2659.35	1988.75
800.7961	248.0281	2668.2	2004.25
800.9387	250.2503	2665.8	1996.1
801.0812	252.472	2666.65	1992.15
801.2238	254.6932	2675.55	2000.15
801.3664	256.9139	2669.8	1988.1
801.509	259.134	2672.05	1988.75
801.6516	261.3536	2697.75	2019.15
801.7942	263.5727	2705.4	2020.65
801.9369	265.7912	2728.8	2046.9
802.0795	268.0092	2770.55	2086.45
802.2222	270.2267	2803.4	2118.2
802.3649	272.4436	2830.05	2142.85
802.5076	274.6601	2857	2162.15
802.6504	276.8759	2863.5	2172.75
802.7931	279.0913	2878.65	2189.7
802.9359	281.3061	2871.05	2176.85
803.0787	283.5204	2885.7	2190.45
803.2215	285.7341	2907.2	2207.1
803.3643	287.9473	2927.25	2225.85
803.5071	290.16	2919.35	2213.75
803.6499	292.3721	2898.25	2197.2
803.7928	294.5837	2856.65	2153.6
803.9357	296.7947	2841.9	2139.65
804.0786	299.0052	2821.35	2119.85
804.2215	301.2152	2813.15	2108.25
804.3644	303.4246	2805.45	2104.05
804.5074	305.6334	2785.05	2082.8
804.6503	307.8418	2772.5	2066.5
804.7933	310.0495	2761.35	2051
804.9363	312.2568	2743.15	2035.4
805.0793	314.4635	2709.3	2000.7
805.2223	316.6696	2676.1	1966.8
805.3653	318.8752	2645.55	1926.8
805.5084	321.0802	2621.95	1912.5
805.6514	323.2847	2615.45	1904.8
805.7945	325.4887	2607.3	1894.55
805.9376	327.692	2617.8	1903.65
806.0807	329.8949	2638.55	1922.45
806.2238	332.0972	2658.6	1940.45
806.367	334.2989	2694.55	1970.8
806.5101	336.5001	2693.4	1971.65
806.6533	338.7007	2667.85	1947.55
806.7965	340.9008	2651.2	1928.3
806.9397	343.1003	2591.6	1866.5
807.0829	345.2992	2569.8	1842.8
807.2261	347.4976	2535.6	1808
807.3693	349.6955	2507.7	1776.15
807.5126	351.8927	2492.5	1759.9
807.6559	354.0895	2493.55	1748.95
807.7991	356.2856	2481.85	1747.05
807.9424	358.4812	2468.45	1733.6
808.0857	360.6763	2474.2	1739.2
808.2291	362.8707	2449.65	1712.3
808.3724	365.0646	2454.15	1713.5
808.5158	367.258	2454.05	1714.4
808.6591	369.4508	2468	1722.75
808.8025	371.643	2481.15	1736.2
808.9459	373.8346	2497	1747.45
809.0893	376.0257	2528.55	1777.7
809.2327	378.2162	2555.75	1803.55
809.3762	380.4062	2564.25	1809.9
809.5196	382.5956	2545.5	1789.85
809.6631	384.7844	2517.4	1763.15
809.8066	386.9726	2478.4	1720.75
809.9501	389.1603	2452.35	1696.05
810.0936	391.3474	2454	1672.95
810.2371	393.5339	2430.1	1670.1
810.3806	395.7199	2419.75	1667.55
810.5241	397.9052	2435	1684.5
810.6677	400.09	2454.8	1703.45
810.8113	402.2743	2493.55	1744.65
810.9548	404.4579	2502.05	1755.15
811.0984	406.641	2535.9	1788.45
811.2421	408.8235	2564.15	1813.8
811.3857	411.0054	2599.45	1848.25
811.5293	413.1868	2660.9	1906.8
811.673	415.3675	2732.1	1976.95
811.8166	417.5477	2759.6	2003.5
811.9603	419.7273	2699.35	1940.5
812.104	421.9064	2608.85	1839.7
812.2477	424.0848	2552.65	1787.85
812.3914	426.2627	2502.85	1737.45
812.5351	428.4399	2453.35	1684.7
812.6788	430.6166	2411.6	1639.05
812.8226	432.7928	2385.05	1611
812.9663	434.9683	2349.05	1576.05
813.1101	437.1432	2337.75	1561.75
813.2539	439.3176	2313.4	1537.3
813.3977	441.4914	2310.85	1534.5
813.5415	443.6645	2291.85	1511.7
813.6853	445.8371	2299.7	1521.85
813.8291	448.0091	2304.7	1526.3
813.973	450.1806	2299.95	1521
814.1168	452.3514	2280.3	1497.3
814.2607	454.5216	2285.45	1495.25
814.4046	456.6913	2284.65	1500.85
814.5485	458.8603	2278.95	1498.3
814.6924	461.0288	2289.35	1509.9
814.8363	463.1967	2274.35	1490
814.9802	465.3639	2283	1498.9
815.1241	467.5306	2271.9	1488.15
815.2681	469.6967	2254.5	1468.85
815.412	471.8622	2260.75	1474.4
815.556	474.0271	2255.25	1469.3
815.7	476.1914	2250.1	1458
815.844	478.3551	2246.6	1459.45
815.988	480.5182	2243.7	1455.85
816.132	482.6807	2244.3	1455.6
816.276	484.8426	2260.3	1469.15
816.4201	487.0039	2282.85	1491.6
816.5641	489.1647	2332	1539.55
816.7082	491.3248	2344.85	1553.75
816.8522	493.4843	2357	1563.75
816.9963	495.6432	2357.75	1562.85
817.1404	497.8015	2325.45	1531.35
817.2845	499.9592	2301.3	1509.25
817.4286	502.1163	2258.65	1465.7
817.5727	504.2728	2240.15	1441.15
817.7168	506.4287	2222.75	1430.1
817.861	508.5839	2199.3	1402.35
818.0051	510.7386	2193.2	1396.4
818.1493	512.8927	2198.1	1394.75
818.2935	515.0461	2203.35	1405.2
818.4377	517.199	2221	1424.75
818.5818	519.3512	2237.6	1441.05
818.726	521.5029	2289.25	1485.15
818.8703	523.6539	2327.9	1526.6
819.0145	525.8043	2320.2	1517.4
819.1587	527.9541	2298.9	1494.95
819.303	530.1033	2235.1	1432.35
819.4472	532.2519	2213.8	1408.4
819.5915	534.3999	2187.85	1383.95
819.7357	536.5472	2189	1383.75
819.88	538.694	2185.15	1382.9
820.0243	540.8401	2191.35	1384.5
820.1686	542.9856	2205.05	1401.7
820.3129	545.1305	2213.45	1407.35
820.4572	547.2748	2218.25	1412.75
820.6016	549.4185	2224.8	1416.05
820.7459	551.5615	2230.65	1424.2
820.8902	553.704	2239.9	1430.4
821.0346	555.8458	2248.85	1441.95
821.1789	557.987	2261.9	1453.55
821.3233	560.1276	2277.55	1468.9
821.4677	562.2675	2323.95	1514.8
821.6121	564.4069	2364.8	1554.85
821.7565	566.5456	2389.75	1580.4
821.9009	568.6837	2377.15	1564.95
822.0453	570.8212	2334.95	1524.6
822.1897	572.958	2277.6	1465.45
822.3342	575.0942	2241.9	1429.9
822.4786	577.2299	2227.45	1415.55
822.6231	579.3648	2193.7	1379.4
822.7675	581.4992	2180.75	1366.5
822.912	583.6329	2164	1350
823.0565	585.766	2193.3	1378.3
823.201	587.8985	2212.65	1398.15
823.3454	590.0304	2255.45	1430.05
823.4899	592.1616	2276.4	1459
823.6345	594.2922	2270	1455.25
823.779	596.4222	2253.9	1436.5
823.9235	598.5515	2214.4	1397.6
824.068	600.6802	2182.1	1364.4
824.2126	602.8083	2139.3	1321.35
824.3571	604.9358	2131.2	1311.9
824.5017	607.0626	2111.6	1288.65
824.6462	609.1888	2123.35	1303.4
824.7908	611.3144	2136.4	1316.55
824.9354	613.4393	2159.4	1340.45
825.08	615.5636	2188.2	1368.5
825.2246	617.6873	2231.6	1409.1
825.3692	619.8103	2250.55	1427.95
825.5138	621.9327	2244.45	1418.6
825.6584	624.0544	2237.25	1415.1
825.803	626.1756	2197.85	1376.65
825.9477	628.2961	2154.75	1331.05
826.0923	630.4159	2137	1313.6
826.237	632.5351	2122.3	1297.85
826.3816	634.6537	2122.9	1297.35
826.5263	636.7716	2121.25	1293.2
826.6709	638.8889	2112.4	1286.45
826.8156	641.0056	2119.4	1293.45
826.9603	643.1216	2129.2	1299.95
827.105	645.237	2136.4	1307.8
827.2497	647.3518	2122.4	1292.4
827.3944	649.4659	2096.9	1269.65
827.5391	651.5793	2083.55	1253.8
827.6838	653.6922	2076.9	1247.75
827.8285	655.8043	2070.3	1241.55
827.9733	657.9159	2051.75	1220.85
828.118	660.0268	2046.8	1214.9
828.2627	662.137	2045.45	1214.3
828.4075	664.2466	2042.85	1209.55
828.5522	666.3556	2052.65	1221
828.697	668.4639	2041.55	1206.85
828.8418	670.5716	2029.35	1197.15
828.9865	672.6786	2036.2	1201.7
829.1313	674.785	2020.75	1187.25
829.2761	676.8907	2037.2	1203.45
829.4209	678.9958	2019.35	1185.85
829.5657	681.1002	2028.4	1194.1
829.7105	683.204	2024	1187
829.8553	685.3072	2029.4	1192.75
830.0001	687.4097	2019.75	1182.9
830.1449	689.5115	2018.4	1180.85
830.2898	691.6127	2010.95	1176
830.4346	693.7132	2000.9	1161.95
830.5794	695.8131	2018.5	1171.2
830.7243	697.9123	2019.95	1180.1
830.8691	700.0109	2014.55	1175.05
831.014	702.1089	2016.15	1178.85
831.1588	704.2061	2024.25	1183.75
831.3037	706.3028	2043.6	1201.6
831.4486	708.3987	2059.85	1221.35
831.5935	710.4941	2067.9	1228.1
831.7383	712.5887	2068.2	1229
831.8832	714.6827	2065.9	1222.1
832.0281	716.7761	2064.8	1224.85
832.173	718.8688	2061.5	1219.1
832.3179	720.9608	2062.9	1218.6
832.4628	723.0522	2065.2	1223.55
832.6077	725.1429	2071.05	1231
832.7527	727.233	2092.9	1251.4
832.8976	729.3224	2143.2	1300.5
833.0425	731.4112	2180.05	1336.45
833.1874	733.4993	2189.05	1345.2
833.3324	735.5867	2160.75	1315
833.4773	737.6735	2121.55	1277.2
833.6222	739.7596	2086.5	1239.95
833.7672	741.845	2053.75	1206.45
833.9122	743.9298	2062.6	1215.15
834.0571	746.014	2079.25	1235.25
834.2021	748.0974	2089.55	1242.4
834.347	750.1802	2089.25	1245.45
834.492	752.2624	2063.3	1219.15
834.637	754.3439	2052.25	1203.25
834.782	756.4247	2057.4	1201.3
834.9269	758.5048	2039.55	1193.65
835.0719	760.5843	2038.05	1192.35
835.2169	762.6631	2054.3	1208.6
835.3619	764.7413	2096.25	1250
835.5069	766.8188	2141.85	1293.4
835.6519	768.8956	2189.15	1340.05
835.7969	770.9718	2231.25	1383.9
835.9419	773.0473	2232.2	1383.2
836.0869	775.1221	2203.85	1354.45
836.232	777.1962	2185.95	1336.15
836.377	779.2697	2228.4	1379.65
836.522	781.3426	2308.85	1448.55
836.667	783.4147	2336.5	1484.55
836.8121	785.4862	2346.3	1498.65
836.9571	787.557	2284.65	1432.8
837.1021	789.6271	2210.25	1358.45
837.2472	791.6966	2114.9	1264.25
837.3922	793.7654	2047.2	1196.55
837.5373	795.8335	2003.05	1151.2
837.6823	797.901	1980.3	1128.4
837.8274	799.9678	1970.25	1116
837.9724	802.0339	1965.75	1116.1
838.1175	804.0993	1978.7	1117.7
838.2626	806.1641	1970.1	1117.65
838.4076	808.2282	1958.95	1106.85
838.5527	810.2916	1946.45	1089.85
838.6978	812.3544	1933.65	1083.9
838.8428	814.4164	1929.2	1077.45
838.9879	816.4778	1927.95	1073.75
839.133	818.5385	1935.05	1081.65
839.2781	820.5986	1956.9	1104.3
839.4232	822.658	2004.9	1150.9
839.5682	824.7166	2038.5	1183.7
839.7133	826.7747	2090.3	1236.6
839.8584	828.832	2134.65	1281.15
840.0035	830.8886	2181.55	1325.4
840.1486	832.9446	2197.8	1342.8
840.2937	834.9999	2182.35	1328.65
840.4388	837.0545	2136.6	1278.2
840.5839	839.1085	2074.45	1219.55
840.729	841.1618	2022.1	1164.75
840.8741	843.2143	1981.45	1128.55
841.0192	845.2662	1956.75	1101
841.1643	847.3175	1952.4	1095.2
841.3095	849.368	1929.2	1072.95
841.4546	851.4179	1929.1	1072.4
841.5997	853.467	1926.5	1069.3
841.7448	855.5155	1938.4	1081
841.8899	857.5633	1931.75	1074.9
842.0351	859.6105	1920.65	1063.35
842.1802	861.6569	1927.35	1069.95
842.3253	863.7027	1904.8	1046.8
842.4704	865.7478	1899.6	1042.3
842.6156	867.7922	1900.65	1043
842.7607	869.8359	1889.9	1031.2
842.9058	871.8789	1882.7	1022.55
843.0509	873.9212	1914.2	1021.75
843.1961	875.9629	1883.75	1025.2
843.3412	878.0039	1889.55	1030
843.4863	880.0441	1894.3	1037.9
843.6315	882.0837	1909.2	1049.4
843.7766	884.1226	1927.7	1068.1
843.9218	886.1609	1936.2	1079.15
844.0669	888.1984	1975.75	1117.5
844.212	890.2352	2012	1153.1
844.3572	892.2714	2019.6	1156.25
844.5023	894.3069	2003.4	1141.65
844.6475	896.3416	1961.1	1101.95
844.7926	898.3757	1935.25	1074.2
844.9377	900.4091	1908.2	1048.35
845.0829	902.4418	1920.45	1055.1
845.228	904.4739	1938.15	1074.75
845.3732	906.5052	1949	1088.6
845.5183	908.5358	1940.35	1079.3
845.6635	910.5658	1931.05	1069.25
845.8086	912.595	1907.9	1045.35
845.9538	914.6236	1879	1017.8
846.0989	916.6515	1851.2	991.15
846.2441	918.6786	1838.9	976.95
846.3892	920.7051	1837.2	972.1
846.5344	922.7309	1830.75	967.5
846.6795	924.756	1828	964.75
846.8246	926.7804	1830.05	965.3
846.9698	928.8041	1834.55	971.05
847.1149	930.8272	1844.6	980.45
847.2601	932.8495	1856.1	992.3
847.4052	934.8711	1853.7	987.45
847.5504	936.892	1863.05	999.6
847.6955	938.9123	1875.5	1009.85
847.8407	940.9318	1885.1	1020.95
847.9858	942.9506	1911.85	1046.5
848.131	944.9688	1891.2	1027.3
848.2761	946.9862	1878.25	1014.25
848.4213	949.003	1855	990.15
848.5664	951.019	1840.45	975.35
848.7115	953.0344	1831.4	965.4
848.8567	955.0491	1814.55	946.75
849.0018	957.063	1810.55	944.3
849.147	959.0763	1805.8	940.45
849.2921	961.0888	1804.25	936.35
849.4373	963.1007	1796.3	929.95
849.5824	965.1119	1797.15	929.8
849.7275	967.1223	1787.8	922.55
849.8727	969.1321	1777	913.2
850.0178	971.1412	1786.65	919.6
850.1629	973.1495	1774.75	909.6
850.3081	975.1572	1817.45	898.05
850.4532	977.1641	1779.3	913.2
850.5983	979.1704	1770.85	903.1
850.7435	981.1759	1775.3	904.25
850.8886	983.1808	1777.1	906.75
851.0337	985.1849	1772.15	893.5
851.1788	987.1884	1765	895.8
851.324	989.1911	1757	888
851.4691	991.1932	1758.2	888.9
851.6142	993.1945	1764.1	896.4
851.7593	995.1951	1752.6	883.85
851.9045	997.1951	1760.15	884.4
852.0496	999.1943	1743.3	876.55
852.1947	1001.1928	1749	881.4
852.3398	1003.1906	1750.8	884.3
852.4849	1005.1877	1768.8	901.15
852.63	1007.1841	1783.8	914.55
852.7751	1009.1798	1789.75	922.25
852.9202	1011.1748	1783.85	913.85
853.0653	1013.1691	1768.9	899.15
853.2104	1015.1627	1749.75	881.5
853.3555	1017.1556	1721.85	851.65
853.5006	1019.1477	1711.15	841.75
853.6457	1021.1392	1694.35	825.95
853.7908	1023.1299	1691.15	820.6
853.9359	1025.12	1690.55	818
854.081	1027.1093	1688	817.75
854.2261	1029.0979	1697.45	829.05
854.3712	1031.0859	1708.1	838.1
854.5163	1033.0731	1719.45	848.3
854.6613	1035.0596	1717.8	850.25
854.8064	1037.0454	1713.95	841.7
854.9515	1039.0304	1698.65	827.65
855.0965	1041.0148	1688.1	818.15
855.2416	1042.9985	1673.45	801.1
855.3867	1044.9814	1660	789.5
855.5317	1046.9636	1656.05	781.1
855.6768	1048.9452	1659.05	787.45
855.8219	1050.926	1666.65	797.65
855.9669	1052.9061	1682.05	813.1
856.112	1054.8855	1684.75	814.8
856.257	1056.8642	1680.85	809.4
856.4021	1058.8421	1680.2	803.85
856.5471	1060.8194	1683.1	810.8
856.6921	1062.7959	1665.3	793.25
856.8372	1064.7717	1672.75	797.6
856.9822	1066.7469	1672.15	800.05
857.1272	1068.7213	1668.45	793.5
857.2723	1070.695	1674.2	802.1
857.4173	1072.6679	1680.65	807.35
857.5623	1074.6402	1697.6	824.3
857.7073	1076.6117	1710.05	831.65
857.8523	1078.5826	1698.7	825.25
857.9973	1080.5527	1674.2	798.3
858.1423	1082.5221	1653.1	777.9
858.2873	1084.4908	1629.4	756.8
858.4323	1086.4587	1617.2	743.5
858.5773	1088.426	1609.8	735.65
858.7223	1090.3925	1605.55	729.2
858.8673	1092.3584	1603.3	730.7
859.0123	1094.3235	1607.1	733.3
859.1573	1096.2879	1628.1	753.45
859.3022	1098.2515	1627.55	753.6
859.4472	1100.2145	1642.25	769.25
859.5922	1102.1767	1673.5	797.7
859.7371	1104.1382	1697.45	824.4
859.8821	1106.099	1728.95	853.35
860.027	1108.0591	1757.15	882.6
860.172	1110.0185	1781.05	907.25
860.3169	1111.9771	1802.3	929.8
860.4619	1113.9351	1831	956.15
860.6068	1115.8923	1878.9	1002.35
860.7517	1117.8488	1914.25	1038.25
860.8967	1119.8045	1887.05	1011.85
861.0416	1121.7596	1810.3	934.75
861.1865	1123.7139	1737.45	863.85
861.3314	1125.6675	1697.1	824.6
861.4763	1127.6204	1683.15	808.75
861.6212	1129.5726	1709.1	833.65
861.7661	1131.524	1707.15	831.55
861.911	1133.4748	1678.5	802.9
862.0559	1135.4248	1647.55	770.9
862.2008	1137.3741	1608.95	734.25
862.3457	1139.3226	1590.15	713.15
862.4905	1141.2705	1581.2	706
862.6354	1143.2176	1598.1	716.55
862.7803	1145.164	1595.95	719.2
862.9251	1147.1097	1597.5	721.75
863.07	1149.0546	1586.55	708.75
863.2148	1150.9989	1572.85	694.95
863.3597	1152.9424	1562.4	686.35
863.5045	1154.8852	1543.85	667.25
863.6493	1156.8272	1533.4	657.95
863.7942	1158.7686	1547.6	664.65
863.939	1160.7092	1529.65	653.3
864.0838	1162.6491	1532	654.6
864.2286	1164.5883	1538.05	661.15
864.3734	1166.5267	1551.35	671.8
864.5182	1168.4644	1550.1	672
864.663	1170.4014	1582.5	701.2
864.8078	1172.3377	1594	719.15
864.9526	1174.2732	1626.7	750.65
865.0974	1176.2081	1674.65	798.2
865.2421	1178.1421	1749.25	870.05
865.3869	1180.0755	1837.2	960.55
865.5317	1182.0082	1885.7	1008.4
865.6764	1183.9401	1887	1008.6
865.8212	1185.8713	1827.7	950.55
865.9659	1187.8017	1736.55	857.3
866.1106	1189.7315	1675.2	798.05
866.2554	1191.6605	1636.65	730.3
866.4001	1193.5888	1581.1	702.9
866.5448	1195.5163	1562.55	684.55
866.6895	1197.4432	1544.85	666.65
866.8342	1199.3693	1525.6	648.05
866.9789	1201.2947	1521.3	636.9
867.1236	1203.2193	1515.9	640.5
867.2683	1205.1432	1506.85	627.1
867.413	1207.0664	1504.6	625
867.5576	1208.9889	1503.8	620.9
867.7023	1210.9106	1502.5	624.95
867.847	1212.8316	1490.2	611.85
867.9916	1214.7519	1510.75	622.9
868.1363	1216.6715	1512.5	636
868.2809	1218.5903	1525.25	646.8
868.4255	1220.5084	1525.75	644.4
868.5701	1222.4257	1537.3	659.8
868.7148	1224.3424	1538.15	660.65
868.8594	1226.2583	1554.6	671.05
869.004	1228.1735	1558.9	678.1
869.1486	1230.0879	1587.3	708.6
869.2932	1232.0016	1603.3	725.7
869.4377	1233.9146	1633.35	754.1
869.5823	1235.8269	1645.45	765.6
869.7269	1237.7384	1631.35	751.55
869.8715	1239.6492	1633.25	754.5
870.016	1241.5592	1639.6	760.35
870.1606	1243.4686	1659.8	780.7
870.3051	1245.3772	1704.25	824.65
870.4496	1247.285	1764.5	884.6
870.5941	1249.1922	1815.45	934.4
870.7387	1251.0986	1856.7	979.95
