Software Version:	3.9.2.0
Unit SN:	10000200
Spectrometer SN:	6960
Date:	3/14/2024 1:16:27 PM
Data Line Index:	25
Spectral Points:	2048
Integration time (ms):	125
Averages:	20
Delay (ms):	30000
Sequence Number:	1
Processing:	dark subtract
Laser Power (mW):	300
Laser Current (mA):	825
Laser Diode Temp (C):	25
Laser Case Temp (C):	28.3
System Temp (C):	28.3
Spectrometer Temp (C):	26.1
CCD Temp (C):	0.002
Secondary Temp (C):	20.01
Heatsink Temp (C):	24.146
CCDPCB Temp (C):	37.696
SecondaryPCB Temp (C):	35.195

Wavelength	RamanShift	Raw Counts	Dark Subtracted
787.061	30.1047	452.4	41.05
787.2016	32.3739	453.6	41.95
787.3422	34.6426	460.35	49.05
787.4828	36.9109	461.6	50.75
787.6235	39.1787	475.3	57.75
787.7642	41.4461	482	60.8
787.9049	43.7131	492.65	68.5
788.0456	45.9796	496.5	68.9
788.1863	48.2456	506.95	75.7
788.3271	50.5112	514.75	78.95
788.4679	52.7764	520.7	80.3
788.6087	55.0411	532.65	91.05
788.7496	57.3054	542.55	94.35
788.8904	59.5692	552.15	103.55
789.0313	61.8326	563.5	110.7
789.1722	64.0955	575.95	119.1
789.3132	66.3579	588.8	126.75
789.4541	68.6199	606.35	141.2
789.5951	70.8815	632.6	163.4
789.7361	73.1426	712.6	239.25
789.8771	75.4032	897.45	420.3
790.0181	77.6634	1352.95	872
790.1592	79.9231	2436.2	1950.2
790.3003	82.1824	4770.25	4274.95
790.4414	84.4412	9002.35	8491.4
790.5825	86.6995	14846.65	14316.6
790.7237	88.9574	20634.65	20088.6
790.8648	91.2148	24580.8	24021.6
791.006	93.4717	26445.75	25881.5
791.1472	95.7282	26693.35	26124.05
791.2885	97.9842	26480.65	25906.45
791.4297	100.2398	25771.75	25197.5
791.571	102.4949	25032.85	24455.15
791.7123	104.7495	24139.7	23555.4
791.8536	107.0036	23305.05	22724.2
791.9949	109.2573	22570.15	21988.2
792.1363	111.5105	21835.3	21252.55
792.2777	113.7632	21194.15	20606
792.4191	116.0154	20665.4	20069.35
792.5605	118.2672	20326.45	19734.45
792.7019	120.5185	19908.15	19318.65
792.8434	122.7693	19637.25	19043.55
792.9849	125.0197	19424.45	18829.25
793.1264	127.2696	19159.8	18562.2
793.2679	129.519	18948.25	18347.65
793.4094	131.7679	18705.65	18098.75
793.551	134.0163	18451.1	17844.4
793.6926	136.2642	18141.7	17527.3
793.8342	138.5117	17800.55	17180.1
793.9758	140.7587	17472.8	16854.65
794.1175	143.0052	17126.75	16508.7
794.2591	145.2512	16805.4	16186.9
794.4008	147.4967	16520.65	15900.5
794.5425	149.7417	16295.55	15674.1
794.6842	151.9863	16129.1	15505.35
794.826	154.2304	16051.15	15423.6
794.9677	156.4739	15881.75	15248.9
795.1095	158.717	15789.6	15154.65
795.2513	160.9596	15620.15	14981
795.3931	163.2017	15382.8	14743.25
795.535	165.4433	15113.85	14471.2
795.6768	167.6844	14784.5	14140.4
795.8187	169.925	14497.65	13849.8
795.9606	172.1651	14169.75	13519.25
796.1025	174.4047	13918.25	13265.4
796.2445	176.6439	13673.7	13020
796.3864	178.8825	13471.85	12810.7
796.5284	181.1206	13352.55	12692.1
796.6704	183.3582	13188.05	12522.55
796.8124	185.5954	13095.9	12427.2
796.9544	187.832	13058.8	12389
797.0965	190.0681	12996.65	12325.3
797.2386	192.3037	12990.1	12314.25
797.3806	194.5388	12963.7	12286.45
797.5228	196.7734	13019	12338.55
797.6649	199.0075	13068.35	12385.15
797.807	201.2411	13173.9	12486.9
797.9492	203.4742	13241.5	12555.85
798.0914	205.7068	13378.1	12689.9
798.2336	207.9389	13467.3	12779
798.3758	210.1704	13625.15	12931.75
798.518	212.4015	13701.3	13007.45
798.6603	214.632	13835.35	13138.8
798.8025	216.862	13936.75	13244.95
798.9448	219.0915	14031.5	13349.65
799.0871	221.3205	14102.6	13424.5
799.2294	223.549	14177.1	13505.05
799.3718	225.777	14270.4	13601.75
799.5141	228.0044	14361.65	13685.1
799.6565	230.2314	14488.85	13814.05
799.7989	232.4578	14607.9	13933.6
799.9413	234.6837	14720.7	14037.25
800.0837	236.909	14780.85	14098.9
800.2262	239.1339	14790.9	14086.9
800.3687	241.3582	14701.4	14011.1
800.5111	243.582	14630.2	13912.95
800.6536	245.8053	14535.8	13825.85
800.7961	248.0281	14471.3	13763.65
800.9387	250.2503	14441.75	13731.6
801.0812	252.472	14472	13756.9
801.2238	254.6932	14565.85	13845.2
801.3664	256.9139	14657.3	13935.85
801.509	259.134	14871.25	14147.5
801.6516	261.3536	15028.55	14307.1
801.7942	263.5727	15322.95	14600.8
801.9369	265.7912	15572.45	14848.5
802.0795	268.0092	15820.15	15096.7
802.2222	270.2267	16000.9	15274.1
802.3649	272.4436	16125.35	15397.45
802.5076	274.6601	16124.65	15391.25
802.6504	276.8759	16041.15	15312.6
802.7931	279.0913	15979.85	15249.75
802.9359	281.3061	15832.5	15100.45
803.0787	283.5204	15786.05	15050.1
803.2215	285.7341	15750.65	15013.5
803.3643	287.9473	15755	15013.65
803.5071	290.16	15838.35	15090.8
803.6499	292.3721	15906.05	15167.8
803.7928	294.5837	16080.1	15340.35
803.9357	296.7947	16248.4	15508.3
804.0786	299.0052	16414.4	15671.85
804.2215	301.2152	16392.05	15647.1
804.3644	303.4246	16250.65	15512
804.5074	305.6334	15962.9	15220.4
804.6503	307.8418	15552.05	14807.65
804.7933	310.0495	15152.95	14405.9
804.9363	312.2568	14756.65	14012.5
805.0793	314.4635	14368.65	13623.05
805.2223	316.6696	14081.4	13334.8
805.3653	318.8752	13856.65	13097.5
805.5084	321.0802	13775.75	13026.95
805.6514	323.2847	13777.75	13029
805.7945	325.4887	13834.2	13081.95
805.9376	327.692	13810.7	13059.65
806.0807	329.8949	13802.45	13048.85
806.2238	332.0972	13601.4	12846.5
806.367	334.2989	13404.25	12646.75
806.5101	336.5001	13195.65	12436.65
806.6533	338.7007	12981.45	12221.55
806.7965	340.9008	12825.9	12065.1
806.9397	343.1003	12686.95	11926.45
807.0829	345.2992	12559.9	11797.25
807.2261	347.4976	12461.95	11695.65
807.3693	349.6955	12364.55	11596.3
807.5126	351.8927	12335.75	11567.9
807.6559	354.0895	12259.2	11477.7
807.7991	356.2856	12248.2	11480.9
807.9424	358.4812	12169.75	11400.95
808.0857	360.6763	12164.7	11395.15
808.2291	362.8707	12137.35	11367.65
808.3724	365.0646	12168.8	11392.05
808.5158	367.258	12242.9	11465.95
808.6591	369.4508	12290.3	11510.45
808.8025	371.643	12406.1	11625.55
808.9459	373.8346	12467.5	11685.2
809.0893	376.0257	12540.85	11755
809.2327	378.2162	12569.85	11782.65
809.3762	380.4062	12557	11769.15
809.5196	382.5956	12410.65	11621.6
809.6631	384.7844	12335.8	11549.1
809.8066	386.9726	12199.8	11408.75
809.9501	389.1603	12126.4	11339.15
810.0936	391.3474	12079.05	11260.4
810.2371	393.5339	12032.9	11244.5
810.3806	395.7199	11987.2	11202.15
810.5241	397.9052	12034.45	11253.65
810.6677	400.09	12094.4	11311.8
810.8113	402.2743	12211.4	11431.65
810.9548	404.4579	12360.3	11581.5
811.0984	406.641	12559.85	11777.9
811.2421	408.8235	12700.95	11917.6
811.3857	411.0054	12834.25	12051.2
811.5293	413.1868	13021.2	12234.4
811.673	415.3675	13083.5	12294.95
811.8166	417.5477	13058.65	12269.55
811.9603	419.7273	13027.2	12236.9
812.104	421.9064	12933.5	12138.15
812.2477	424.0848	12859.35	12063.25
812.3914	426.2627	12748.65	11954.5
812.5351	428.4399	12529.5	11732
812.6788	430.6166	12197.3	11395.8
812.8226	432.7928	11909.7	11106.45
812.9663	434.9683	11597.95	10797.95
813.1101	437.1432	11365.15	10559.15
813.2539	439.3176	11205.6	10401.95
813.3977	441.4914	11093.4	10288.95
813.5415	443.6645	11067	10260.5
813.6853	445.8371	11007.85	10201.75
813.8291	448.0091	10944	10142
813.973	450.1806	10956.9	10151.95
814.1168	452.3514	10934.7	10126.85
814.2607	454.5216	10987.75	10167.5
814.4046	456.6913	10913.7	10100.95
814.5485	458.8603	10956.05	10147.3
814.6924	461.0288	11002.6	10194.3
814.8363	463.1967	10966.35	10158.2
814.9802	465.3639	11021.6	10211.6
815.1241	467.5306	10985.8	10173.9
815.2681	469.6967	11015.9	10204.2
815.412	471.8622	11028.45	10214.35
815.556	474.0271	11065.55	10252.3
815.7	476.1914	11100.7	10284.35
815.844	478.3551	11080.95	10267.85
815.988	480.5182	11117.25	10303.8
816.132	482.6807	11182.4	10366.25
816.276	484.8426	11385.1	10569.1
816.4201	487.0039	11673.9	10859.6
816.5641	489.1647	12040.5	11225.6
816.7082	491.3248	12349.6	11532.5
816.8522	493.4843	12442.5	11625.9
816.9963	495.6432	12383.8	11567.6
817.1404	497.8015	12260.15	11440.6
817.2845	499.9592	12142.1	11325.7
817.4286	502.1163	11920.05	11104.4
817.5727	504.2728	11643	10820.2
817.7168	506.4287	11379.75	10563.3
817.861	508.5839	11064.95	10244.25
818.0051	510.7386	10854.15	10032.85
818.1493	512.8927	10768.85	9936.1
818.2935	515.0461	10774.45	9951.7
818.4377	517.199	10834	10012.85
818.5818	519.3512	10961.55	10138.45
818.726	521.5029	11202.75	10373.9
818.8703	523.6539	11456.95	10633.1
819.0145	525.8043	11549.9	10726.15
819.1587	527.9541	11494.85	10667.45
819.303	530.1033	11323.75	10497.55
819.4472	532.2519	11165.65	10337.9
819.5915	534.3999	11085.2	10257.25
819.7357	536.5472	11142.6	10312.4
819.88	538.694	11323.65	10495.2
820.0243	540.8401	11579.4	10751.95
820.1686	542.9856	11759.35	10929.65
820.3129	545.1305	11797.7	10968.65
820.4572	547.2748	11715.4	10884.15
820.6016	549.4185	11564.1	10733
820.7459	551.5615	11416.65	10587.35
820.8902	553.704	11422.9	10590.7
821.0346	555.8458	11472.45	10642.95
821.1789	557.987	11611.4	10780.55
821.3233	560.1276	11853.25	11020.6
821.4677	562.2675	12187.4	11355.75
821.6121	564.4069	12679.85	11848.7
821.7565	566.5456	13076.9	12244.8
821.9009	568.6837	13204.65	12370.75
822.0453	570.8212	12814.85	11981.85
822.1897	572.958	12180.45	11344.3
822.3342	575.0942	11568.7	10734.65
822.4786	577.2299	11157.75	10324.45
822.6231	579.3648	10956.45	10121.35
822.7675	581.4992	10862.1	10025.2
822.912	583.6329	10987.7	10153.9
823.0565	585.766	11170.75	10338.4
823.201	587.8985	11281.2	10450.6
823.3454	590.0304	11357.9	10500.6
823.4899	592.1616	11308.45	10468.1
823.6345	594.2922	11152.85	10316.6
823.779	596.4222	10981.8	10144.55
823.9235	598.5515	10806.95	9971.9
824.068	600.6802	10638.15	9802.6
824.2126	602.8083	10489.7	9652.95
824.3571	604.9358	10459.95	9620.15
824.5017	607.0626	10461.25	9622.9
824.6462	609.1888	10559.45	9723.55
824.7908	611.3144	10696.3	9857.6
824.9354	613.4393	10799.95	9958.8
825.08	615.5636	10880	10039.8
825.2246	617.6873	10948.45	10108.25
825.3692	619.8103	10884.15	10041.5
825.5138	621.9327	10695.4	9850.55
825.6584	624.0544	10519.4	9679.2
825.803	626.1756	10303.45	9460.6
825.9477	628.2961	10150.45	9307.5
826.0923	630.4159	10085.5	9242.85
826.237	632.5351	10055.35	9211.55
826.3816	634.6537	10043.65	9198.8
826.5263	636.7716	10061.85	9217.15
826.6709	638.8889	10067.95	9221.6
826.8156	641.0056	10082.9	9240.2
826.9603	643.1216	10045.5	9201.45
827.105	645.237	10031.4	9184.8
827.2497	647.3518	9944.1	9098.75
827.3944	649.4659	9873.2	9026
827.5391	651.5793	9821.05	8973.9
827.6838	653.6922	9768.75	8921.05
827.8285	655.8043	9761.3	8916.75
827.9733	657.9159	9758.8	8913.75
828.118	660.0268	9713.3	8863.1
828.2627	662.137	9737.5	8890.65
828.4075	664.2466	9717.5	8867.45
828.5522	666.3556	9723.4	8875.7
828.697	668.4639	9673.15	8822.2
828.8418	670.5716	9643.3	8793.35
828.9865	672.6786	9600.7	8751.1
829.1313	674.785	9545.65	8695.2
829.2761	676.8907	9525.35	8675.35
829.4209	678.9958	9523.8	8675.5
829.5657	681.1002	9486	8637.25
829.7105	683.204	9481.45	8630.05
829.8553	685.3072	9443.65	8591.9
830.0001	687.4097	9430	8578.65
830.1449	689.5115	9427.75	8574.25
830.2898	691.6127	9395.25	8543.15
830.4346	693.7132	9385.2	8531.75
830.5794	695.8131	9417.1	8552.2
830.7243	697.9123	9418.35	8564.25
830.8691	700.0109	9430.7	8574.9
831.014	702.1089	9470.7	8619.4
831.1588	704.2061	9518.75	8667.25
831.3037	706.3028	9544.3	8689.1
831.4486	708.3987	9629.15	8773.3
831.5935	710.4941	9622.75	8771.05
831.7383	712.5887	9643.55	8788.8
831.8832	714.6827	9732.7	8873.5
832.0281	716.7761	9837.15	8983.7
832.173	718.8688	9998.6	9142.7
832.3179	720.9608	10131.6	9271.2
832.4628	723.0522	10245.9	9389.8
832.6077	725.1429	10310.7	9453.9
832.7527	727.233	10356.45	9501.75
832.8976	729.3224	10417.5	9561.15
833.0425	731.4112	10327.55	9469.1
833.1874	733.4993	10208.45	9347.05
833.3324	735.5867	10004.35	9146.1
833.4773	737.6735	9788.2	8928.25
833.6222	739.7596	9594.95	8734.7
833.7672	741.845	9456.1	8596.55
833.9122	743.9298	9376.75	8515.8
834.0571	746.014	9334	8477.65
834.2021	748.0974	9298.9	8439.9
834.347	750.1802	9308	8449.85
834.492	752.2624	9310.95	8453.75
834.637	754.3439	9392.45	8533
834.782	756.4247	9446.8	8578.95
834.9269	758.5048	9632.3	8773.95
835.0719	760.5843	9837.05	8977.65
835.2169	762.6631	10234.95	9377.05
835.3619	764.7413	10768.55	9909.1
835.5069	766.8188	11421.65	10560.75
835.6519	768.8956	11955.85	11091.65
835.7969	770.9718	12388.8	11528.15
835.9419	773.0473	12308.3	11445.75
836.0869	775.1221	12076.4	11215.85
836.232	777.1962	11818.25	10955.7
836.377	779.2697	11727.75	10864.9
836.522	781.3426	11828.85	10959.05
836.667	783.4147	11936.75	11073.35
836.8121	785.4862	11976.1	11114.4
836.9571	787.557	11808.4	10946.25
837.1021	789.6271	11371.15	10505.6
837.2472	791.6966	10750.45	9887.9
837.3922	793.7654	10171.9	9308.25
837.5373	795.8335	9770.2	8907.3
837.6823	797.901	9473.25	8611.95
837.8274	799.9678	9315.35	8451.7
837.9724	802.0339	9198.55	8338.25
838.1175	804.0993	9178.15	8304.6
838.2626	806.1641	9119.45	8255.5
838.4076	808.2282	9084.15	8221.1
838.5527	810.2916	8997.25	8131.1
838.6978	812.3544	8908.75	8045.65
838.8428	814.4164	8857.15	7995.5
838.9879	816.4778	8901.5	8036.25
839.133	818.5385	8918.7	8056.45
839.2781	820.5986	9051	8186.5
839.4232	822.658	9265.65	8399
839.5682	824.7166	9563.05	8699.75
839.7133	826.7747	10047.9	9185.65
839.8584	828.832	10573	9709.35
840.0035	830.8886	10925.75	10058.15
840.1486	832.9446	11093.3	10228.6
840.2937	834.9999	10981.8	10118.7
840.4388	837.0545	10695.95	9826.9
840.5839	839.1085	10360.05	9494.15
840.729	841.1618	10039	9170.5
840.8741	843.2143	9800.45	8933.3
841.0192	845.2662	9628.25	8762.5
841.1643	847.3175	9493.2	8628.05
841.3095	849.368	9378.55	8510.95
841.4546	851.4179	9269.85	8403.05
841.5997	853.467	9164.85	8297.6
841.7448	855.5155	9115	8248.55
841.8899	857.5633	9056.95	8191.7
842.0351	859.6105	8956.15	8090.3
842.1802	861.6569	8890.9	8023.75
842.3253	863.7027	8798.75	7930.5
842.4704	865.7478	8747.3	7880.4
842.6156	867.7922	8692.9	7825.45
842.7607	869.8359	8681.2	7811.55
842.9058	871.8789	8703.6	7834.7
843.0509	873.9212	8798.85	7897.5
843.1961	875.9629	8837.65	7969.9
843.3412	878.0039	8950.1	8079.85
843.4863	880.0441	9017.6	8151.4
843.6315	882.0837	9066	8196.6
843.7766	884.1226	9104.7	8236.15
843.9218	886.1609	9130.35	8263.35
844.0669	888.1984	9243.2	8373.65
844.212	890.2352	9380.7	8513.9
844.3572	892.2714	9422.2	8550.6
844.5023	894.3069	9328.85	8459.25
844.6475	896.3416	9190.05	8320.65
844.7926	898.3757	9044.2	8173.4
844.9377	900.4091	8944.95	8074.4
845.0829	902.4418	8906.4	8032.85
845.228	904.4739	8956.55	8085.25
845.3732	906.5052	9011.6	8141.45
845.5183	908.5358	8975.25	8106.35
845.6635	910.5658	8863.05	7990.55
845.8086	912.595	8661.75	7792.95
845.9538	914.6236	8453.45	7586.1
846.0989	916.6515	8333.7	7463.05
846.2441	918.6786	8247.3	7375.5
846.3892	920.7051	8252.65	7381.8
846.5344	922.7309	8250.6	7380.35
846.6795	924.756	8258.2	7386.85
846.8246	926.7804	8335.5	7461.05
846.9698	928.8041	8330.6	7459.55
847.1149	930.8272	8393.65	7522.9
847.2601	932.8495	8368.4	7495.4
847.4052	934.8711	8349.35	7478.05
847.5504	936.892	8317.55	7446
847.6955	938.9123	8314.6	7441
847.8407	940.9318	8319.1	7444.9
847.9858	942.9506	8335.1	7463.55
848.131	944.9688	8278.65	7406.7
848.2761	946.9862	8181.7	7310.45
848.4213	949.003	8055.25	7184.15
848.5664	951.019	7953.85	7080.85
848.7115	953.0344	7889.05	7015.75
848.8567	955.0491	7858.85	6986.55
849.0018	957.063	7892.65	7020.55
849.147	959.0763	7960.9	7088.3
849.2921	961.0888	7977.6	7104
849.4373	963.1007	8034.35	7162.45
849.5824	965.1119	8068.2	7195.3
849.7275	967.1223	8048	7174
849.8727	969.1321	8019.25	7146.45
850.0178	971.1412	8019.8	7147.6
850.1629	973.1495	7996.8	7121.7
850.3081	975.1572	8024.05	7118.7
850.4532	977.1641	8015.7	7143.7
850.5983	979.1704	7990.7	7117.55
850.7435	981.1759	7969.5	7093.5
850.8886	983.1808	7963	7087.65
851.0337	985.1849	8000.25	7115.85
851.1788	987.1884	8043.1	7168.75
851.324	989.1911	8126.95	7248.75
851.4691	991.1932	8190	7312.95
851.6142	993.1945	8178.4	7304.65
851.7593	995.1951	8174.05	7299.45
851.9045	997.1951	8166.95	7286.8
852.0496	999.1943	8109.35	7236.55
852.1947	1001.1928	8141.2	7266.9
852.3398	1003.1906	8170.2	7295.85
852.4849	1005.1877	8289.9	7413.65
852.63	1007.1841	8371.45	7496.85
852.7751	1009.1798	8409.4	7537.25
852.9202	1011.1748	8311.7	7435.95
853.0653	1013.1691	8152.85	7275.6
853.2104	1015.1627	7975.1	7100.5
853.3555	1017.1556	7779.85	6904.8
853.5006	1019.1477	7679.6	6804.3
853.6457	1021.1392	7588	6711.95
853.7908	1023.1299	7535.7	6661.25
853.9359	1025.12	7559.55	6681.75
854.081	1027.1093	7617.8	6744.3
854.2261	1029.0979	7714.8	6840.95
854.3712	1031.0859	7796.4	6919
854.5163	1033.0731	7842.1	6967.15
854.6613	1035.0596	7801.95	6928.35
854.8064	1037.0454	7701.2	6826.3
854.9515	1039.0304	7600.4	6725.4
855.0965	1041.0148	7494.9	6620.9
855.2416	1042.9985	7391.55	6513.4
855.3867	1044.9814	7347.45	6472.75
855.5317	1046.9636	7310.3	6434.6
855.6768	1048.9452	7277.2	6399.45
855.8219	1050.926	7327.75	6451.6
855.9669	1052.9061	7340.1	6466.85
856.112	1054.8855	7373.35	6497.35
856.257	1056.8642	7426.85	6551.75
856.4021	1058.8421	7440.9	6560.2
856.5471	1060.8194	7467.15	6591.8
856.6921	1062.7959	7526.05	6650.4
856.8372	1064.7717	7580.2	6701.7
856.9822	1066.7469	7639.55	6762.1
857.1272	1068.7213	7703.75	6826.05
857.2723	1070.695	7779.45	6902.1
857.4173	1072.6679	7828.2	6953.9
857.5623	1074.6402	7825.85	6947.5
857.7073	1076.6117	7821.45	6941.95
857.8523	1078.5826	7715.05	6837.35
857.9973	1080.5527	7577.7	6698.05
858.1423	1082.5221	7492.1	6614.25
858.2873	1084.4908	7463	6584.6
858.4323	1086.4587	7467.65	6590.35
858.5773	1088.426	7495.95	6617.55
858.7223	1090.3925	7513.55	6630.5
858.8673	1092.3584	7533.35	6657.95
859.0123	1094.3235	7531.45	6655.1
859.1573	1096.2879	7625.4	6749.5
859.3022	1098.2515	7748.45	6870.4
859.4472	1100.2145	7881.4	7003.45
859.5922	1102.1767	8062.35	7185.25
859.7371	1104.1382	8267.3	7390.2
859.8821	1106.099	8498.55	7622.5
860.027	1108.0591	8741.6	7862.15
860.172	1110.0185	8860.15	7979.6
860.3169	1111.9771	8956.75	8080
860.4619	1113.9351	8886.4	8009.4
860.6068	1115.8923	8781.6	7905.55
860.7517	1117.8488	8627.55	7748.95
860.8967	1119.8045	8478.75	7601.95
861.0416	1121.7596	8351	7472.8
861.1865	1123.7139	8193	7315.9
861.3314	1125.6675	8134.35	7256.55
861.4763	1127.6204	8143.8	7267.6
861.6212	1129.5726	8125.15	7245.4
861.7661	1131.524	8050.75	7172.7
861.911	1133.4748	7927.8	7049
862.0559	1135.4248	7763.3	6884.75
862.2008	1137.3741	7601.25	6722.9
862.3457	1139.3226	7466.95	6586.4
862.4905	1141.2705	7433.2	6555.55
862.6354	1143.2176	7373.35	6488.25
862.7803	1145.164	7321.25	6442.95
862.9251	1147.1097	7250.85	6372.35
863.07	1149.0546	7165.45	6284.2
863.2148	1150.9989	7051.4	6172.2
863.3597	1152.9424	6951.8	6072.75
863.5045	1154.8852	6875.65	5994.65
863.6493	1156.8272	6830.95	5954.35
863.7942	1158.7686	6839.4	5954.8
863.939	1160.7092	6851.95	5972.75
864.0838	1162.6491	6879.95	5997.35
864.2286	1164.5883	6992.85	6114.45
864.3734	1166.5267	7099.95	6221.15
864.5182	1168.4644	7244.45	6363.8
864.663	1170.4014	7412.7	6529.95
864.8078	1172.3377	7654.9	6778
864.9526	1174.2732	7939.3	7061.6
865.0974	1176.2081	8354.5	7478.05
865.2421	1178.1421	8817.75	7932.95
865.3869	1180.0755	9341.55	8464.5
865.5317	1182.0082	9684.6	8805.15
865.6764	1183.9401	9844.6	8966.05
865.8212	1185.8713	9709.8	8829.8
865.9659	1187.8017	9388.55	8507.6
866.1106	1189.7315	9007.6	8128.4
866.2554	1191.6605	8635.8	7726.85
866.4001	1193.5888	8316.25	7434.8
866.5448	1195.5163	8168.1	7287.75
866.6895	1197.4432	8056.1	7174.3
866.8342	1199.3693	8021.65	7142
866.9789	1201.2947	7978.2	7091
867.1236	1203.2193	7951.6	7071.8
867.2683	1205.1432	7949.7	7070.3
867.413	1207.0664	7899.4	7021.75
867.5576	1208.9889	7895	7013.5
867.7023	1210.9106	7886.05	7009.05
