Software Version:	3.9.2.0
Unit SN:	10000200
Spectrometer SN:	6960
Date:	3/14/2024 12:58:58 PM
Data Line Index:	25
Spectral Points:	2048
Integration time (ms):	125
Averages:	20
Delay (ms):	30000
Sequence Number:	1
Processing:	dark subtract
Laser Power (mW):	300
Laser Current (mA):	823
Laser Diode Temp (C):	25
Laser Case Temp (C):	27.9
System Temp (C):	28
Spectrometer Temp (C):	25.7
CCD Temp (C):	0.004
Secondary Temp (C):	20.01
Heatsink Temp (C):	23.772
CCDPCB Temp (C):	37.018
SecondaryPCB Temp (C):	35.095

Wavelength	RamanShift	Raw Counts	Dark Subtracted
787.061	30.1047	418.2	5.7
787.2016	32.3739	416.75	6.45
787.3422	34.6426	418.15	6.7
787.4828	36.9109	422.3	9
787.6235	39.1787	424.9	7.8
787.7642	41.4461	430.85	9.65
787.9049	43.7131	436.9	12
788.0456	45.9796	437.7	9.2
788.1863	48.2456	443.2	9.85
788.3271	50.5112	448.85	10.9
788.4679	52.7764	450.8	11.95
788.6087	55.0411	452.95	8.05
788.7496	57.3054	459.5	12.75
788.8904	59.5692	464.55	13.95
789.0313	61.8326	470.2	18
789.1722	64.0955	475.6	17.95
789.3132	66.3579	482.6	17.95
789.4541	68.6199	485.75	19.85
789.5951	70.8815	496.55	28.9
789.7361	73.1426	512.05	39.05
789.8771	75.4032	544.75	68.5
790.0181	77.6634	614.95	135.4
790.1592	79.9231	775.95	289.95
790.3003	82.1824	1118.3	624.9
790.4414	84.4412	1686.65	1183.8
790.5825	86.6995	2448.55	1931.75
790.7237	88.9574	3193.15	2666.25
790.8648	91.2148	3728.55	3192.2
791.006	93.4717	3991.85	3450.45
791.1472	95.7282	4061.9	3514.3
791.2885	97.9842	4105.7	3556.4
791.4297	100.2398	4066.05	3515.35
791.571	102.4949	4053.45	3497.15
791.7123	104.7495	4034.7	3474.6
791.8536	107.0036	3978.85	3420
791.9949	109.2573	3936.7	3377.45
792.1363	111.5105	3866.1	3306.3
792.2777	113.7632	3790.55	3228.75
792.4191	116.0154	3744.55	3171.1
792.5605	118.2672	3677.8	3112.2
792.7019	120.5185	3610.9	3042.15
792.8434	122.7693	3557.15	2987.25
792.9849	125.0197	3493.25	2921.55
793.1264	127.2696	3444.55	2866.55
793.2679	129.519	3418.1	2839.8
793.4094	131.7679	3400.55	2820.6
793.551	134.0163	3389.75	2807.45
793.6926	136.2642	3383.65	2795.65
793.8342	138.5117	3386.4	2794
793.9758	140.7587	3362.4	2771.95
794.1175	143.0052	3323.4	2727.9
794.2591	145.2512	3292.55	2698.4
794.4008	147.4967	3257.25	2660.6
794.5425	149.7417	3219.65	2620.5
794.6842	151.9863	3201.85	2601.05
794.826	154.2304	3208.3	2602.4
794.9677	156.4739	3192.35	2577.5
795.1095	158.717	3207.25	2594.75
795.2513	160.9596	3210	2593.65
795.3931	163.2017	3231.15	2615.25
795.535	165.4433	3228.2	2611.95
795.6768	167.6844	3223.25	2601.8
795.8187	169.925	3202.45	2577.65
795.9606	172.1651	3158.65	2530.95
796.1025	174.4047	3127.25	2496.15
796.2445	176.6439	3101.05	2467.2
796.3864	178.8825	3070.4	2435.7
796.5284	181.1206	3062.55	2423.85
796.6704	183.3582	3052.1	2408.1
796.8124	185.5954	3050.9	2407.65
796.9544	187.832	3061.25	2412.5
797.0965	190.0681	3039.5	2390.2
797.2386	192.3037	3046.15	2391.8
797.3806	194.5388	3059.85	2405.85
797.5228	196.7734	3063.35	2404.5
797.6649	199.0075	3071.85	2408.9
797.807	201.2411	3093.4	2427.3
797.9492	203.4742	3093.3	2427.2
798.0914	205.7068	3121.5	2454.2
798.2336	207.9389	3127.75	2461.7
798.3758	210.1704	3141.25	2474.3
798.518	212.4015	3119.6	2448.1
798.6603	214.632	3140.6	2467.15
798.8025	216.862	3127.65	2456.4
798.9448	219.0915	3118.5	2453.8
799.0871	221.3205	3117.8	2456.45
799.2294	223.549	3110.2	2460
799.3718	225.777	3114	2463
799.5141	228.0044	3107.05	2452.05
799.6565	230.2314	3095.4	2441.35
799.7989	232.4578	3085.15	2433.2
799.9413	234.6837	3081.2	2419.95
800.0837	236.909	3074	2412.75
800.2262	239.1339	3076.25	2391.1
800.3687	241.3582	3061.05	2391.1
800.5111	243.582	3084.85	2389.1
800.6536	245.8053	3070.25	2379.1
800.7961	248.0281	3073.35	2387.65
800.9387	250.2503	3067.75	2378.6
801.0812	252.472	3083.05	2387.55
801.2238	254.6932	3091.1	2394.4
801.3664	256.9139	3082.25	2384
801.509	259.134	3093.5	2392.05
801.6516	261.3536	3099.7	2401
801.7942	263.5727	3129.15	2425.75
801.9369	265.7912	3139.8	2438.4
802.0795	268.0092	3169.5	2462
802.2222	270.2267	3215.65	2512.9
802.3649	272.4436	3236.85	2530.8
802.5076	274.6601	3248.5	2530.05
802.6504	276.8759	3268.35	2560.85
802.7931	279.0913	3271	2561.7
802.9359	281.3061	3283.8	2570.25
803.0787	283.5204	3299	2583.8
803.2215	285.7341	3307	2587.95
803.3643	287.9473	3324.5	2605.65
803.5071	290.16	3328.25	2601
803.6499	292.3721	3286.55	2567.05
803.7928	294.5837	3277.45	2555.45
803.9357	296.7947	3240.1	2520.25
804.0786	299.0052	3219.85	2499.25
804.2215	301.2152	3205.7	2481
804.3644	303.4246	3198.85	2477.05
804.5074	305.6334	3174.15	2452.25
804.6503	307.8418	3161.45	2436.05
804.7933	310.0495	3144.7	2418.15
804.9363	312.2568	3113.85	2389.3
805.0793	314.4635	3071.35	2342.7
805.2223	316.6696	3030	2299.85
805.3653	318.8752	2993.6	2258.65
805.5084	321.0802	2979.55	2250.95
805.6514	323.2847	2974.05	2241.95
805.7945	325.4887	2963.2	2232.8
805.9376	327.692	2977.3	2244.75
806.0807	329.8949	3007.9	2271.85
806.2238	332.0972	3027.8	2290.85
806.367	334.2989	3038.6	2296.15
806.5101	336.5001	3034.45	2294.5
806.6533	338.7007	3002.5	2264.05
806.7965	340.9008	2970.5	2229.05
806.9397	343.1003	2939.95	2196.35
807.0829	345.2992	2914.25	2171.25
807.2261	347.4976	2876.65	2130.9
807.3693	349.6955	2844.7	2094.05
807.5126	351.8927	2845.2	2091.85
807.6559	354.0895	2819.15	2057.05
807.7991	356.2856	2825.2	2074.05
807.9424	358.4812	2799.05	2047.75
808.0857	360.6763	2789.25	2039.25
808.2291	362.8707	2779.5	2028
808.3724	365.0646	2776	2019.8
808.5158	367.258	2785.55	2026.95
808.6591	369.4508	2799	2036.95
808.8025	371.643	2816.3	2056.15
808.9459	373.8346	2808.9	2044.3
809.0893	376.0257	2853.5	2085.7
809.2327	378.2162	2871.45	2101.65
809.3762	380.4062	2865	2094.5
809.5196	382.5956	2846.7	2073.15
809.6631	384.7844	2812.35	2042.7
809.8066	386.9726	2777.7	2005.3
809.9501	389.1603	2751.8	1979.65
810.0936	391.3474	2765.55	1959.75
810.2371	393.5339	2734.75	1964.6
810.3806	395.7199	2727.45	1960.9
810.5241	397.9052	2741.35	1978.65
810.6677	400.09	2766.4	2002.4
810.8113	402.2743	2787.55	2025.35
810.9548	404.4579	2798.05	2034.85
811.0984	406.641	2838.2	2073.9
811.2421	408.8235	2881.65	2117.2
811.3857	411.0054	2900.1	2130.2
811.5293	413.1868	2970.15	2202.65
811.673	415.3675	3026.8	2254.15
811.8166	417.5477	3040.45	2268.8
811.9603	419.7273	2977.2	2202.65
812.104	421.9064	2876.4	2093.2
812.2477	424.0848	2826.6	2045.45
812.3914	426.2627	2788.5	2008.05
812.5351	428.4399	2734.85	1952.5
812.6788	430.6166	2706.65	1918.95
812.8226	432.7928	2674	1887.2
812.9663	434.9683	2629.2	1843.3
813.1101	437.1432	2603.75	1811.7
813.2539	439.3176	2589.8	1804.1
813.3977	441.4914	2571.05	1780.95
813.5415	443.6645	2564.75	1772
813.6853	445.8371	2573.45	1779.95
813.8291	448.0091	2565.85	1776.35
813.973	450.1806	2556.35	1765.8
814.1168	452.3514	2551.8	1755.15
814.2607	454.5216	2552.55	1748.6
814.4046	456.6913	2544.4	1750.3
814.5485	458.8603	2546.35	1751.15
814.6924	461.0288	2541.45	1745.55
814.8363	463.1967	2542.1	1748.45
814.9802	465.3639	2533.5	1735.7
815.1241	467.5306	2517.55	1717.5
815.2681	469.6967	2502.9	1703.3
815.412	471.8622	2498.55	1700.4
815.556	474.0271	2489.1	1689.45
815.7	476.1914	2495.9	1694.3
815.844	478.3551	2487.95	1689.05
815.988	480.5182	2488.3	1685.75
816.132	482.6807	2487.55	1685.5
816.276	484.8426	2502.2	1700.9
816.4201	487.0039	2514.85	1713.35
816.5641	489.1647	2567.1	1765.25
816.7082	491.3248	2593.5	1790.8
816.8522	493.4843	2590.5	1789
816.9963	495.6432	2590.8	1785.95
817.1404	497.8015	2573.1	1765.3
817.2845	499.9592	2529.95	1724.35
817.4286	502.1163	2501.2	1693.95
817.5727	504.2728	2454.75	1643.05
817.7168	506.4287	2449.25	1643.6
817.861	508.5839	2442.7	1635.35
818.0051	510.7386	2422.1	1614.8
818.1493	512.8927	2440.7	1625.35
818.2935	515.0461	2440.45	1630.35
818.4377	517.199	2443.05	1632.75
818.5818	519.3512	2462.15	1652.15
818.726	521.5029	2503.05	1687.1
818.8703	523.6539	2539.3	1725.1
819.0145	525.8043	2546.55	1732.95
819.1587	527.9541	2515.9	1700.65
819.303	530.1033	2472.5	1657.6
819.4472	532.2519	2428.8	1615
819.5915	534.3999	2421.05	1604.75
819.7357	536.5472	2408.1	1595.85
819.88	538.694	2398.25	1582.9
820.0243	540.8401	2401.65	1583.15
820.1686	542.9856	2426.6	1606.95
820.3129	545.1305	2428.95	1610.6
820.4572	547.2748	2433.2	1613.95
820.6016	549.4185	2431.55	1613.75
820.7459	551.5615	2438.7	1619.55
820.8902	553.704	2442.05	1622.5
821.0346	555.8458	2452.55	1630.35
821.1789	557.987	2468.75	1648.05
821.3233	560.1276	2480.35	1658.45
821.4677	562.2675	2511.95	1691.45
821.6121	564.4069	2537.5	1715.65
821.7565	566.5456	2579.15	1759.1
821.9009	568.6837	2560.35	1738.5
822.0453	570.8212	2520.75	1700.65
822.1897	572.958	2476.85	1653.8
822.3342	575.0942	2447.95	1626.4
822.4786	577.2299	2410.1	1586.8
822.6231	579.3648	2383.05	1560.05
822.7675	581.4992	2378.7	1555.2
822.912	583.6329	2369.85	1547.15
823.0565	585.766	2384.25	1561
823.201	587.8985	2398.65	1577.4
823.3454	590.0304	2441.3	1606.6
823.4899	592.1616	2460.2	1633.65
823.6345	594.2922	2448.4	1625.5
823.779	596.4222	2416	1590.9
823.9235	598.5515	2368.55	1542
824.068	600.6802	2335.3	1508.7
824.2126	602.8083	2319.1	1492.4
824.3571	604.9358	2303.1	1473.35
824.5017	607.0626	2297.25	1469.6
824.6462	609.1888	2310.1	1479.7
824.7908	611.3144	2317.8	1487.8
824.9354	613.4393	2333.4	1502.55
825.08	615.5636	2358.2	1529.1
825.2246	617.6873	2395.4	1565.95
825.3692	619.8103	2420.6	1586.9
825.5138	621.9327	2421.55	1589.6
825.6584	624.0544	2395.6	1564.65
825.803	626.1756	2353.15	1523.75
825.9477	628.2961	2323.45	1491.8
826.0923	630.4159	2300.15	1468.25
826.237	632.5351	2295.1	1461.85
826.3816	634.6537	2290.85	1458.65
826.5263	636.7716	2283.65	1449.25
826.6709	638.8889	2279.15	1444.95
826.8156	641.0056	2289	1455.45
826.9603	643.1216	2288.2	1452.6
827.105	645.237	2284.7	1446
827.2497	647.3518	2262.1	1424.55
827.3944	649.4659	2249.15	1416.25
827.5391	651.5793	2244.95	1405.8
827.6838	653.6922	2238.05	1399.9
827.8285	655.8043	2229.95	1393.65
827.9733	657.9159	2224.4	1386.5
828.118	660.0268	2206.4	1366.85
828.2627	662.137	2198.1	1358.5
828.4075	664.2466	2197.9	1358
828.5522	666.3556	2191.55	1351.55
828.697	668.4639	2186.75	1343.45
828.8418	670.5716	2184.5	1344.25
828.9865	672.6786	2187.15	1346.35
829.1313	674.785	2181.8	1341.2
829.2761	676.8907	2165.75	1327.05
829.4209	678.9958	2173.15	1332.65
829.5657	681.1002	2171.95	1328
829.7105	683.204	2176.7	1331.6
829.8553	685.3072	2166.15	1323.4
830.0001	687.4097	2169.2	1326.35
830.1449	689.5115	2174.05	1325.7
830.2898	691.6127	2154.35	1313.1
830.4346	693.7132	2151.55	1307.6
830.5794	695.8131	2170.95	1313.8
830.7243	697.9123	2165.9	1319.4
830.8691	700.0109	2162.95	1316.8
831.014	702.1089	2174.2	1330.75
831.1588	704.2061	2173.7	1328.5
831.3037	706.3028	2183.65	1335.95
831.4486	708.3987	2201.7	1356
831.5935	710.4941	2200.5	1354.25
831.7383	712.5887	2207.4	1361.7
831.8832	714.6827	2213.15	1361.55
832.0281	716.7761	2198.2	1351.75
832.173	718.8688	2194.8	1346.9
832.3179	720.9608	2206.15	1354.55
832.4628	723.0522	2218	1365.9
832.6077	725.1429	2218.45	1372.9
832.7527	727.233	2247.15	1398.8
832.8976	729.3224	2289.1	1440.15
833.0425	731.4112	2317.6	1467.2
833.1874	733.4993	2327.8	1474.85
833.3324	735.5867	2292.8	1440.3
833.4773	737.6735	2248.6	1396.5
833.6222	739.7596	2212.05	1362.1
833.7672	741.845	2199.45	1349.4
833.9122	743.9298	2206.6	1351.9
834.0571	746.014	2205.3	1355.25
834.2021	748.0974	2216.05	1365.1
834.347	750.1802	2211.65	1360.1
834.492	752.2624	2196.4	1344.15
834.637	754.3439	2185.05	1331.1
834.782	756.4247	2181.05	1320.65
834.9269	758.5048	2162.05	1309.95
835.0719	760.5843	2175.3	1323.25
835.2169	762.6631	2184	1332.3
835.3619	764.7413	2219.65	1366.8
835.5069	766.8188	2277.55	1423.7
835.6519	768.8956	2313	1458.25
835.7969	770.9718	2362.3	1509.4
835.9419	773.0473	2356.35	1503.45
836.0869	775.1221	2328.6	1472.85
836.232	777.1962	2321.2	1466.95
836.377	779.2697	2354.8	1498.6
836.522	781.3426	2423.8	1556.8
836.667	783.4147	2464	1608.05
836.8121	785.4862	2442.6	1588.35
836.9571	787.557	2393.85	1539.1
837.1021	789.6271	2311.3	1456.55
837.2472	791.6966	2216.85	1361.15
837.3922	793.7654	2162.25	1304.75
837.5373	795.8335	2122.25	1266.7
837.6823	797.901	2091.25	1234.25
837.8274	799.9678	2089.8	1230.1
837.9724	802.0339	2087.2	1232.25
838.1175	804.0993	2104.8	1237.55
838.2626	806.1641	2085.45	1228.8
838.4076	808.2282	2072.4	1217.15
838.5527	810.2916	2064.85	1203.9
838.6978	812.3544	2056.2	1201.4
838.8428	814.4164	2042.65	1187.2
838.9879	816.4778	2048.95	1191.3
839.133	818.5385	2042.6	1187.8
839.2781	820.5986	2061.4	1204.6
839.4232	822.658	2101.35	1242.6
839.5682	824.7166	2145.75	1287.3
839.7133	826.7747	2197.05	1340.6
839.8584	828.832	2255.2	1396.65
840.0035	830.8886	2281.7	1423.4
840.1486	832.9446	2305.3	1446.2
840.2937	834.9999	2272.9	1416.65
840.4388	837.0545	2228.4	1365.8
840.5839	839.1085	2171.55	1311.25
840.729	841.1618	2124.75	1261.8
840.8741	843.2143	2083.3	1222.75
841.0192	845.2662	2072	1213.15
841.1643	847.3175	2063.25	1201.55
841.3095	849.368	2036.1	1174.85
841.4546	851.4179	2032.45	1171.7
841.5997	853.467	2031.65	1171.2
841.7448	855.5155	2040.25	1178.6
841.8899	857.5633	2027.95	1167.65
842.0351	859.6105	2028.8	1167.55
842.1802	861.6569	2026.3	1167.25
842.3253	863.7027	2003.7	1140.8
842.4704	865.7478	2007.45	1146.65
842.6156	867.7922	2002.6	1141.95
842.7607	869.8359	1993.75	1130.15
842.9058	871.8789	1986.6	1123.5
843.0509	873.9212	2023.75	1124.65
843.1961	875.9629	1991.75	1130
843.3412	878.0039	1991.7	1126.8
843.4863	880.0441	2001.8	1137.9
843.6315	882.0837	2014.8	1150.8
843.7766	884.1226	2033.45	1169.65
843.9218	886.1609	2046.8	1184.45
844.0669	888.1984	2073.55	1213.25
844.212	890.2352	2111.35	1250.45
844.3572	892.2714	2117.3	1249.3
844.5023	894.3069	2095.45	1229.05
844.6475	896.3416	2065.6	1201.5
844.7926	898.3757	2033.75	1168.1
844.9377	900.4091	2020.3	1155.6
845.0829	902.4418	2019.1	1149.35
845.228	904.4739	2042.2	1175.55
845.3732	906.5052	2032.1	1167.4
845.5183	908.5358	2030.05	1165.75
845.6635	910.5658	2014.9	1148
845.8086	912.595	1986.65	1120.35
845.9538	914.6236	1955.75	1091.8
846.0989	916.6515	1942.55	1078.4
846.2441	918.6786	1936.25	1069.35
846.3892	920.7051	1929.65	1063.65
846.5344	922.7309	1913.65	1046.7
846.6795	924.756	1910.8	1045.3
846.8246	926.7804	1927.65	1057.8
846.9698	928.8041	1923.55	1057.3
847.1149	930.8272	1947.05	1080.3
847.2601	932.8495	1937	1068.8
847.4052	934.8711	1933.35	1065.9
847.5504	936.892	1949.65	1081.15
847.6955	938.9123	1949.4	1084.3
847.8407	940.9318	1960.5	1095.1
847.9858	942.9506	1980.2	1112.45
848.131	944.9688	1977.9	1111.15
848.2761	946.9862	1952.5	1083.95
848.4213	949.003	1926	1058.7
848.5664	951.019	1908.3	1040.25
848.7115	953.0344	1893.2	1023.9
848.8567	955.0491	1897.55	1030.5
849.0018	957.063	1881.45	1012.1
849.147	959.0763	1872.15	1006.25
849.2921	961.0888	1876.65	1005.2
849.4373	963.1007	1880.4	1013.35
849.5824	965.1119	1867.3	998.9
849.7275	967.1223	1865.3	996.15
849.8727	969.1321	1864.5	995.7
850.0178	971.1412	1856.5	988.6
850.1629	973.1495	1857.65	988.8
850.3081	975.1572	1883.7	976.3
850.4532	977.1641	1853.95	984.95
850.5983	979.1704	1851.45	980.15
850.7435	981.1759	1846.5	974.5
850.8886	983.1808	1843.2	970.5
851.0337	985.1849	1848.6	968.45
851.1788	987.1884	1833.85	961.3
851.324	989.1911	1836.2	963.2
851.4691	991.1932	1837.95	965.9
851.6142	993.1945	1829.05	961.15
851.7593	995.1951	1832.45	960.7
851.9045	997.1951	1835	957.3
852.0496	999.1943	1822.05	951.15
852.1947	1001.1928	1818.85	947.45
852.3398	1003.1906	1815	944.5
852.4849	1005.1877	1833.35	961.85
852.63	1007.1841	1847.3	976.2
852.7751	1009.1798	1859.5	988
852.9202	1011.1748	1840.95	971.65
853.0653	1013.1691	1835.85	962.6
853.2104	1015.1627	1812.15	939.9
853.3555	1017.1556	1785.05	913.8
853.5006	1019.1477	1772.2	898.75
853.6457	1021.1392	1757.75	888.55
853.7908	1023.1299	1757.35	885.8
853.9359	1025.12	1754.55	882.1
854.081	1027.1093	1751.7	878.6
854.2261	1029.0979	1764.45	894.45
854.3712	1031.0859	1768.55	897.9
854.5163	1033.0731	1782.5	911.25
854.6613	1035.0596	1779.3	908.05
854.8064	1037.0454	1769.2	895.9
854.9515	1039.0304	1769.55	896.2
855.0965	1041.0148	1743.25	873.5
855.2416	1042.9985	1731.4	858.05
855.3867	1044.9814	1733.9	862
855.5317	1046.9636	1725.9	849.85
855.6768	1048.9452	1716.35	843.15
855.8219	1050.926	1729.4	858.25
855.9669	1052.9061	1738.3	865.95
856.112	1054.8855	1734.2	861.95
856.257	1056.8642	1740.45	868.5
856.4021	1058.8421	1742.2	864.8
856.5471	1060.8194	1723	851.45
856.6921	1062.7959	1721.2	849.45
856.8372	1064.7717	1728.5	855.1
856.9822	1066.7469	1718.95	843.8
857.1272	1068.7213	1724.2	846.6
857.2723	1070.695	1730.5	858
857.4173	1072.6679	1735.2	862.2
857.5623	1074.6402	1750.2	875.75
857.7073	1076.6117	1757.7	883.5
857.8523	1078.5826	1731.3	857.05
857.9973	1080.5527	1717.1	841.7
858.1423	1082.5221	1694.5	820.55
858.2873	1084.4908	1681.2	806.1
858.4323	1086.4587	1673.8	797.6
858.5773	1088.426	1661.95	788.05
858.7223	1090.3925	1657.7	780.15
858.8673	1092.3584	1659.75	784.95
859.0123	1094.3235	1658	784.25
859.1573	1096.2879	1668.15	793.9
859.3022	1098.2515	1686	811.85
859.4472	1100.2145	1701.15	825.65
859.5922	1102.1767	1718.5	840.25
859.7371	1104.1382	1743.55	867.65
859.8821	1106.099	1782.15	904.9
860.027	1108.0591	1801.15	928.05
860.172	1110.0185	1825	948.65
860.3169	1111.9771	1855.5	982.65
860.4619	1113.9351	1883.7	1008.75
860.6068	1115.8923	1909.25	1036.05
860.7517	1117.8488	1922.4	1042.5
860.8967	1119.8045	1884.1	1010.5
861.0416	1121.7596	1828.6	953
861.1865	1123.7139	1773.05	898.4
861.3314	1125.6675	1733.45	859
861.4763	1127.6204	1732.3	856.75
861.6212	1129.5726	1738.1	862.45
861.7661	1131.524	1740.15	864.65
861.911	1133.4748	1721.2	843.8
862.0559	1135.4248	1671.45	795.15
862.2008	1137.3741	1648.2	771.8
862.3457	1139.3226	1632	753.95
862.4905	1141.2705	1627.7	755.1
862.6354	1143.2176	1630.55	748.25
862.7803	1145.164	1632.75	755.25
862.9251	1147.1097	1627.1	751.2
863.07	1149.0546	1618.15	739.8
863.2148	1150.9989	1603.7	728.2
863.3597	1152.9424	1584.75	706.75
863.5045	1154.8852	1570.1	695.2
863.6493	1156.8272	1565.75	689.75
863.7942	1158.7686	1579.85	696.3
863.939	1160.7092	1571.35	693.35
864.0838	1162.6491	1576.3	696.7
864.2286	1164.5883	1573.35	698.8
864.3734	1166.5267	1589.45	711.7
864.5182	1168.4644	1595.85	719.75
864.663	1170.4014	1622.3	741
864.8078	1172.3377	1638.25	761.85
864.9526	1174.2732	1668	792.75
865.0974	1176.2081	1732.9	856
865.2421	1178.1421	1798.3	917.9
865.3869	1180.0755	1864.05	986.65
865.5317	1182.0082	1889.85	1012.8
865.6764	1183.9401	1890.3	1014.85
865.8212	1185.8713	1814.25	937.3
865.9659	1187.8017	1737.6	859.1
866.1106	1189.7315	1673.6	797.3
866.2554	1191.6605	1652.05	745.15
866.4001	1193.5888	1608.6	731.5
866.5448	1195.5163	1578.65	699.85
866.6895	1197.4432	1575	695.45
866.8342	1199.3693	1556.5	678.05
866.9789	1201.2947	1559.25	675.65
867.1236	1203.2193	1540.2	661.85
867.2683	1205.1432	1538.5	660.75
867.413	1207.0664	1535.5	655.65
867.5576	1208.9889	1540.7	660.15
867.7023	1210.9106	1537.75	660.3
867.847	1212.8316	1536	658.65
867.9916	1214.7519	1545.6	657.3
868.1363	1216.6715	1541.7	665.55
868.2809	1218.5903	1554.05	676.35
868.4255	1220.5084	1563	684.95
868.5701	1222.4257	1565.3	686.95
868.7148	1224.3424	1567.95	690.7
868.8594	1226.2583	1591.6	708.7
869.004	1228.1735	1597.3	718.5
869.1486	1230.0879	1621.55	742.75
869.2932	1232.0016	1642.2	764.8
869.4377	1233.9146	1666.7	785.75
869.5823	1235.8269	1669	790.65
869.7269	1237.7384	1675.35	794.7
869.8715	1239.6492	1673.1	794.3
870.016	1241.5592	1690.35	810.4
870.1606	1243.4686	1711.7	833.4
870.3051	1245.3772	1747.7	869.9
870.4496	1247.285	1801.1	921.45
870.5941	1249.1922	1844.8	966.95
870.7387	1251.0986	1897.4	1019.15
