Software Version:	3.9.2.0
Unit SN:	10000200
Spectrometer SN:	6960
Date:	3/14/2024 1:43:24 PM
Data Line Index:	25
Spectral Points:	2048
Integration time (ms):	125
Averages:	20
Delay (ms):	30000
Sequence Number:	1
Processing:	dark subtract
Laser Power (mW):	305
Laser Current (mA):	824
Laser Diode Temp (C):	25
Laser Case Temp (C):	28.8
System Temp (C):	28.8
Spectrometer Temp (C):	26.6
CCD Temp (C):	0.009
Secondary Temp (C):	20.014
Heatsink Temp (C):	24.686
CCDPCB Temp (C):	38.208
SecondaryPCB Temp (C):	35.707

Wavelength	RamanShift	Raw Counts	Dark Subtracted
787.061	30.1047	467.4	57.05
787.2016	32.3739	469.25	60.75
787.3422	34.6426	478.9	69.4
787.4828	36.9109	484.1	71.8
787.6235	39.1787	489.75	74.35
787.7642	41.4461	503.3	82.5
787.9049	43.7131	511.05	88.55
788.0456	45.9796	521.2	93.65
788.1863	48.2456	532.3	98.1
788.3271	50.5112	540.55	104.7
788.4679	52.7764	549.45	111.4
788.6087	55.0411	558.25	117.1
788.7496	57.3054	573.15	126.2
788.8904	59.5692	590.15	139
789.0313	61.8326	602.05	148
789.1722	64.0955	612.45	155.35
789.3132	66.3579	630.95	166.95
789.4541	68.6199	653.7	189.75
789.5951	70.8815	691.45	221.9
789.7361	73.1426	772.5	300.45
789.8771	75.4032	986.6	508.3
790.0181	77.6634	1536.3	1051.9
790.1592	79.9231	2791.4	2302.35
790.3003	82.1824	5582.15	5082.05
790.4414	84.4412	10730.05	10212.2
790.5825	86.6995	17987.9	17445.45
790.7237	88.9574	25223.55	24659.75
790.8648	91.2148	30322.95	29741.7
791.006	93.4717	32732.2	32142.65
791.1472	95.7282	33325.5	32730
791.2885	97.9842	33258.7	32662.8
791.4297	100.2398	32659.45	32057.6
791.571	102.4949	32046.4	31443.55
791.7123	104.7495	31217.1	30607.3
791.8536	107.0036	30416.5	29807.75
791.9949	109.2573	29606.55	29005.5
792.1363	111.5105	28855.85	28247.3
792.2777	113.7632	28108.05	27497.35
792.4191	116.0154	27531.05	26912.75
792.5605	118.2672	27072.2	26457.3
792.7019	120.5185	26633.5	26019.4
792.8434	122.7693	26309.5	25690.35
792.9849	125.0197	26025.7	25407.65
793.1264	127.2696	25720	25098.15
793.2679	129.519	25513.9	24891
793.4094	131.7679	25306.95	24678.9
793.551	134.0163	25117.75	24489.1
793.6926	136.2642	24861.2	24222.95
793.8342	138.5117	24618.15	23974.35
793.9758	140.7587	24301.7	23661.85
794.1175	143.0052	24057.9	23417.5
794.2591	145.2512	23754.05	23111.7
794.4008	147.4967	23481.1	22836.75
794.5425	149.7417	23303.3	22659.5
794.6842	151.9863	23130.8	22483.55
794.826	154.2304	23098.8	22447.8
794.9677	156.4739	22920.4	22260.95
795.1095	158.717	22836.5	22181
795.2513	160.9596	22670.15	22008.65
795.3931	163.2017	22389.95	21729.55
795.535	165.4433	22071.35	21407.95
795.6768	167.6844	21701.3	21035.3
795.8187	169.925	21368	20698.9
795.9606	172.1651	20988.2	20316.35
796.1025	174.4047	20692.6	20016.1
796.2445	176.6439	20453.65	19776.9
796.3864	178.8825	20173.65	19495.2
796.5284	181.1206	20000.9	19316.55
796.6704	183.3582	19850.9	19163.35
796.8124	185.5954	19720.85	19033.9
796.9544	187.832	19594.75	18900.75
797.0965	190.0681	19591.4	18896.65
797.2386	192.3037	19564.2	18865.85
797.3806	194.5388	19526.45	18826.3
797.5228	196.7734	19559.8	18856.6
797.6649	199.0075	19629.4	18923.7
797.807	201.2411	19776.75	19068.15
797.9492	203.4742	19826.8	19118.85
798.0914	205.7068	20024.45	19315.4
798.2336	207.9389	20086.75	19377.7
798.3758	210.1704	20218	19506.6
798.518	212.4015	20328.6	19611.7
798.6603	214.632	20509.7	19795.9
798.8025	216.862	20663.7	19954.65
798.9448	219.0915	20777.85	20079.95
799.0871	221.3205	20953	20255.2
799.2294	223.549	21151.6	20455.45
799.3718	225.777	21386.15	20692.15
799.5141	228.0044	21660.6	20964.1
799.6565	230.2314	22041.75	21347.15
799.7989	232.4578	22360.35	21665.9
799.9413	234.6837	22670.7	21967
800.0837	236.909	22840.7	22137.3
800.2262	239.1339	22830.35	22103.3
800.3687	241.3582	22623.2	21910.65
800.5111	243.582	22347.8	21609.05
800.6536	245.8053	22103.55	21372.25
800.7961	248.0281	21832.75	21104.4
800.9387	250.2503	21690	20958.85
801.0812	252.472	21570.6	20833.75
801.2238	254.6932	21568.75	20831.9
801.3664	256.9139	21542.95	20801.3
801.509	259.134	21591.6	20846.7
801.6516	261.3536	21652.4	20909.4
801.7942	263.5727	21811.8	21067.1
801.9369	265.7912	21860	21117.6
802.0795	268.0092	21951.3	21207.05
802.2222	270.2267	21974.45	21230.2
802.3649	272.4436	22002.25	21257.75
802.5076	274.6601	21944.85	21187.75
802.6504	276.8759	21816	21069.9
802.7931	279.0913	21737.3	20989.4
802.9359	281.3061	21606.1	20854.85
803.0787	283.5204	21625.25	20871.8
803.2215	285.7341	21654.3	20894.9
803.3643	287.9473	21748.2	20978.7
803.5071	290.16	21923.55	21161.15
803.6499	292.3721	22198.1	21443.35
803.7928	294.5837	22571.4	21812.2
803.9357	296.7947	22868.95	22110.9
804.0786	299.0052	23063.4	22302.8
804.2215	301.2152	22909	22146.75
804.3644	303.4246	22612.05	21853.65
804.5074	305.6334	22054.45	21293.7
804.6503	307.8418	21505.45	20743.35
804.7933	310.0495	21072.45	20308.2
804.9363	312.2568	20696.8	19934.65
805.0793	314.4635	20379.75	19614.7
805.2223	316.6696	20211.5	19445.55
805.3653	318.8752	20094.55	19318.75
805.5084	321.0802	20111.55	19347.4
805.6514	323.2847	20174.15	19405.7
805.7945	325.4887	20205.2	19439
805.9376	327.692	20141	19373.15
806.0807	329.8949	20083.1	19313
806.2238	332.0972	19783.25	19010.5
806.367	334.2989	19533	18761.75
806.5101	336.5001	19213.05	18439.9
806.6533	338.7007	19015.95	18241.9
806.7965	340.9008	18908.9	18132.35
806.9397	343.1003	18745.95	17967.4
807.0829	345.2992	18647.55	17868.2
807.2261	347.4976	18599.65	17818.05
807.3693	349.6955	18527.75	17743.15
807.5126	351.8927	18581.95	17796
807.6559	354.0895	18544.6	17749.85
807.7991	356.2856	18544.95	17759.2
807.9424	358.4812	18502	17716.1
808.0857	360.6763	18537	17749.4
808.2291	362.8707	18475.65	17685.2
808.3724	365.0646	18519.6	17727.5
808.5158	367.258	18490.4	17697.95
808.6591	369.4508	18580	17781.05
808.8025	371.643	18621	17823.35
808.9459	373.8346	18631.55	17830.15
809.0893	376.0257	18605.7	17803.85
809.2327	378.2162	18560.75	17758.9
809.3762	380.4062	18482.5	17675.25
809.5196	382.5956	18308.5	17505.65
809.6631	384.7844	18208.65	17404.6
809.8066	386.9726	18045.55	17239.3
809.9501	389.1603	17934.75	17131.7
810.0936	391.3474	17909.1	17069.6
810.2371	393.5339	17870.1	17066.7
810.3806	395.7199	17787.9	16989.9
810.5241	397.9052	17778.7	16983.2
810.6677	400.09	17797.5	17004.5
810.8113	402.2743	17888.05	17094.15
810.9548	404.4579	17971.35	17176.9
811.0984	406.641	18135.95	17342.25
811.2421	408.8235	18344	17546.35
811.3857	411.0054	18603.8	17807.8
811.5293	413.1868	18969.25	18171.05
811.673	415.3675	19211.7	18410.5
811.8166	417.5477	19336.2	18532.15
811.9603	419.7273	19356.55	18551.1
812.104	421.9064	19242.1	18430.35
812.2477	424.0848	19097.6	18287.95
812.3914	426.2627	18870.25	18057.3
812.5351	428.4399	18585.15	17771.2
812.6788	430.6166	18191.85	17374.65
812.8226	432.7928	17821.55	17004.55
812.9663	434.9683	17490.7	16672.4
813.1101	437.1432	17237.7	16419
813.2539	439.3176	17024.85	16208.65
813.3977	441.4914	16900.65	16081.55
813.5415	443.6645	16825.8	16005.15
813.6853	445.8371	16769.7	15948.9
813.8291	448.0091	16692.55	15873.3
813.973	450.1806	16654.85	15834.95
814.1168	452.3514	16581	15756.1
814.2607	454.5216	16597.05	15763.25
814.4046	456.6913	16496.05	15671.25
814.5485	458.8603	16547.25	15726.95
814.6924	461.0288	16599.6	15777.4
814.8363	463.1967	16595.5	15771.95
814.9802	465.3639	16679.5	15855.9
815.1241	467.5306	16716.95	15891.5
815.2681	469.6967	16800.65	15972
815.412	471.8622	16913	16086.15
815.556	474.0271	16998.45	16173.1
815.7	476.1914	17046.65	16220.15
815.844	478.3551	17052.25	16226.85
815.988	480.5182	17023.6	16196.05
816.132	482.6807	17038.1	16209.75
816.276	484.8426	17183.7	16354.95
816.4201	487.0039	17455.3	16627.35
816.5641	489.1647	17829.7	16998.65
816.7082	491.3248	18275.2	17441.95
816.8522	493.4843	18419.5	17592.6
816.9963	495.6432	18414.45	17583.85
817.1404	497.8015	18279.1	17445.35
817.2845	499.9592	18229.2	17397.75
817.4286	502.1163	18102.65	17269.75
817.5727	504.2728	17814.05	16979.7
817.7168	506.4287	17511.1	16676.65
817.861	508.5839	17063.35	16231.35
818.0051	510.7386	16750.9	15920.3
818.1493	512.8927	16579.4	15736.8
818.2935	515.0461	16505.65	15673.5
818.4377	517.199	16467.4	15633.75
818.5818	519.3512	16482.3	15646.8
818.726	521.5029	16628.65	15788.45
818.8703	523.6539	16761.45	15924.1
819.0145	525.8043	16841.45	16005.85
819.1587	527.9541	16786.05	15946.6
819.303	530.1033	16701.15	15863.15
819.4472	532.2519	16625.15	15789.4
819.5915	534.3999	16703.65	15864.05
819.7357	536.5472	16919.4	16082.05
819.88	538.694	17283.4	16442.3
820.0243	540.8401	17767.5	16927.5
820.1686	542.9856	18189.4	17345.7
820.3129	545.1305	18286.3	17442.4
820.4572	547.2748	18122.45	17279.8
820.6016	549.4185	17834.7	16991.15
820.7459	551.5615	17509.7	16668.4
820.8902	553.704	17373.5	16528.6
821.0346	555.8458	17329.25	16486.65
821.1789	557.987	17370.65	16528.35
821.3233	560.1276	17417.2	16572.5
821.4677	562.2675	17567.5	16723.4
821.6121	564.4069	17768.5	16923.05
821.7565	566.5456	17892.5	17047.8
821.9009	568.6837	17888.1	17044.45
822.0453	570.8212	17531.65	16690.05
822.1897	572.958	17040.45	16193.05
822.3342	575.0942	16616.7	15773.55
822.4786	577.2299	16340.55	15493.5
822.6231	579.3648	16204.7	15360.55
822.7675	581.4992	16254.45	15408.7
822.912	583.6329	16386.05	15542.9
823.0565	585.766	16585.1	15740.9
823.201	587.8985	16692.2	15844.4
823.3454	590.0304	16708.15	15841.3
823.4899	592.1616	16605.65	15760.35
823.6345	594.2922	16493.55	15645.9
823.779	596.4222	16284.3	15439.05
823.9235	598.5515	16106.65	15259
824.068	600.6802	15908.9	15060.9
824.2126	602.8083	15738.4	14892.5
824.3571	604.9358	15650.25	14800.15
824.5017	607.0626	15607.45	14755.75
824.6462	609.1888	15603.45	14754.1
824.7908	611.3144	15586.2	14735.85
824.9354	613.4393	15542.25	14694.55
825.08	615.5636	15494.4	14642.3
825.2246	617.6873	15447.05	14597.4
825.3692	619.8103	15367.1	14514.7
825.5138	621.9327	15213.05	14357.05
825.6584	624.0544	15140.1	14289.8
825.803	626.1756	15017.05	14167.1
825.9477	628.2961	14919.95	14068.7
826.0923	630.4159	14834.5	13982.1
826.237	632.5351	14793.75	13940.7
826.3816	634.6537	14755.75	13900.45
826.5263	636.7716	14721.3	13868.4
826.6709	638.8889	14710.95	13856.4
826.8156	641.0056	14686.55	13831.1
826.9603	643.1216	14677.45	13819.6
827.105	645.237	14691.1	13834.15
827.2497	647.3518	14620.6	13765.75
827.3944	649.4659	14603.9	13749.55
827.5391	651.5793	14561.2	13705.2
827.6838	653.6922	14519.7	13662.05
827.8285	655.8043	14525.8	13671.3
827.9733	657.9159	14469.75	13612.55
828.118	660.0268	14419.65	13560.5
828.2627	662.137	14330.8	13471.9
828.4075	664.2466	14319.35	13457.55
828.5522	666.3556	14303.6	13447.4
828.697	668.4639	14257.35	13396.65
828.8418	670.5716	14236.1	13378
828.9865	672.6786	14271.4	13415.5
829.1313	674.785	14267.5	13404.55
829.2761	676.8907	14309.7	13452.6
829.4209	678.9958	14343.15	13484.05
829.5657	681.1002	14309.05	13447.45
829.7105	683.204	14310.95	13449.65
829.8553	685.3072	14250.4	13390.45
830.0001	687.4097	14167.75	13310.5
830.1449	689.5115	14105.55	13244.3
830.2898	691.6127	14072.05	13213.55
830.4346	693.7132	13992.8	13127.5
830.5794	695.8131	13963.1	13086.3
830.7243	697.9123	13964.55	13105.9
830.8691	700.0109	13910.5	13049.3
831.014	702.1089	13912.3	13050.85
831.1588	704.2061	13893.25	13030.35
831.3037	706.3028	13913.55	13048.85
831.4486	708.3987	13934.5	13071.7
831.5935	710.4941	13998.5	13137.15
831.7383	712.5887	14111	13247.5
831.8832	714.6827	14338.4	13471.85
832.0281	716.7761	14629.3	13767.55
832.173	718.8688	14904.2	14038.5
832.3179	720.9608	15097.85	14230.55
832.4628	723.0522	15163	14297
832.6077	725.1429	15023.15	14159.8
832.7527	727.233	14845.35	13979.35
832.8976	729.3224	14693.25	13827.3
833.0425	731.4112	14460.25	13591.65
833.1874	733.4993	14239.2	13369.8
833.3324	735.5867	14046.1	13179.75
833.4773	737.6735	13891.95	13023.95
833.6222	739.7596	13767.75	12899.85
833.7672	741.845	13668.2	12802.95
833.9122	743.9298	13579.55	12710.9
834.0571	746.014	13555.85	12689.6
834.2021	748.0974	13509.95	12642.8
834.347	750.1802	13525.6	12659.05
834.492	752.2624	13527.2	12662.2
834.637	754.3439	13568.85	12699.45
834.782	756.4247	13632.05	12753.6
834.9269	758.5048	13753.05	12886.6
835.0719	760.5843	14009.3	13140.15
835.2169	762.6631	14348	13481.3
835.3619	764.7413	14868.35	13999.9
835.5069	766.8188	15502.3	14636.1
835.6519	768.8956	15992.2	15122.65
835.7969	770.9718	16311.35	15444.45
835.9419	773.0473	16183	15315.7
836.0869	775.1221	15834.85	14966.05
836.232	777.1962	15481.3	14609.3
836.377	779.2697	15287.45	14417.05
836.522	781.3426	15335.6	14458.1
836.667	783.4147	15523	14653.75
836.8121	785.4862	15722.75	14855.5
836.9571	787.557	15681.3	14812.8
837.1021	789.6271	15276.3	14405.3
837.2472	791.6966	14671.7	13803.15
837.3922	793.7654	14089.2	13219.95
837.5373	795.8335	13699.8	12827.4
837.6823	797.901	13421.65	12552
837.8274	799.9678	13311.6	12439.55
837.9724	802.0339	13280.7	12413.45
838.1175	804.0993	13240.5	12362.35
838.2626	806.1641	13221.05	12347.75
838.4076	808.2282	13131.95	12261.35
838.5527	810.2916	13065.95	12191.65
838.6978	812.3544	12938.6	12067.45
838.8428	814.4164	12847.95	11980.55
838.9879	816.4778	12860.8	11989
839.133	818.5385	12836.25	11965.9
839.2781	820.5986	12958.05	12088.6
839.4232	822.658	13081.2	12208.25
839.5682	824.7166	13256.75	12385.9
839.7133	826.7747	13589.5	12718.45
839.8584	828.832	13920.15	13045.9
840.0035	830.8886	14108.55	13235.2
840.1486	832.9446	14242	13371.5
840.2937	834.9999	14178.35	13308.3
840.4388	837.0545	14059	13183.65
840.5839	839.1085	13947.4	13076.6
840.729	841.1618	13809.15	12933.25
840.8741	843.2143	13670	12798.55
841.0192	845.2662	13483.4	12611.45
841.1643	847.3175	13407.25	12534.25
841.3095	849.368	13306.45	12434.6
841.4546	851.4179	13153.5	12281.85
841.5997	853.467	12990.15	12119.65
841.7448	855.5155	12897.05	12024.65
841.8899	857.5633	12808.7	11937.6
842.0351	859.6105	12698.75	11826.45
842.1802	861.6569	12588.85	11716.4
842.3253	863.7027	12524.55	11648.2
842.4704	865.7478	12458.45	11584.45
842.6156	867.7922	12446.4	11575.1
842.7607	869.8359	12444.05	11570.45
842.9058	871.8789	12513.75	11639.7
843.0509	873.9212	12681.65	11772.2
843.1961	875.9629	12769	11896.4
843.3412	878.0039	12932.55	12057.9
843.4863	880.0441	13015	12141
843.6315	882.0837	13038.75	12162.45
843.7766	884.1226	12992.1	12114.15
843.9218	886.1609	12893.7	12018.6
844.0669	888.1984	12872.9	11999.25
844.212	890.2352	12895.75	12022.7
844.3572	892.2714	12848	11968.05
844.5023	894.3069	12791.55	11916.6
844.6475	896.3416	12639.6	11764.6
844.7926	898.3757	12568.25	11692.5
844.9377	900.4091	12521.8	11646.15
845.0829	902.4418	12522.85	11644.05
845.228	904.4739	12531.35	11654.25
845.3732	906.5052	12536.2	11661.75
845.5183	908.5358	12442.1	11568
845.6635	910.5658	12296.65	11418.6
845.8086	912.595	12092.55	11216.25
845.9538	914.6236	11888.6	11013.6
846.0989	916.6515	11811.05	10936.95
846.2441	918.6786	11751.85	10875.2
846.3892	920.7051	11777.25	10900.1
846.5344	922.7309	11878.4	11004.8
846.6795	924.756	11905.1	11028.35
846.8246	926.7804	11981	11104.05
846.9698	928.8041	11922.5	11044.1
847.1149	930.8272	11965.45	11086.3
847.2601	932.8495	11915.1	11036.2
847.4052	934.8711	11881.3	11003.35
847.5504	936.892	11750.6	10872.9
847.6955	938.9123	11644.2	10765.5
847.8407	940.9318	11540.05	10660.5
847.9858	942.9506	11436.75	10560.35
848.131	944.9688	11343.35	10465.55
848.2761	946.9862	11252.55	10376.8
848.4213	949.003	11159.25	10282
848.5664	951.019	11118.75	10240.9
848.7115	953.0344	11096.3	10220.85
848.8567	955.0491	11113.45	10235.7
849.0018	957.063	11179.45	10300.15
849.147	959.0763	11235.25	10358.35
849.2921	961.0888	11275.5	10394.45
849.4373	963.1007	11334.65	10460.65
849.5824	965.1119	11375.3	10497.45
849.7275	967.1223	11369	10490.4
849.8727	969.1321	11376.25	10498.5
850.0178	971.1412	11363.1	10486.6
850.1629	973.1495	11371.5	10495.45
850.3081	975.1572	11416.5	10506.2
850.4532	977.1641	11395.95	10517.6
850.5983	979.1704	11375.9	10497.55
850.7435	981.1759	11349.7	10466.75
850.8886	983.1808	11360.2	10482.85
851.0337	985.1849	11417.45	10526.05
851.1788	987.1884	11568.4	10685.15
851.324	989.1911	11657.85	10775.85
851.4691	991.1932	11781.4	10899.8
851.6142	993.1945	11831.1	10951.6
851.7593	995.1951	11792.75	10912.6
851.9045	997.1951	11740.5	10854.2
852.0496	999.1943	11670.15	10793.25
852.1947	1001.1928	11645.2	10768.2
852.3398	1003.1906	11639.25	10761.55
852.4849	1005.1877	11702.9	10822.8
852.63	1007.1841	11732.1	10853.05
852.7751	1009.1798	11668.4	10789.45
852.9202	1011.1748	11509.25	10629.25
853.0653	1013.1691	11332.55	10453.6
853.2104	1015.1627	11107.7	10228.05
853.3555	1017.1556	10871.75	9991.5
853.5006	1019.1477	10768.65	9890.2
853.6457	1021.1392	10658.65	9780.6
853.7908	1023.1299	10633.9	9756.6
853.9359	1025.12	10621.1	9739.25
854.081	1027.1093	10672.2	9790.6
854.2261	1029.0979	10765.5	9885.15
854.3712	1031.0859	10824.45	9944.85
854.5163	1033.0731	10841.65	9960.75
854.6613	1035.0596	10779.85	9900.25
854.8064	1037.0454	10636.6	9756.8
854.9515	1039.0304	10531.25	9652.1
855.0965	1041.0148	10384	9503.3
855.2416	1042.9985	10271.75	9389.1
855.3867	1044.9814	10199.7	9319.55
855.5317	1046.9636	10140.25	9257.95
855.6768	1048.9452	10095.2	9215.75
855.8219	1050.926	10128.55	9249.55
855.9669	1052.9061	10137.35	9257.65
856.112	1054.8855	10131.6	9253.3
856.257	1056.8642	10160.8	9280.45
856.4021	1058.8421	10205.85	9323.55
856.5471	1060.8194	10235.15	9353.8
856.6921	1062.7959	10277.6	9396.55
856.8372	1064.7717	10314.4	9435.75
856.9822	1066.7469	10332.65	9451.8
857.1272	1068.7213	10351.55	9467.35
857.2723	1070.695	10372.8	9494.65
857.4173	1072.6679	10310.45	9428.7
857.5623	1074.6402	10281.1	9400
857.7073	1076.6117	10249.95	9364.2
857.8523	1078.5826	10195.85	9313.95
857.9973	1080.5527	10147.45	9265.1
858.1423	1082.5221	10183.9	9303.25
858.2873	1084.4908	10289.1	9407.75
858.4323	1086.4587	10433.9	9551
858.5773	1088.426	10541.75	9658.85
858.7223	1090.3925	10549.95	9665.05
858.8673	1092.3584	10513	9631.25
859.0123	1094.3235	10416.45	9537.3
859.1573	1096.2879	10357.25	9475.95
859.3022	1098.2515	10372.45	9491.9
859.4472	1100.2145	10470.1	9589.7
859.5922	1102.1767	10596.05	9712.1
859.7371	1104.1382	10798.15	9917.65
859.8821	1106.099	11027.7	10144.15
860.027	1108.0591	11243.2	10362.65
860.172	1110.0185	11387.05	10505.5
860.3169	1111.9771	11443.05	10561.3
860.4619	1113.9351	11274.9	10390.5
860.6068	1115.8923	11014.95	10132.6
860.7517	1117.8488	10770.8	9886.4
860.8967	1119.8045	10496.2	9614.55
861.0416	1121.7596	10362.35	9478.65
861.1865	1123.7139	10268.5	9389
861.3314	1125.6675	10281.7	9399.35
861.4763	1127.6204	10308.25	9428
861.6212	1129.5726	10270.8	9388.1
861.7661	1131.524	10223.85	9341.35
861.911	1133.4748	10156.95	9275.25
862.0559	1135.4248	10050.25	9167.9
862.2008	1137.3741	9989.65	9108.05
862.3457	1139.3226	9921.8	9038.85
862.4905	1141.2705	9843.05	8960.1
862.6354	1143.2176	9757.65	8870.7
862.7803	1145.164	9738.9	8855.25
862.9251	1147.1097	9700.35	8816.95
863.07	1149.0546	9645.35	8763.1
863.2148	1150.9989	9556.8	8673.85
863.3597	1152.9424	9414.5	8533.35
863.5045	1154.8852	9270.55	8388.3
863.6493	1156.8272	9174.35	8290.9
863.7942	1158.7686	9128.3	8238.3
863.939	1160.7092	9148.95	8266.75
864.0838	1162.6491	9149.95	8266.4
864.2286	1164.5883	9235.35	8353.45
864.3734	1166.5267	9313.95	8429.9
864.5182	1168.4644	9448.45	8565.75
864.663	1170.4014	9627.3	8740.8
864.8078	1172.3377	9886.8	9004.45
864.9526	1174.2732	10144.85	9263.7
865.0974	1176.2081	10468.25	9586
865.2421	1178.1421	10799.5	9915.3
865.3869	1180.0755	11131.6	10251.6
865.5317	1182.0082	11330.95	10447.15
865.6764	1183.9401	11390.15	10509.1
865.8212	1185.8713	11258.35	10373.5
865.9659	1187.8017	11003.75	10120.65
