Software Version:	3.9.2.0
Unit SN:	10000200
Spectrometer SN:	6960
Date:	3/14/2024 12:47:07 PM
Data Line Index:	25
Spectral Points:	2048
Integration time (ms):	125
Averages:	20
Delay (ms):	30000
Sequence Number:	1
Processing:	dark subtract
Laser Power (mW):	305
Laser Current (mA):	823
Laser Diode Temp (C):	25
Laser Case Temp (C):	27.4
System Temp (C):	27.5
Spectrometer Temp (C):	25.2
CCD Temp (C):	0.008
Secondary Temp (C):	20.006
Heatsink Temp (C):	23.352
CCDPCB Temp (C):	37.018
SecondaryPCB Temp (C):	34.495

Wavelength	RamanShift	Raw Counts	Dark Subtracted
787.061	30.1047	417.6	4.95
787.2016	32.3739	414.95	4.65
787.3422	34.6426	418.55	8.25
787.4828	36.9109	421.1	8.2
787.6235	39.1787	422.75	5.1
787.7642	41.4461	427.65	6.7
787.9049	43.7131	434	9.4
788.0456	45.9796	437.8	8.4
788.1863	48.2456	441.65	9.3
788.3271	50.5112	446.35	7.75
788.4679	52.7764	448.1	9.6
788.6087	55.0411	453.65	11.85
788.7496	57.3054	457.6	10.45
788.8904	59.5692	460.4	10.55
789.0313	61.8326	465.15	11.4
789.1722	64.0955	473.65	16.1
789.3132	66.3579	480.75	17.95
789.4541	68.6199	484.4	20.05
789.5951	70.8815	493.4	25.1
789.7361	73.1426	506.95	36.7
789.8771	75.4032	535.95	61
790.0181	77.6634	600.55	120
790.1592	79.9231	734.15	248.3
790.3003	82.1824	1024.9	533.65
790.4414	84.4412	1525.65	1028.45
790.5825	86.6995	2170.65	1661.9
790.7237	88.9574	2799.7	2281.45
790.8648	91.2148	3263.15	2742.5
791.006	93.4717	3470.85	2947.1
791.1472	95.7282	3519.3	2990.95
791.2885	97.9842	3537.45	3004.7
791.4297	100.2398	3526.4	2991.1
791.571	102.4949	3509.6	2973.15
791.7123	104.7495	3478.7	2936.8
791.8536	107.0036	3456.55	2914.35
791.9949	109.2573	3398.9	2858.9
792.1363	111.5105	3353.55	2809
792.2777	113.7632	3301.75	2756.6
792.4191	116.0154	3257.6	2700.15
792.5605	118.2672	3193.4	2643.65
792.7019	120.5185	3135.7	2586.05
792.8434	122.7693	3087.35	2535.2
792.9849	125.0197	3043	2486.5
793.1264	127.2696	2989.55	2431.45
793.2679	129.519	2971.3	2410.7
793.4094	131.7679	2950.55	2386.2
793.551	134.0163	2942.15	2375.95
793.6926	136.2642	2937.15	2363.75
793.8342	138.5117	2943.05	2366.55
793.9758	140.7587	2909.3	2332.65
794.1175	143.0052	2894.8	2317.4
794.2591	145.2512	2870.7	2293.35
794.4008	147.4967	2828.85	2249.1
794.5425	149.7417	2796.05	2214.55
794.6842	151.9863	2767.5	2182.05
794.826	154.2304	2766.8	2177.4
794.9677	156.4739	2762.1	2167.65
795.1095	158.717	2772.95	2178.7
795.2513	160.9596	2790.3	2191.45
795.3931	163.2017	2789.8	2188.15
795.535	165.4433	2806.8	2205.05
795.6768	167.6844	2801.55	2198.05
795.8187	169.925	2790.85	2182
795.9606	172.1651	2742.4	2130.35
796.1025	174.4047	2721.8	2105.9
796.2445	176.6439	2701.4	2082.75
796.3864	178.8825	2680.9	2061.5
796.5284	181.1206	2668.4	2044.4
796.6704	183.3582	2663	2033.85
796.8124	185.5954	2663.45	2033.35
796.9544	187.832	2650.7	2018.3
797.0965	190.0681	2650.9	2014.45
797.2386	192.3037	2662.15	2023.2
797.3806	194.5388	2650.4	2009.4
797.5228	196.7734	2672.3	2030
797.6649	199.0075	2672	2022.9
797.807	201.2411	2703.9	2054.3
797.9492	203.4742	2707.9	2057.7
798.0914	205.7068	2706.35	2055.25
798.2336	207.9389	2726.9	2075.15
798.3758	210.1704	2733.35	2081.5
798.518	212.4015	2727.7	2067.2
798.6603	214.632	2726.65	2066.9
798.8025	216.862	2718.15	2065.75
798.9448	219.0915	2714.8	2068.5
799.0871	221.3205	2725.3	2082.75
799.2294	223.549	2715	2078.5
799.3718	225.777	2710.25	2073.85
799.5141	228.0044	2710.25	2071
799.6565	230.2314	2702.05	2064.55
799.7989	232.4578	2695.15	2057.85
799.9413	234.6837	2684.1	2037.9
800.0837	236.909	2682.4	2035.1
800.2262	239.1339	2692.05	2022.75
800.3687	241.3582	2666.2	2008.65
800.5111	243.582	2670.85	1992.8
800.6536	245.8053	2687.7	2011.9
800.7961	248.0281	2676.55	2005.9
800.9387	250.2503	2681.15	2004
801.0812	252.472	2675.5	1993.5
801.2238	254.6932	2686.8	2000.35
801.3664	256.9139	2688.75	2001.35
801.509	259.134	2694.5	2004
801.6516	261.3536	2702.15	2015.4
801.7942	263.5727	2725.2	2034.5
801.9369	265.7912	2743.8	2054.3
802.0795	268.0092	2772.35	2083.2
802.2222	270.2267	2808.05	2118
802.3649	272.4436	2839	2147
802.5076	274.6601	2844.05	2141.2
802.6504	276.8759	2850.4	2152.6
802.7931	279.0913	2859.2	2165.85
802.9359	281.3061	2850.85	2152.9
803.0787	283.5204	2873.8	2172.6
803.2215	285.7341	2890.05	2183.25
803.3643	287.9473	2903.3	2195.55
803.5071	290.16	2891.45	2178.45
803.6499	292.3721	2882.35	2176.35
803.7928	294.5837	2857	2149
803.9357	296.7947	2821.5	2113.05
804.0786	299.0052	2810.1	2100
804.2215	301.2152	2806.1	2093.6
804.3644	303.4246	2800.05	2093.8
804.5074	305.6334	2790.6	2081.1
804.6503	307.8418	2768	2057.5
804.7933	310.0495	2741.85	2029.7
804.9363	312.2568	2726	2017.05
805.0793	314.4635	2688.3	1975.15
805.2223	316.6696	2669.2	1952.15
805.3653	318.8752	2640.85	1917.2
805.5084	321.0802	2609.25	1891.35
805.6514	323.2847	2610.35	1890.95
805.7945	325.4887	2610.6	1893.2
805.9376	327.692	2609.4	1887.6
806.0807	329.8949	2624.5	1903.25
806.2238	332.0972	2654.5	1930.45
806.367	334.2989	2668.85	1941.9
806.5101	336.5001	2663.8	1937.45
806.6533	338.7007	2653.25	1924.15
806.7965	340.9008	2624.4	1893.15
806.9397	343.1003	2590.85	1857.85
807.0829	345.2992	2548.7	1816.3
807.2261	347.4976	2523.8	1790.6
807.3693	349.6955	2507.2	1768.6
807.5126	351.8927	2491.85	1753.3
807.6559	354.0895	2486.4	1737.8
807.7991	356.2856	2483.55	1741.45
807.9424	358.4812	2461.05	1722.75
808.0857	360.6763	2459.9	1719.15
808.2291	362.8707	2452.05	1709
808.3724	365.0646	2455.65	1709.1
808.5158	367.258	2445.75	1699.1
808.6591	369.4508	2447.55	1697.05
808.8025	371.643	2463.75	1714.9
808.9459	373.8346	2486.5	1734.75
809.0893	376.0257	2510.45	1753.75
809.2327	378.2162	2526.35	1769.55
809.3762	380.4062	2535.6	1775.65
809.5196	382.5956	2506.75	1743.85
809.6631	384.7844	2484.45	1725
809.8066	386.9726	2456.4	1690.95
809.9501	389.1603	2433.1	1670.1
810.0936	391.3474	2450	1656.95
810.2371	393.5339	2420.1	1656.05
810.3806	395.7199	2400.8	1644.85
810.5241	397.9052	2418.45	1667.3
810.6677	400.09	2440.2	1688.15
810.8113	402.2743	2465.4	1713.55
810.9548	404.4579	2481.45	1728.8
811.0984	406.641	2497.8	1744.45
811.2421	408.8235	2532.05	1777
811.3857	411.0054	2586.3	1829.4
811.5293	413.1868	2644.4	1886.75
811.673	415.3675	2707.75	1945.5
811.8166	417.5477	2712.5	1950.7
811.9603	419.7273	2647.25	1885.2
812.104	421.9064	2563.9	1791.6
812.2477	424.0848	2506.7	1740.15
812.3914	426.2627	2457.1	1689.4
812.5351	428.4399	2418.45	1645.9
812.6788	430.6166	2399.3	1622.1
812.8226	432.7928	2359.15	1581.2
812.9663	434.9683	2325.45	1549.05
813.1101	437.1432	2315.8	1535.6
813.2539	439.3176	2298.9	1518.55
813.3977	441.4914	2277.5	1497.05
813.5415	443.6645	2287.25	1503.35
813.6853	445.8371	2285	1503.35
813.8291	448.0091	2281.1	1498.8
813.973	450.1806	2275.15	1493.9
814.1168	452.3514	2270.15	1486.1
814.2607	454.5216	2258.85	1465.3
814.4046	456.6913	2248.05	1462
814.5485	458.8603	2258.7	1474
814.6924	461.0288	2259.25	1474.1
814.8363	463.1967	2249	1463.75
814.9802	465.3639	2267.7	1478
815.1241	467.5306	2242.9	1454.1
815.2681	469.6967	2240.45	1451.95
815.412	471.8622	2224.15	1434.8
815.556	474.0271	2218.35	1428.85
815.7	476.1914	2223.25	1430.95
815.844	478.3551	2218.55	1427.95
815.988	480.5182	2206.2	1413.65
816.132	482.6807	2223.75	1429.55
816.276	484.8426	2230.7	1439.4
816.4201	487.0039	2259.2	1465.25
816.5641	489.1647	2281.9	1485.5
816.7082	491.3248	2306.4	1513.55
816.8522	493.4843	2311.2	1516.7
816.9963	495.6432	2302.6	1507.4
817.1404	497.8015	2278.6	1482
817.2845	499.9592	2260.6	1462.55
817.4286	502.1163	2229.45	1431.15
817.5727	504.2728	2199.85	1400.4
817.7168	506.4287	2182.25	1383
817.861	508.5839	2170.55	1372.35
818.0051	510.7386	2169.1	1367.7
818.1493	512.8927	2170.7	1362.7
818.2935	515.0461	2169.95	1368.1
818.4377	517.199	2180.5	1378.85
818.5818	519.3512	2197.2	1397.35
818.726	521.5029	2251.05	1443.35
818.8703	523.6539	2276.55	1472.95
819.0145	525.8043	2279.8	1473.9
819.1587	527.9541	2243.3	1437.8
819.303	530.1033	2204.7	1399.7
819.4472	532.2519	2177.05	1370.3
819.5915	534.3999	2155.85	1347.9
819.7357	536.5472	2156.55	1348.75
819.88	538.694	2156.1	1348.8
820.0243	540.8401	2163.95	1356.45
820.1686	542.9856	2165.15	1355.35
820.3129	545.1305	2165.2	1354.05
820.4572	547.2748	2170.15	1359.95
820.6016	549.4185	2179.65	1366.6
820.7459	551.5615	2180.45	1368.55
820.8902	553.704	2186.3	1372.55
821.0346	555.8458	2201.45	1388.95
821.1789	557.987	2211.1	1397.65
821.3233	560.1276	2234	1419.9
821.4677	562.2675	2257.85	1446.8
821.6121	564.4069	2309.45	1496.4
821.7565	566.5456	2327.2	1515.95
821.9009	568.6837	2324.4	1512.75
822.0453	570.8212	2279.8	1465.85
822.1897	572.958	2224.45	1409.7
822.3342	575.0942	2196.35	1384.4
822.4786	577.2299	2176.75	1363.65
822.6231	579.3648	2147.45	1333.4
822.7675	581.4992	2135.2	1320.4
822.912	583.6329	2124	1308.7
823.0565	585.766	2150.1	1334.5
823.201	587.8985	2170	1354.7
823.3454	590.0304	2207.25	1378.35
823.4899	592.1616	2216.1	1394.8
823.6345	594.2922	2201.65	1383.9
823.779	596.4222	2181.15	1359.65
823.9235	598.5515	2140.7	1319.1
824.068	600.6802	2113.75	1294
824.2126	602.8083	2078.85	1257.3
824.3571	604.9358	2079.2	1257.3
824.5017	607.0626	2070.4	1247.6
824.6462	609.1888	2073.2	1250.6
824.7908	611.3144	2098.75	1274.15
824.9354	613.4393	2102.6	1279.2
825.08	615.5636	2140.5	1317.7
825.2246	617.6873	2170.95	1348.95
825.3692	619.8103	2187	1358.15
825.5138	621.9327	2189.1	1362.8
825.6584	624.0544	2164.65	1339.85
825.803	626.1756	2132.6	1307.05
825.9477	628.2961	2087.3	1260.95
826.0923	630.4159	2082.15	1255.35
826.237	632.5351	2090.9	1266.25
826.3816	634.6537	2067.15	1240.1
826.5263	636.7716	2072.75	1242.9
826.6709	638.8889	2064.15	1234.55
826.8156	641.0056	2070.6	1243.7
826.9603	643.1216	2076.05	1247.7
827.105	645.237	2079.1	1248
827.2497	647.3518	2051.1	1219.25
827.3944	649.4659	2035.6	1205.65
827.5391	651.5793	2038.25	1206.8
827.6838	653.6922	2027.6	1199.05
827.8285	655.8043	2023.4	1192.75
827.9733	657.9159	2009.25	1175.3
828.118	660.0268	2003.7	1168.55
828.2627	662.137	2008.4	1173.7
828.4075	664.2466	2007.5	1175.45
828.5522	666.3556	1993.55	1161.55
828.697	668.4639	1992.95	1157
828.8418	670.5716	1997.05	1164.5
828.9865	672.6786	1989.6	1155.15
829.1313	674.785	1974.9	1139.05
829.2761	676.8907	1966.4	1131.35
829.4209	678.9958	1970.25	1135.1
829.5657	681.1002	1967.05	1128.9
829.7105	683.204	1976.15	1136.9
829.8553	685.3072	1977.3	1137.75
830.0001	687.4097	1967.7	1130.2
830.1449	689.5115	1967.4	1126.35
830.2898	691.6127	1964.4	1124.4
830.4346	693.7132	1967.85	1129.95
830.5794	695.8131	1979.4	1129.5
830.7243	697.9123	1968	1127
830.8691	700.0109	1969.55	1129.85
831.014	702.1089	1973.75	1135.55
831.1588	704.2061	1977.75	1137.5
831.3037	706.3028	1982.55	1140.8
831.4486	708.3987	1997	1156.15
831.5935	710.4941	2013.15	1171.5
831.7383	712.5887	2009.1	1166.85
831.8832	714.6827	2016.3	1171.6
832.0281	716.7761	2002.2	1162.5
832.173	718.8688	1991.9	1147.8
832.3179	720.9608	1993.15	1148.05
832.4628	723.0522	2016.65	1169.65
832.6077	725.1429	2015.45	1174.2
832.7527	727.233	2042.7	1199.05
832.8976	729.3224	2086.6	1242.15
833.0425	731.4112	2109.5	1263.95
833.1874	733.4993	2112.85	1268
833.3324	735.5867	2086.4	1241.1
833.4773	737.6735	2045.15	1199.05
833.6222	739.7596	2014.1	1166.4
833.7672	741.845	2003.15	1156.25
833.9122	743.9298	2011.45	1161.25
834.0571	746.014	2019.55	1173.1
834.2021	748.0974	2032.1	1182.35
834.347	750.1802	2029	1180.8
834.492	752.2624	2021.85	1175.75
834.637	754.3439	2009.55	1163.15
834.782	756.4247	1995.9	1139.8
834.9269	758.5048	1985.1	1135.8
835.0719	760.5843	1986.4	1138.3
835.2169	762.6631	2003.45	1154.35
835.3619	764.7413	2023.25	1175
835.5069	766.8188	2082.25	1230.4
835.6519	768.8956	2119.3	1268.7
835.7969	770.9718	2149.45	1298.35
835.9419	773.0473	2139.3	1290.35
836.0869	775.1221	2136.25	1286.05
836.232	777.1962	2107.7	1257.7
836.377	779.2697	2139.2	1285.3
836.522	781.3426	2219.7	1359.2
836.667	783.4147	2241.55	1390
836.8121	785.4862	2245.05	1397
836.9571	787.557	2179.85	1330.6
837.1021	789.6271	2110	1257.8
837.2472	791.6966	2031.6	1181.35
837.3922	793.7654	1968.55	1114.6
837.5373	795.8335	1928.5	1074.1
837.6823	797.901	1905.75	1055.2
837.8274	799.9678	1907.95	1055.85
837.9724	802.0339	1911.45	1060.05
838.1175	804.0993	1917.35	1054.65
838.2626	806.1641	1906.75	1052.25
838.4076	808.2282	1903.1	1049.25
838.5527	810.2916	1890.8	1030.95
838.6978	812.3544	1876.85	1022.85
838.8428	814.4164	1868.8	1016.35
838.9879	816.4778	1877.55	1023.15
839.133	818.5385	1880.1	1028.8
839.2781	820.5986	1899.65	1046.8
839.4232	822.658	1932.4	1076.5
839.5682	824.7166	1962.45	1107
839.7133	826.7747	2012.1	1158.95
839.8584	828.832	2059.25	1202.65
840.0035	830.8886	2099.15	1241.55
840.1486	832.9446	2116.35	1260.55
840.2937	834.9999	2090.8	1236.4
840.4388	837.0545	2052.8	1194.15
840.5839	839.1085	1987.95	1130.4
840.729	841.1618	1950.75	1090.5
840.8741	843.2143	1917.05	1060.4
841.0192	845.2662	1895.65	1039.05
841.1643	847.3175	1883.9	1028.3
841.3095	849.368	1870.2	1013.35
841.4546	851.4179	1869.25	1012.45
841.5997	853.467	1871.1	1014.4
841.7448	855.5155	1867	1008.45
841.8899	857.5633	1877.45	1018.2
842.0351	859.6105	1869.95	1010.85
842.1802	861.6569	1863.75	1005.7
842.3253	863.7027	1856.5	998
842.4704	865.7478	1845.05	986.85
842.6156	867.7922	1825.15	965.85
842.7607	869.8359	1830.45	971.7
842.9058	871.8789	1818.7	958.75
843.0509	873.9212	1856.3	965.2
843.1961	875.9629	1825.55	966.85
843.3412	878.0039	1842.5	981
843.4863	880.0441	1840.5	980.35
843.6315	882.0837	1860.5	1000.5
843.7766	884.1226	1868.8	1008.65
843.9218	886.1609	1893.8	1035.9
844.0669	888.1984	1908.55	1050.85
844.212	890.2352	1940.4	1080.4
844.3572	892.2714	1951.05	1086.25
844.5023	894.3069	1912.95	1051.5
844.6475	896.3416	1892.4	1029.25
844.7926	898.3757	1863.8	1002.15
844.9377	900.4091	1852.55	988.4
845.0829	902.4418	1858.2	989.15
845.228	904.4739	1868.45	1003.7
845.3732	906.5052	1884.7	1021.25
845.5183	908.5358	1867	1005.8
845.6635	910.5658	1846.2	981.85
845.8086	912.595	1842.05	980.75
845.9538	914.6236	1816.65	954.95
846.0989	916.6515	1794.4	933.35
846.2441	918.6786	1778.65	913.7
846.3892	920.7051	1782.85	918.35
846.5344	922.7309	1779.85	916.6
846.6795	924.756	1774	909
846.8246	926.7804	1788.1	922.7
846.9698	928.8041	1783.6	918.05
847.1149	930.8272	1788.6	925.65
847.2601	932.8495	1800.25	935.35
847.4052	934.8711	1796.2	931.85
847.5504	936.892	1796.55	931.9
847.6955	938.9123	1805.55	939.85
847.8407	940.9318	1819.95	954.7
847.9858	942.9506	1828	960.85
848.131	944.9688	1813.8	948
848.2761	946.9862	1804.7	938.65
848.4213	949.003	1779.05	913.65
848.5664	951.019	1771.45	906
848.7115	953.0344	1764.4	899.1
848.8567	955.0491	1759.3	891.45
849.0018	957.063	1751.6	887.05
849.147	959.0763	1747.2	882.2
849.2921	961.0888	1734.85	865.55
849.4373	963.1007	1735.4	869.05
849.5824	965.1119	1735.4	870.75
849.7275	967.1223	1724.1	855.45
849.8727	969.1321	1726.15	858.35
850.0178	971.1412	1721.2	853.4
850.1629	973.1495	1716.95	848.15
850.3081	975.1572	1761.75	854.7
850.4532	977.1641	1715.1	848.25
850.5983	979.1704	1719.8	852.4
850.7435	981.1759	1713	842
850.8886	983.1808	1703.2	833.85
851.0337	985.1849	1709.55	834.1
851.1788	987.1884	1698.55	828.95
851.324	989.1911	1702.1	829.9
851.4691	991.1932	1708.85	841.25
851.6142	993.1945	1704.95	836.6
851.7593	995.1951	1698.8	829.6
851.9045	997.1951	1704.8	831.15
852.0496	999.1943	1697.25	829.05
852.1947	1001.1928	1690.7	821.1
852.3398	1003.1906	1695.8	826.9
852.4849	1005.1877	1703.4	832.25
852.63	1007.1841	1717.75	848.45
852.7751	1009.1798	1722.55	852.9
852.9202	1011.1748	1712.15	844
853.0653	1013.1691	1709.95	840.95
853.2104	1015.1627	1691.65	820
853.3555	1017.1556	1655.55	785.65
853.5006	1019.1477	1660.65	789.9
853.6457	1021.1392	1637.4	769.85
853.7908	1023.1299	1637.95	766.4
853.9359	1025.12	1636.5	763
854.081	1027.1093	1636.9	767.6
854.2261	1029.0979	1646.1	777.75
854.3712	1031.0859	1651.15	780.95
854.5163	1033.0731	1656.4	784.5
854.6613	1035.0596	1657.55	786.35
854.8064	1037.0454	1648.15	777.6
854.9515	1039.0304	1633	759.95
855.0965	1041.0148	1631.3	759.55
855.2416	1042.9985	1619.75	749.8
855.3867	1044.9814	1608.1	734.8
855.5317	1046.9636	1601.75	728.9
855.6768	1048.9452	1606.8	735.3
855.8219	1050.926	1607.1	735.55
855.9669	1052.9061	1622.45	751.4
856.112	1054.8855	1620.2	746.1
856.257	1056.8642	1622	749.6
856.4021	1058.8421	1622.95	746.75
856.5471	1060.8194	1611.05	740.3
856.6921	1062.7959	1610.8	737.7
856.8372	1064.7717	1617.15	744.7
856.9822	1066.7469	1612.35	738.95
857.1272	1068.7213	1608.65	735.1
857.2723	1070.695	1621.5	747.65
857.4173	1072.6679	1627.75	756.95
857.5623	1074.6402	1629.45	755.6
857.7073	1076.6117	1647.7	769.8
857.8523	1078.5826	1619.95	746.85
857.9973	1080.5527	1611.5	735.45
858.1423	1082.5221	1590.7	717.4
858.2873	1084.4908	1568.25	694.35
858.4323	1086.4587	1557.05	684.55
858.5773	1088.426	1559.1	685.7
858.7223	1090.3925	1561.95	684.45
858.8673	1092.3584	1552.9	680.95
859.0123	1094.3235	1554.4	680.75
859.1573	1096.2879	1565.85	691.3
859.3022	1098.2515	1573.1	700.15
859.4472	1100.2145	1593.15	720.5
859.5922	1102.1767	1606.9	730.25
859.7371	1104.1382	1630.25	757.3
859.8821	1106.099	1662.85	787.15
860.027	1108.0591	1670.6	796.6
860.172	1110.0185	1704.25	828.05
860.3169	1111.9771	1722.7	850.25
860.4619	1113.9351	1749.95	876.25
860.6068	1115.8923	1788.35	912.15
860.7517	1117.8488	1807.2	931.15
860.8967	1119.8045	1769.85	896.85
861.0416	1121.7596	1717.05	843.2
861.1865	1123.7139	1669.7	796.35
861.3314	1125.6675	1625.95	749.2
861.4763	1127.6204	1619.05	743.85
861.6212	1129.5726	1636.5	758.7
861.7661	1131.524	1633.55	760.25
861.911	1133.4748	1609.3	734.15
862.0559	1135.4248	1579.25	700.9
862.2008	1137.3741	1541.4	667.7
862.3457	1139.3226	1532	655.9
862.4905	1141.2705	1529.5	654.55
862.6354	1143.2176	1535.9	654.3
862.7803	1145.164	1536.7	658.8
862.9251	1147.1097	1532	655.8
863.07	1149.0546	1515.7	639
863.2148	1150.9989	1502.2	627.45
863.3597	1152.9424	1499.7	622
863.5045	1154.8852	1488.8	611.7
863.6493	1156.8272	1483.9	608.2
863.7942	1158.7686	1491.25	607.45
863.939	1160.7092	1474.05	597.1
864.0838	1162.6491	1488.2	610.15
864.2286	1164.5883	1486.4	610.85
864.3734	1166.5267	1498.05	622.35
864.5182	1168.4644	1501.15	623.15
864.663	1170.4014	1519.95	637.95
864.8078	1172.3377	1541.15	666.85
864.9526	1174.2732	1558.4	682.65
865.0974	1176.2081	1610.5	735.4
865.2421	1178.1421	1688.8	807.65
865.3869	1180.0755	1746.75	869.75
865.5317	1182.0082	1777.45	900.4
865.6764	1183.9401	1768.15	889.5
865.8212	1185.8713	1702.8	828.95
865.9659	1187.8017	1652.25	774.4
866.1106	1189.7315	1576.05	698.75
866.2554	1191.6605	1569.85	663.05
866.4001	1193.5888	1514.3	635.15
866.5448	1195.5163	1492.65	614.5
866.6895	1197.4432	1485.95	607.65
866.8342	1199.3693	1464.35	585.85
866.9789	1201.2947	1468.45	587.05
867.1236	1203.2193	1456.75	579.95
867.2683	1205.1432	1456.45	578.55
867.413	1207.0664	1446.45	568.95
867.5576	1208.9889	1442.15	562.6
867.7023	1210.9106	1444	565.25
867.847	1212.8316	1443.45	565.35
867.9916	1214.7519	1462.9	575.35
868.1363	1216.6715	1460.2	584.4
868.2809	1218.5903	1466.25	588.05
868.4255	1220.5084	1475.7	598
868.5701	1222.4257	1475.3	598
868.7148	1224.3424	1470.75	593.15
868.8594	1226.2583	1488.05	608.45
869.004	1228.1735	1503.55	623.9
869.1486	1230.0879	1521.8	644.9
869.2932	1232.0016	1540	660.95
869.4377	1233.9146	1557.3	675.35
869.5823	1235.8269	1569.7	693.4
869.7269	1237.7384	1573.9	694.7
869.8715	1239.6492	1564.25	685.85
870.016	1241.5592	1573.7	694.4
870.1606	1243.4686	1602.75	725.05
870.3051	1245.3772	1643.7	764.9
870.4496	1247.285	1686.05	806
870.5941	1249.1922	1729.1	851.65
870.7387	1251.0986	1763.5	884.9
870.8832	1253.0042	1799.65	920.3
871.0277	1254.9092	1851.65	973.9
