Software Version:	3.9.2.0
Unit SN:	10000200
Spectrometer SN:	6960
Date:	3/14/2024 2:26:42 PM
Data Line Index:	25
Spectral Points:	2048
Integration time (ms):	125
Averages:	20
Delay (ms):	30000
Sequence Number:	1
Processing:	dark subtract
Laser Power (mW):	305
Laser Current (mA):	824
Laser Diode Temp (C):	25
Laser Case Temp (C):	29.2
System Temp (C):	29.2
Spectrometer Temp (C):	27
CCD Temp (C):	0.01
Secondary Temp (C):	20.004
Heatsink Temp (C):	25.161
CCDPCB Temp (C):	38.241
SecondaryPCB Temp (C):	36.151

Wavelength	RamanShift	Raw Counts	Dark Subtracted
787.061	30.1047	456	47.05
787.2016	32.3739	454.75	47.6
787.3422	34.6426	460.8	51.75
787.4828	36.9109	468.75	57.95
787.6235	39.1787	477.45	61.25
787.7642	41.4461	484.45	63.8
787.9049	43.7131	493.2	69.25
788.0456	45.9796	503.65	76.45
788.1863	48.2456	513	80.75
788.3271	50.5112	521.45	84.35
788.4679	52.7764	530.75	93.5
788.6087	55.0411	537.9	97.1
788.7496	57.3054	550.85	103.35
788.8904	59.5692	560.9	111.55
789.0313	61.8326	573.95	118.95
789.1722	64.0955	583.85	125.35
789.3132	66.3579	599.7	135.7
789.4541	68.6199	618.1	153.7
789.5951	70.8815	648.6	179.4
789.7361	73.1426	719.1	245.85
789.8771	75.4032	909.55	432.65
790.0181	77.6634	1366.8	884.05
790.1592	79.9231	2438.5	1950.85
790.3003	82.1824	4806.55	4309.15
790.4414	84.4412	9172.95	8658.6
790.5825	86.6995	15356.9	14820.55
790.7237	88.9574	21567.95	21013.5
790.8648	91.2148	25990	25423.45
791.006	93.4717	28179.65	27604.6
791.1472	95.7282	28760.35	28179.75
791.2885	97.9842	28760.55	28174.95
791.4297	100.2398	28291.95	27706.6
791.571	102.4949	27678.2	27087.25
791.7123	104.7495	26980.05	26385.5
791.8536	107.0036	26122.35	25526
791.9949	109.2573	25328.2	24735.05
792.1363	111.5105	24498.3	23899.85
792.2777	113.7632	23652.1	23054.6
792.4191	116.0154	22901.45	22294.6
792.5605	118.2672	22368.85	21766.85
792.7019	120.5185	21816.35	21215.55
792.8434	122.7693	21358.9	20756.2
792.9849	125.0197	21014.45	20405.85
793.1264	127.2696	20713.7	20106.2
793.2679	129.519	20543.65	19931.8
793.4094	131.7679	20368.7	19750.8
793.551	134.0163	20257.25	19638.05
793.6926	136.2642	20124.25	19499.55
793.8342	138.5117	19929.1	19295.45
793.9758	140.7587	19757	19129.5
794.1175	143.0052	19578.45	18949.7
794.2591	145.2512	19357.45	18726.45
794.4008	147.4967	19165.5	18534.05
794.5425	149.7417	19009.8	18374.6
794.6842	151.9863	18859.55	18225.05
794.826	154.2304	18784.65	18144.7
794.9677	156.4739	18673.6	18028.4
795.1095	158.717	18573.4	17930.95
795.2513	160.9596	18429.55	17778.25
795.3931	163.2017	18184.45	17532.75
795.535	165.4433	17874.05	17222.05
795.6768	167.6844	17493.75	16840.8
795.8187	169.925	17150.5	16488.65
795.9606	172.1651	16749	16088.5
796.1025	174.4047	16408.95	15742.6
796.2445	176.6439	16118.55	15452.35
796.3864	178.8825	15852.45	15184.5
796.5284	181.1206	15638.95	14964.95
796.6704	183.3582	15452.75	14776
796.8124	185.5954	15317.35	14638
796.9544	187.832	15170.85	14488.55
797.0965	190.0681	15148.9	14464.6
797.2386	192.3037	15138.65	14452.55
797.3806	194.5388	15096.3	14411.6
797.5228	196.7734	15103.45	14414.5
797.6649	199.0075	15170.65	14473.8
797.807	201.2411	15308.3	14609.7
797.9492	203.4742	15338.8	14641.7
798.0914	205.7068	15480.15	14785.2
798.2336	207.9389	15557.75	14858.7
798.3758	210.1704	15715.1	15014.5
798.518	212.4015	15825.7	15122.75
798.6603	214.632	16003.25	15296.8
798.8025	216.862	16184.35	15488.95
798.9448	219.0915	16393.1	15700.2
799.0871	221.3205	16655.05	15964.2
799.2294	223.549	16968.9	16285.65
799.3718	225.777	17326.45	16645.9
799.5141	228.0044	17806.5	17120.3
799.6565	230.2314	18352.15	17671.1
799.7989	232.4578	18929.8	18240.8
799.9413	234.6837	19394.7	18702.8
800.0837	236.909	19634.55	18942.4
800.2262	239.1339	19620.8	18903.2
800.3687	241.3582	19299.25	18596.95
800.5111	243.582	18846.3	18114.85
800.6536	245.8053	18377.45	17655.35
800.7961	248.0281	17937.55	17221.65
800.9387	250.2503	17582.95	16859.3
801.0812	252.472	17314.4	16589.35
801.2238	254.6932	17180.95	16449.8
801.3664	256.9139	16991.3	16262.45
801.509	259.134	16911.6	16179.7
801.6516	261.3536	16766.4	16037.5
801.7942	263.5727	16722.25	15989.3
801.9369	265.7912	16567.85	15835.6
802.0795	268.0092	16504.85	15771
802.2222	270.2267	16380.85	15645.8
802.3649	272.4436	16304.25	15567.9
802.5076	274.6601	16241.6	15499.25
802.6504	276.8759	16171.5	15429.15
802.7931	279.0913	16162.9	15422.55
802.9359	281.3061	16216	15476.05
803.0787	283.5204	16303.85	15559.9
803.2215	285.7341	16455.35	15708.45
803.3643	287.9473	16678.35	15920.25
803.5071	290.16	16960.95	16207.9
803.6499	292.3721	17305.8	16560.85
803.7928	294.5837	17806.7	17056.85
803.9357	296.7947	18183.95	17436.15
804.0786	299.0052	18434	17684.8
804.2215	301.2152	18261.1	17509.3
804.3644	303.4246	17858.15	17108.65
804.5074	305.6334	17229.65	16481.6
804.6503	307.8418	16622.4	15871.5
804.7933	310.0495	16172.85	15418.1
804.9363	312.2568	15822.8	15068.35
805.0793	314.4635	15584.4	14830.35
805.2223	316.6696	15524.45	14769.2
805.3653	318.8752	15514.2	14752.55
805.5084	321.0802	15584.95	14829.05
805.6514	323.2847	15680	14920.7
805.7945	325.4887	15747.5	14989.35
805.9376	327.692	15698.25	14936.6
806.0807	329.8949	15555.65	14795.15
806.2238	332.0972	15261.3	14497.9
806.367	334.2989	14946.6	14181.55
806.5101	336.5001	14634.95	13871.75
806.6533	338.7007	14393.7	13628
806.7965	340.9008	14250.75	13483.05
806.9397	343.1003	14122.4	13351.5
807.0829	345.2992	14055.05	13284
807.2261	347.4976	14048.85	13277.5
807.3693	349.6955	13995.75	13217.5
807.5126	351.8927	14081.7	13306.1
807.6559	354.0895	14068.9	13285.1
807.7991	356.2856	14142.3	13366.6
807.9424	358.4812	14090.75	13313.7
808.0857	360.6763	14140.5	13360.5
808.2291	362.8707	14086.95	13309
808.3724	365.0646	14083.4	13301.15
808.5158	367.258	14084.1	13299.75
808.6591	369.4508	14122.2	13335.3
808.8025	371.643	14131.1	13345.45
808.9459	373.8346	14085.3	13296.85
809.0893	376.0257	14060.25	13268.45
809.2327	378.2162	13938.85	13144
809.3762	380.4062	13820.25	13026.8
809.5196	382.5956	13652.35	12854.45
809.6631	384.7844	13548.25	12754.15
809.8066	386.9726	13413.3	12618.05
809.9501	389.1603	13322.6	12527.95
810.0936	391.3474	13289.95	12454.05
810.2371	393.5339	13270.6	12478.6
810.3806	395.7199	13181.1	12392.45
810.5241	397.9052	13190.05	12403.05
810.6677	400.09	13173.95	12388.5
810.8113	402.2743	13223.35	12437.25
810.9548	404.4579	13284.15	12497.2
811.0984	406.641	13399.45	12613.65
811.2421	408.8235	13639.45	12850.85
811.3857	411.0054	13990.5	13200.85
811.5293	413.1868	14499.2	13708.7
811.673	415.3675	14954.8	14163.45
811.8166	417.5477	15222.55	14426.5
811.9603	419.7273	15263.35	14466.05
812.104	421.9064	15145.15	14341
812.2477	424.0848	14977.8	14174.8
812.3914	426.2627	14725.25	13924.25
812.5351	428.4399	14400.9	13599.2
812.6788	430.6166	14021.6	13217.25
812.8226	432.7928	13609.75	12800.5
812.9663	434.9683	13249.85	12441.4
813.1101	437.1432	13003.95	12191.45
813.2539	439.3176	12804.5	11992.6
813.3977	441.4914	12692.55	11881.75
813.5415	443.6645	12650.2	11839.85
813.6853	445.8371	12574.5	11760.55
813.8291	448.0091	12482.9	11671.95
813.973	450.1806	12425.2	11611.4
814.1168	452.3514	12366.55	11553.85
814.2607	454.5216	12350.3	11529.25
814.4046	456.6913	12275.45	11460.65
814.5485	458.8603	12265.05	11450.5
814.6924	461.0288	12312.55	11499.05
814.8363	463.1967	12347.7	11536.35
814.9802	465.3639	12490.4	11671.25
815.1241	467.5306	12647.1	11829.6
815.2681	469.6967	12817.15	12000.1
815.412	471.8622	13008.25	12190.15
815.556	474.0271	13207.05	12389.8
815.7	476.1914	13287.15	12466.05
815.844	478.3551	13227.55	12408.2
815.988	480.5182	13176.65	12357.65
816.132	482.6807	13105.8	12282.9
816.276	484.8426	13156.45	12335.65
816.4201	487.0039	13387.6	12566.1
816.5641	489.1647	13797.1	12974.45
816.7082	491.3248	14294.35	13472.9
816.8522	493.4843	14498.6	13678
816.9963	495.6432	14560.2	13738.55
817.1404	497.8015	14474	13650.15
817.2845	499.9592	14500.05	13679.6
817.4286	502.1163	14482.85	13659.45
817.5727	504.2728	14268.1	13440.35
817.7168	506.4287	13959.65	13135.4
817.861	508.5839	13472.25	12647.8
818.0051	510.7386	13074	12251.35
818.1493	512.8927	12805.3	11978.5
818.2935	515.0461	12604.65	11778.35
818.4377	517.199	12472.65	11646.25
818.5818	519.3512	12380.9	11553.3
818.726	521.5029	12349.4	11513.6
818.8703	523.6539	12362.95	11532.75
819.0145	525.8043	12365.25	11535.65
819.1587	527.9541	12410.5	11578.95
819.303	530.1033	12439.9	11608
819.4472	532.2519	12528.1	11697.5
819.5915	534.3999	12717.4	11884.05
819.7357	536.5472	13029.25	12196.4
819.88	538.694	13564.3	12732.6
820.0243	540.8401	14290.55	13455.9
820.1686	542.9856	14898.15	14063.2
820.3129	545.1305	15133.85	14298.8
820.4572	547.2748	14955	14119.05
820.6016	549.4185	14513.9	13676.9
820.7459	551.5615	14069	13235.15
820.8902	553.704	13825.8	12987.1
821.0346	555.8458	13689.5	12853.8
821.1789	557.987	13604.15	12770.65
821.3233	560.1276	13444.45	12607.5
821.4677	562.2675	13340.55	12507.15
821.6121	564.4069	13169.85	12333.2
821.7565	566.5456	13004.55	12169.9
821.9009	568.6837	12842.95	12008.45
822.0453	570.8212	12598.75	11764.4
822.1897	572.958	12374.8	11538.9
822.3342	575.0942	12179.25	11342.15
822.4786	577.2299	12086.3	11248.1
822.6231	579.3648	12096.1	11259.8
822.7675	581.4992	12205.8	11367.05
822.912	583.6329	12412.9	11573.9
823.0565	585.766	12704.55	11868.4
823.201	587.8985	12832.8	11997.35
823.3454	590.0304	12868.1	12004.5
823.4899	592.1616	12797.45	11955.15
823.6345	594.2922	12683.15	11842.6
823.779	596.4222	12525.65	11686.3
823.9235	598.5515	12336.05	11495.4
824.068	600.6802	12177.5	11335.2
824.2126	602.8083	11969.65	11127.05
824.3571	604.9358	11862.05	11019.85
824.5017	607.0626	11775.7	10935.3
824.6462	609.1888	11655.55	10811.7
824.7908	611.3144	11534.95	10694
824.9354	613.4393	11331.95	10487.2
825.08	615.5636	11171.95	10330
825.2246	617.6873	11028.4	10184.6
825.3692	619.8103	10939.15	10094.35
825.5138	621.9327	10875.25	10028.25
825.6584	624.0544	10860.65	10015.35
825.803	626.1756	10877	10031.7
825.9477	628.2961	10833.9	9988.95
826.0923	630.4159	10781.3	9935.05
826.237	632.5351	10700.65	9857.25
826.3816	634.6537	10628.1	9782.2
826.5263	636.7716	10590.2	9743.25
826.6709	638.8889	10577.4	9730.1
826.8156	641.0056	10604.9	9756.05
826.9603	643.1216	10575.8	9728.2
827.105	645.237	10602.4	9752.8
827.2497	647.3518	10592.95	9743
827.3944	649.4659	10602.75	9753.05
827.5391	651.5793	10632.6	9782.75
827.6838	653.6922	10603.45	9754.4
827.8285	655.8043	10607.4	9760.25
827.9733	657.9159	10540.1	9688.3
828.118	660.0268	10459.9	9606.9
828.2627	662.137	10389.1	9540.15
828.4075	664.2466	10291.1	9440.35
828.5522	666.3556	10271.65	9420.9
828.697	668.4639	10263.7	9409.4
828.8418	670.5716	10310.3	9457.75
828.9865	672.6786	10435.45	9584.05
829.1313	674.785	10465.3	9611.45
829.2761	676.8907	10565.2	9713.05
829.4209	678.9958	10666.9	9815.8
829.5657	681.1002	10608.8	9756.7
829.7105	683.204	10615.85	9757
829.8553	685.3072	10534.6	9681.05
830.0001	687.4097	10435	9580.85
830.1449	689.5115	10349.1	9492.15
830.2898	691.6127	10261.3	9409.5
830.4346	693.7132	10160.65	9305.15
830.5794	695.8131	10103.85	9225.9
830.7243	697.9123	10062.15	9204.35
830.8691	700.0109	9957.85	9103.05
831.014	702.1089	9955.75	9100.7
831.1588	704.2061	9926.6	9070.4
831.3037	706.3028	9966.05	9108.4
831.4486	708.3987	10013.75	9157.9
831.5935	710.4941	10094.7	9238.5
831.7383	712.5887	10254.35	9396.95
831.8832	714.6827	10609.35	9747.65
832.0281	716.7761	11018.1	10160.5
832.173	718.8688	11442.8	10583.4
832.3179	720.9608	11684.25	10824.4
832.4628	723.0522	11703.6	10842.1
832.6077	725.1429	11417.3	10556.05
832.7527	727.233	11004.5	10147.3
832.8976	729.3224	10620.45	9761.2
833.0425	731.4112	10271.95	9413.2
833.1874	733.4993	10029.9	9165.7
833.3324	735.5867	9873.85	9013.3
833.4773	737.6735	9763.8	8903.5
833.6222	739.7596	9701.5	8841.65
833.7672	741.845	9647.9	8787.4
833.9122	743.9298	9641	8780.15
834.0571	746.014	9638.9	8781.25
834.2021	748.0974	9648.4	8787.45
834.347	750.1802	9664.5	8802.05
834.492	752.2624	9681.2	8819.95
834.637	754.3439	9669.7	8805.7
834.782	756.4247	9728.35	8857.25
834.9269	758.5048	9808.25	8945.25
835.0719	760.5843	9976	9115.65
835.2169	762.6631	10260.45	9400.45
835.3619	764.7413	10662.05	9799.8
835.5069	766.8188	11241.75	10376.65
835.6519	768.8956	11752.1	10886.85
835.7969	770.9718	12097.85	11236.1
835.9419	773.0473	11993.05	11132.35
836.0869	775.1221	11662.85	10800.05
836.232	777.1962	11251.7	10387.2
836.377	779.2697	11064.5	10197.55
836.522	781.3426	11108.15	10225.95
836.667	783.4147	11394.45	10529.05
836.8121	785.4862	11722.05	10859.6
836.9571	787.557	11758.8	10894.9
837.1021	789.6271	11423.85	10559.05
837.2472	791.6966	10836.8	9973.25
837.3922	793.7654	10307.05	9442.2
837.5373	795.8335	9927.9	9064.3
837.6823	797.901	9734.55	8870.4
837.8274	799.9678	9673.55	8808.4
837.9724	802.0339	9678	8813.65
838.1175	804.0993	9740.5	8866.35
838.2626	806.1641	9719.1	8856.25
838.4076	808.2282	9648.6	8784.1
838.5527	810.2916	9560.5	8692.6
838.6978	812.3544	9451.3	8589.95
838.8428	814.4164	9329.15	8466.1
838.9879	816.4778	9284.25	8418.45
839.133	818.5385	9265.7	8402.05
839.2781	820.5986	9294.65	8430.75
839.4232	822.658	9326.5	8460.35
839.5682	824.7166	9384.65	8515.6
839.7133	826.7747	9466.1	8602.3
839.8584	828.832	9581.35	8714.85
840.0035	830.8886	9681.7	8813.35
840.1486	832.9446	9837.35	8971.75
840.2937	834.9999	9939.35	9075.2
840.4388	837.0545	10048.35	9177.45
840.5839	839.1085	10108.25	9240.95
840.729	841.1618	10137.4	9267.3
840.8741	843.2143	10115.95	9249.55
841.0192	845.2662	10060.3	9192.5
841.1643	847.3175	10006.25	9142.65
841.3095	849.368	9901.65	9033.85
841.4546	851.4179	9753.35	8886
841.5997	853.467	9589.95	8722.5
841.7448	855.5155	9464.05	8595.8
841.8899	857.5633	9331	8463.45
842.0351	859.6105	9197.1	8330.7
842.1802	861.6569	9149.05	8281.2
842.3253	863.7027	9066.35	8199.6
842.4704	865.7478	9032.1	8166
842.6156	867.7922	9028.85	8161.55
842.7607	869.8359	9087.45	8219.05
842.9058	871.8789	9208.75	8339.9
843.0509	873.9212	9408.65	8506.55
843.1961	875.9629	9585.5	8716.1
843.3412	878.0039	9753.85	8883.2
843.4863	880.0441	9885.5	9017
843.6315	882.0837	9853.55	8983.65
843.7766	884.1226	9730.45	8861.4
843.9218	886.1609	9558.8	8690.75
844.0669	888.1984	9404.9	8536.9
844.212	890.2352	9284.85	8416.9
844.3572	892.2714	9219.2	8342.7
844.5023	894.3069	9174.55	8304.7
844.6475	896.3416	9126.75	8255.1
844.7926	898.3757	9069.85	8198
844.9377	900.4091	9091.5	8223.05
845.0829	902.4418	9128.6	8251.7
845.228	904.4739	9113.8	8241.55
845.3732	906.5052	9099.35	8229.8
845.5183	908.5358	8970.65	8100.2
845.6635	910.5658	8820.45	7949.15
845.8086	912.595	8654.2	7784.2
845.9538	914.6236	8518	7647.9
846.0989	916.6515	8465.3	7594.7
846.2441	918.6786	8464.3	7592.25
846.3892	920.7051	8525.7	7652.65
846.5344	922.7309	8655.95	7785.25
846.6795	924.756	8715.45	7844.05
846.8246	926.7804	8798.15	7924.6
846.9698	928.8041	8781.3	7905.75
847.1149	930.8272	8802.7	7930.4
847.2601	932.8495	8739	7864.25
847.4052	934.8711	8664.8	7793.1
847.5504	936.892	8501.35	7629.45
847.6955	938.9123	8306.7	7431
847.8407	940.9318	8156.6	7284.4
847.9858	942.9506	8012.8	7137.35
848.131	944.9688	7923.1	7052.25
848.2761	946.9862	7856.6	6983.55
848.4213	949.003	7819.6	6946.55
848.5664	951.019	7834	6961.35
848.7115	953.0344	7843.05	6969.55
848.8567	955.0491	7899.55	7026.4
849.0018	957.063	7970.7	7097.4
849.147	959.0763	8049.85	7179.1
849.2921	961.0888	8132.15	7256.95
849.4373	963.1007	8215.9	7341.1
849.5824	965.1119	8229.5	7355.85
849.7275	967.1223	8269.2	7396.25
849.8727	969.1321	8289.15	7415.75
850.0178	971.1412	8356.7	7483.75
850.1629	973.1495	8364.2	7491.15
850.3081	975.1572	8433.7	7527
850.4532	977.1641	8427.1	7555.15
850.5983	979.1704	8417.7	7541.7
850.7435	981.1759	8424.05	7547.35
850.8886	983.1808	8458.4	7583.1
851.0337	985.1849	8572.75	7688.4
851.1788	987.1884	8747.7	7872.9
851.324	989.1911	8965.05	8088.25
851.4691	991.1932	9119.05	8242.8
851.6142	993.1945	9172.9	8297.6
851.7593	995.1951	9148.85	8272.85
851.9045	997.1951	9124.15	8243.85
852.0496	999.1943	9025.75	8151.7
852.1947	1001.1928	8978.55	8103.85
852.3398	1003.1906	8957.4	8083.5
852.4849	1005.1877	8963.3	8088.8
852.63	1007.1841	8942.35	8067
852.7751	1009.1798	8831.65	7958
852.9202	1011.1748	8608.4	7731.8
853.0653	1013.1691	8412.9	7538.1
853.2104	1015.1627	8189.55	7312.9
853.3555	1017.1556	7997.75	7123
853.5006	1019.1477	7906.5	7031.65
853.6457	1021.1392	7831.45	6956.7
853.7908	1023.1299	7842.35	6965.45
853.9359	1025.12	7861.85	6984.7
854.081	1027.1093	7940.95	7065.1
854.2261	1029.0979	7997.1	7123.3
854.3712	1031.0859	8049.2	7173.45
854.5163	1033.0731	8052.1	7174.65
854.6613	1035.0596	7973.3	7096.55
854.8064	1037.0454	7834.6	6958.95
854.9515	1039.0304	7700.3	6825.4
855.0965	1041.0148	7562.7	6685.6
855.2416	1042.9985	7507.25	6631.05
855.3867	1044.9814	7461.7	6586.25
855.5317	1046.9636	7405.4	6528
855.6768	1048.9452	7359.85	6484.25
855.8219	1050.926	7362.35	6485.45
855.9669	1052.9061	7373.8	6499.15
856.112	1054.8855	7344.15	6468.45
856.257	1056.8642	7372	6496.85
856.4021	1058.8421	7433.2	6553.35
856.5471	1060.8194	7437.25	6559.35
856.6921	1062.7959	7451.65	6575.75
856.8372	1064.7717	7483.95	6605.85
856.9822	1066.7469	7474.9	6597.25
857.1272	1068.7213	7439.3	6560.25
857.2723	1070.695	7402.05	6524.65
857.4173	1072.6679	7342.8	6464.45
857.5623	1074.6402	7290.75	6412.05
857.7073	1076.6117	7261.55	6378.45
857.8523	1078.5826	7289.3	6412.05
857.9973	1080.5527	7344.4	6464.35
858.1423	1082.5221	7506.05	6625.75
858.2873	1084.4908	7737.9	6861
858.4323	1086.4587	8006.85	7128.6
858.5773	1088.426	8173.3	7294.75
858.7223	1090.3925	8171.05	7287.5
858.8673	1092.3584	8081.65	7205.45
859.0123	1094.3235	7914.55	7037.35
859.1573	1096.2879	7801.05	6924.15
859.3022	1098.2515	7735.15	6857.35
859.4472	1100.2145	7792.4	6917.4
859.5922	1102.1767	7856.85	6978.65
859.7371	1104.1382	7979.05	7100.3
859.8821	1106.099	8166.6	7285.5
860.027	1108.0591	8373.75	7497.25
860.172	1110.0185	8522.45	7642.25
860.3169	1111.9771	8557.4	7677.8
860.4619	1113.9351	8326.1	7447
860.6068	1115.8923	7969.25	7091.8
860.7517	1117.8488	7616.6	6736.6
860.8967	1119.8045	7315.75	6438.25
861.0416	1121.7596	7176.2	6296
861.1865	1123.7139	7084.8	6206.85
861.3314	1125.6675	7076.95	6198.7
861.4763	1127.6204	7144.85	6269.45
861.6212	1129.5726	7178.7	6297.55
861.7661	1131.524	7206.95	6328.9
861.911	1133.4748	7257.9	6379.85
862.0559	1135.4248	7284.35	6402.4
862.2008	1137.3741	7334.85	6459.5
862.3457	1139.3226	7312.6	6432.6
862.4905	1141.2705	7280.75	6403.05
862.6354	1143.2176	7240.3	6354.85
862.7803	1145.164	7236.4	6357.7
862.9251	1147.1097	7265.35	6387.95
863.07	1149.0546	7277.3	6396.95
863.2148	1150.9989	7148.75	6270.9
863.3597	1152.9424	6952.9	6072.35
863.5045	1154.8852	6772.45	5892.45
863.6493	1156.8272	6620.6	5743.1
863.7942	1158.7686	6532.6	5645.1
863.939	1160.7092	6487.4	5608.65
864.0838	1162.6491	6490.3	5610.1
864.2286	1164.5883	6538.8	5660.6
864.3734	1166.5267	6617.65	5736.5
864.5182	1168.4644	6757.6	5878.3
864.663	1170.4014	6949.6	6065.1
864.8078	1172.3377	7164.85	6287.8
864.9526	1174.2732	7368.95	6489.6
865.0974	1176.2081	7573.95	6697
865.2421	1178.1421	7762.1	6880
865.3869	1180.0755	7895.5	7017.2
865.5317	1182.0082	7909.25	7029.8
865.6764	1183.9401	7850.65	6972.2
865.8212	1185.8713	7625.65	6747.3
865.9659	1187.8017	7361.85	6480.85
866.1106	1189.7315	7104.25	6225.65
866.2554	1191.6605	6879.15	5969.7
866.4001	1193.5888	6671.25	5791.4
866.5448	1195.5163	6541.3	5661
866.6895	1197.4432	6443.9	5563.25
866.8342	1199.3693	6374.9	5495.05
866.9789	1201.2947	6327.4	5448
867.1236	1203.2193	6297.05	5418.3
867.2683	1205.1432	6335.45	5456.7
867.413	1207.0664	6384.65	5504.05
867.5576	1208.9889	6446.9	5563.05
