Software Version:	3.9.2.0
Unit SN:	10000200
Spectrometer SN:	6960
Date:	3/14/2024 1:58:22 PM
Data Line Index:	25
Spectral Points:	2048
Integration time (ms):	125
Averages:	20
Delay (ms):	30000
Sequence Number:	1
Processing:	dark subtract
Laser Power (mW):	300
Laser Current (mA):	824
Laser Diode Temp (C):	25
Laser Case Temp (C):	29
System Temp (C):	29
Spectrometer Temp (C):	26.8
CCD Temp (C):	0.009
Secondary Temp (C):	20.007
Heatsink Temp (C):	24.817
CCDPCB Temp (C):	38.074
SecondaryPCB Temp (C):	35.918

Wavelength	RamanShift	Raw Counts	Dark Subtracted
787.061	30.1047	456.75	45.9
787.2016	32.3739	460.9	50.6
787.3422	34.6426	463.85	55.45
787.4828	36.9109	468.95	56.4
787.6235	39.1787	479.85	63.45
787.7642	41.4461	487.65	66
787.9049	43.7131	497.4	73.05
788.0456	45.9796	505.9	76.75
788.1863	48.2456	515.25	82.5
788.3271	50.5112	522.75	86.65
788.4679	52.7764	534.65	95.6
788.6087	55.0411	540.45	99.95
788.7496	57.3054	556.1	109.6
788.8904	59.5692	564.25	114.8
789.0313	61.8326	578.45	126.6
789.1722	64.0955	588.7	130.2
789.3132	66.3579	602.3	139.1
789.4541	68.6199	625.6	159.8
789.5951	70.8815	655.45	187.3
789.7361	73.1426	725	253.85
789.8771	75.4032	908.3	430.35
790.0181	77.6634	1359.2	875.2
790.1592	79.9231	2427.35	1938.3
790.3003	82.1824	4780.25	4281.15
790.4414	84.4412	9136.05	8619.75
790.5825	86.6995	15273.1	14731.7
790.7237	88.9574	21472.25	20909.5
790.8648	91.2148	25954.45	25379.75
791.006	93.4717	28193.2	27602.65
791.1472	95.7282	28754.35	28165
791.2885	97.9842	28844.85	28250.4
791.4297	100.2398	28425.5	27829.95
791.571	102.4949	27913.6	27310.5
791.7123	104.7495	27242.1	26636.05
791.8536	107.0036	26519.9	25911.2
791.9949	109.2573	25783.8	25176.5
792.1363	111.5105	25084.45	24474.6
792.2777	113.7632	24365	23757.7
792.4191	116.0154	23725.25	23107.45
792.5605	118.2672	23276.95	22665.25
792.7019	120.5185	22787.3	22175.35
792.8434	122.7693	22412.6	21796.45
792.9849	125.0197	22141.85	21522.75
793.1264	127.2696	21873.85	21249.8
793.2679	129.519	21743.9	21118.9
793.4094	131.7679	21547.2	20920.55
793.551	134.0163	21461.9	20831.5
793.6926	136.2642	21310.5	20675.7
793.8342	138.5117	21173.4	20527.7
793.9758	140.7587	20959.8	20320.55
794.1175	143.0052	20798.2	20157.5
794.2591	145.2512	20595.7	19954.15
794.4008	147.4967	20396.1	19752.7
794.5425	149.7417	20305.3	19657.55
794.6842	151.9863	20168.75	19518.45
794.826	154.2304	20107.75	19456.65
794.9677	156.4739	19984.3	19322.9
795.1095	158.717	19906.1	19251.15
795.2513	160.9596	19744.1	19082.95
795.3931	163.2017	19482.15	18821.25
795.535	165.4433	19267.25	18601.9
795.6768	167.6844	18908.9	18240.55
795.8187	169.925	18613.35	17945.7
795.9606	172.1651	18222.9	17548.85
796.1025	174.4047	17921.95	17244.65
796.2445	176.6439	17638.25	16964.9
796.3864	178.8825	17409.25	16728.65
796.5284	181.1206	17234.8	16548.8
796.6704	183.3582	17053.25	16364.2
796.8124	185.5954	16961.45	16273.3
796.9544	187.832	16857.95	16169.05
797.0965	190.0681	16778.8	16084.05
797.2386	192.3037	16777.25	16083.8
797.3806	194.5388	16766.15	16066.1
797.5228	196.7734	16795.2	16096.95
797.6649	199.0075	16830.7	16124.6
797.807	201.2411	17015.1	16308.3
797.9492	203.4742	16991.2	16284.9
798.0914	205.7068	17135.4	16426.25
798.2336	207.9389	17208.2	16498.95
798.3758	210.1704	17320.25	16611.7
798.518	212.4015	17439.25	16721.85
798.6603	214.632	17598.3	16887.25
798.8025	216.862	17754.7	17045.7
798.9448	219.0915	17919.4	17219.4
799.0871	221.3205	18124.7	17427.05
799.2294	223.549	18405.1	17711.15
799.3718	225.777	18729.95	18036.8
799.5141	228.0044	19116.25	18422.75
799.6565	230.2314	19604.4	18906.25
799.7989	232.4578	20077.55	19380.35
799.9413	234.6837	20433.25	19727.6
800.0837	236.909	20664.1	19958.8
800.2262	239.1339	20601.85	19874.5
800.3687	241.3582	20342.2	19627.95
800.5111	243.582	19945.85	19207.7
800.6536	245.8053	19573.95	18841.85
800.7961	248.0281	19147.75	18420.15
800.9387	250.2503	18868.9	18137
801.0812	252.472	18678.4	17942
801.2238	254.6932	18594.8	17854.9
801.3664	256.9139	18425.65	17684.1
801.509	259.134	18386	17640.9
801.6516	261.3536	18305.85	17566
801.7942	263.5727	18289.05	17544.55
801.9369	265.7912	18166.5	17425.55
802.0795	268.0092	18100.2	17356.4
802.2222	270.2267	18011.2	17269.3
802.3649	272.4436	17936.15	17190.9
802.5076	274.6601	17848.45	17097
802.6504	276.8759	17785.25	17038.2
802.7931	279.0913	17809.85	17062.4
802.9359	281.3061	17790.05	17037.75
803.0787	283.5204	17903.1	17148.85
803.2215	285.7341	17982.85	17226.5
803.3643	287.9473	18157.6	17391.55
803.5071	290.16	18415.65	17653.05
803.6499	292.3721	18738.15	17981.05
803.7928	294.5837	19165.6	18405.8
803.9357	296.7947	19517.6	18757.1
804.0786	299.0052	19699.75	18941.05
804.2215	301.2152	19508.55	18742.95
804.3644	303.4246	19109.45	18350.65
804.5074	305.6334	18535.75	17777.85
804.6503	307.8418	18035.85	17272.85
804.7933	310.0495	17622.05	16862.35
804.9363	312.2568	17317.05	16559.45
805.0793	314.4635	17126.9	16362.75
805.2223	316.6696	17053.35	16286.7
805.3653	318.8752	17044.65	16268.95
805.5084	321.0802	17102.05	16333.6
805.6514	323.2847	17198.05	16430.7
805.7945	325.4887	17249.35	16482.15
805.9376	327.692	17163.15	16394.6
806.0807	329.8949	17057.95	16288.75
806.2238	332.0972	16793.4	16022.45
806.367	334.2989	16465.95	15692.6
806.5101	336.5001	16212.35	15437.85
806.6533	338.7007	15982.45	15209.8
806.7965	340.9008	15870.95	15094.55
806.9397	343.1003	15750.7	14973.55
807.0829	345.2992	15724.45	14945.55
807.2261	347.4976	15705.1	14926.9
807.3693	349.6955	15652.8	14867.15
807.5126	351.8927	15732.35	14950.25
807.6559	354.0895	15745.9	14952.15
807.7991	356.2856	15771.7	14986.4
807.9424	358.4812	15732.5	14948.55
808.0857	360.6763	15758.9	14971.85
808.2291	362.8707	15738.8	14950.15
808.3724	365.0646	15748.15	14958.1
808.5158	367.258	15700.95	14908.85
808.6591	369.4508	15685.4	14890.55
808.8025	371.643	15763.25	14969.35
808.9459	373.8346	15729.45	14931.9
809.0893	376.0257	15672.35	14871.3
809.2327	378.2162	15587.55	14786.5
809.3762	380.4062	15462.3	14658.85
809.5196	382.5956	15301.55	14496.45
809.6631	384.7844	15219.75	14418.4
809.8066	386.9726	15095.55	14289.5
809.9501	389.1603	15006.95	14204.4
810.0936	391.3474	14992	14156.95
810.2371	393.5339	14985.5	14183.55
810.3806	395.7199	14876.15	14076.55
810.5241	397.9052	14901.75	14102.45
810.6677	400.09	14904.75	14110.5
810.8113	402.2743	14920	14121.55
810.9548	404.4579	14971.75	14175.35
811.0984	406.641	15119.35	14326.1
811.2421	408.8235	15298.95	14499.9
811.3857	411.0054	15660.4	14863.1
811.5293	413.1868	16093.65	15294.6
811.673	415.3675	16472.35	15672.35
811.8166	417.5477	16643.5	15844.15
811.9603	419.7273	16671.5	15864.85
812.104	421.9064	16532.05	15719
812.2477	424.0848	16372.75	15565.9
812.3914	426.2627	16171.05	15360.95
812.5351	428.4399	15869.2	15056.2
812.6788	430.6166	15486.45	14670
812.8226	432.7928	15117.15	14304.3
812.9663	434.9683	14828.9	14014
813.1101	437.1432	14571.35	13754.65
813.2539	439.3176	14409.8	13589.5
813.3977	441.4914	14312.8	13493.1
813.5415	443.6645	14286.35	13467.15
813.6853	445.8371	14186.05	13366.85
813.8291	448.0091	14093	13275.45
813.973	450.1806	14078.75	13258.35
814.1168	452.3514	13999.5	13177.95
814.2607	454.5216	13973.55	13141.4
814.4046	456.6913	13903.55	13080.1
814.5485	458.8603	13877	13055.35
814.6924	461.0288	13917.1	13095.4
814.8363	463.1967	13953.25	13131.75
814.9802	465.3639	14110.95	13286.45
815.1241	467.5306	14201.1	13379.95
815.2681	469.6967	14359.4	13533
815.412	471.8622	14523	13697.9
815.556	474.0271	14640.9	13816.2
815.7	476.1914	14700.75	13875
815.844	478.3551	14697.5	13874.8
815.988	480.5182	14623.75	13797.25
816.132	482.6807	14583.4	13756.55
816.276	484.8426	14668.15	13841.9
816.4201	487.0039	14899.1	14069.55
816.5641	489.1647	15261.15	14433.85
816.7082	491.3248	15672.35	14844.8
816.8522	493.4843	15850.9	15023.25
816.9963	495.6432	15849.25	15021.2
817.1404	497.8015	15749.05	14918.05
817.2845	499.9592	15748.9	14919.85
817.4286	502.1163	15742.55	14911.65
817.5727	504.2728	15510.25	14676.65
817.7168	506.4287	15229	14396.7
817.861	508.5839	14773	13938.2
818.0051	510.7386	14462.7	13628.85
818.1493	512.8927	14245.95	13402.5
818.2935	515.0461	14074.35	13242.6
818.4377	517.199	13993	13162.45
818.5818	519.3512	13922.45	13086.45
818.726	521.5029	13947.05	13106.2
818.8703	523.6539	13931.95	13097.4
819.0145	525.8043	13962.5	13127.3
819.1587	527.9541	13982.5	13146.35
819.303	530.1033	13970.7	13131.95
819.4472	532.2519	14053.2	13216.3
819.5915	534.3999	14194.5	13355.15
819.7357	536.5472	14510.25	13672.7
819.88	538.694	14973.45	14133.55
820.0243	540.8401	15584.75	14746.55
820.1686	542.9856	16099.15	15257.6
820.3129	545.1305	16261.75	15420.4
820.4572	547.2748	16104.8	15264.2
820.6016	549.4185	15675.5	14833
820.7459	551.5615	15278.3	14437.55
820.8902	553.704	15097.25	14255.25
821.0346	555.8458	14986	14143.2
821.1789	557.987	14925.05	14083.25
821.3233	560.1276	14829	13987.4
821.4677	562.2675	14745.65	13907.15
821.6121	564.4069	14651.95	13812.95
821.7565	566.5456	14532.15	13692.6
821.9009	568.6837	14409.2	13568.7
822.0453	570.8212	14167	13329.25
822.1897	572.958	13921.15	13076.8
822.3342	575.0942	13726.05	12884.6
822.4786	577.2299	13590.95	12747.3
822.6231	579.3648	13599.6	12755.55
822.7675	581.4992	13708.25	12863.95
822.912	583.6329	13889.6	13044.85
823.0565	585.766	14112.6	13270.55
823.201	587.8985	14233.9	13391.65
823.3454	590.0304	14215.9	13360.45
823.4899	592.1616	14158.9	13307.15
823.6345	594.2922	14042.3	13194.25
823.779	596.4222	13876.9	13029.6
823.9235	598.5515	13733.75	12886.2
824.068	600.6802	13571	12726.5
824.2126	602.8083	13380.85	12534
824.3571	604.9358	13308	12457.85
824.5017	607.0626	13212.35	12367.4
824.6462	609.1888	13123.9	12276.35
824.7908	611.3144	13018.8	12169.9
824.9354	613.4393	12849.85	11999.2
825.08	615.5636	12726.85	11879.25
825.2246	617.6873	12596.15	11749.2
825.3692	619.8103	12547.6	11698.1
825.5138	621.9327	12443.85	11589
825.6584	624.0544	12423.3	11572.2
825.803	626.1756	12426.85	11575.75
825.9477	628.2961	12417.8	11569.6
826.0923	630.4159	12324.4	11472.8
826.237	632.5351	12285.05	11437.1
826.3816	634.6537	12203.55	11354.55
826.5263	636.7716	12158.4	11305.2
826.6709	638.8889	12161.5	11310.3
826.8156	641.0056	12186.75	11335.3
826.9603	643.1216	12184.5	11330.2
827.105	645.237	12196.9	11342.05
827.2497	647.3518	12200.05	11345.75
827.3944	649.4659	12177.35	11325.3
827.5391	651.5793	12198.3	11342.55
827.6838	653.6922	12158.55	11303.7
827.8285	655.8043	12121.75	11266.8
827.9733	657.9159	12088.8	11232.35
828.118	660.0268	12016.95	11161.85
828.2627	662.137	11927.7	11072.65
828.4075	664.2466	11887	11028.1
828.5522	666.3556	11857.8	11005.1
828.697	668.4639	11844.7	10985.4
828.8418	670.5716	11880.5	11024.45
828.9865	672.6786	11933.55	11076
829.1313	674.785	12003.6	11144.85
829.2761	676.8907	12081.2	11226.15
829.4209	678.9958	12169.25	11309.65
829.5657	681.1002	12127.1	11269.1
829.7105	683.204	12065.6	11204
829.8553	685.3072	12019.9	11160.75
830.0001	687.4097	11929.8	11071.25
830.1449	689.5115	11854.15	10993
830.2898	691.6127	11802.35	10945
830.4346	693.7132	11697.45	10838.15
830.5794	695.8131	11644.85	10764.3
830.7243	697.9123	11578.95	10720.15
830.8691	700.0109	11553.6	10691.6
831.014	702.1089	11514.7	10652.55
831.1588	704.2061	11472.05	10611.6
831.3037	706.3028	11496.1	10632.75
831.4486	708.3987	11555.4	10695.15
831.5935	710.4941	11632.05	10773.95
831.7383	712.5887	11813.9	10953.75
831.8832	714.6827	12123.35	11257.7
832.0281	716.7761	12476.5	11614.45
832.173	718.8688	12827.85	11965.35
832.3179	720.9608	12998.8	12133.2
832.4628	723.0522	13011.45	12147.65
832.6077	725.1429	12761.1	11898.9
832.7527	727.233	12412.7	11548
832.8976	729.3224	12084.85	11221.7
833.0425	731.4112	11775.7	10912.1
833.1874	733.4993	11569.05	10702.75
833.3324	735.5867	11387.95	10527
833.4773	737.6735	11327.7	10464.55
833.6222	739.7596	11254	10389.15
833.7672	741.845	11244.85	10382.3
833.9122	743.9298	11239.2	10369.7
834.0571	746.014	11221.65	10360.8
834.2021	748.0974	11214.85	10350.8
834.347	750.1802	11193.2	10329.15
834.492	752.2624	11203.05	10336.85
834.637	754.3439	11204.9	10338
834.782	756.4247	11258.85	10384.1
834.9269	758.5048	11333.45	10469.25
835.0719	760.5843	11512.55	10648.45
835.2169	762.6631	11761.05	10894.65
835.3619	764.7413	12134.4	11270.25
835.5069	766.8188	12686.2	11820.4
835.6519	768.8956	13080.25	12212.6
835.7969	770.9718	13345.05	12477.95
835.9419	773.0473	13196.05	12331
836.0869	775.1221	12908.15	12041.6
836.232	777.1962	12506.4	11640.2
836.377	779.2697	12317.7	11451.15
836.522	781.3426	12390.7	11505.1
836.667	783.4147	12663.75	11797.9
836.8121	785.4862	12985.9	12116.8
836.9571	787.557	12997	12128.8
837.1021	789.6271	12618.25	11749.3
837.2472	791.6966	12067.55	11197.6
837.3922	793.7654	11584.1	10715.45
837.5373	795.8335	11267.65	10398.25
837.6823	797.901	11125.2	10259.3
837.8274	799.9678	11046.1	10176
837.9724	802.0339	11063.65	10194.75
838.1175	804.0993	11133.15	10254.35
838.2626	806.1641	11068.2	10198.85
838.4076	808.2282	11022.75	10156
838.5527	810.2916	10928.9	10056.25
838.6978	812.3544	10828.3	9959.05
838.8428	814.4164	10722.2	9853.6
838.9879	816.4778	10692.2	9822.15
839.133	818.5385	10669.4	9802.4
839.2781	820.5986	10729.05	9859.6
839.4232	822.658	10752.7	9882.45
839.5682	824.7166	10794.3	9927.7
839.7133	826.7747	10923.15	10053.7
839.8584	828.832	11033.05	10164.05
840.0035	830.8886	11143.55	10269.8
840.1486	832.9446	11249.65	10377.15
840.2937	834.9999	11314	10444.6
840.4388	837.0545	11372.7	10497.65
840.5839	839.1085	11447.4	10576.95
840.729	841.1618	11410.05	10538
840.8741	843.2143	11398.7	10525.15
841.0192	845.2662	11326.95	10456.3
841.1643	847.3175	11223.5	10355.3
841.3095	849.368	11113.55	10242.25
841.4546	851.4179	11001.15	10131.65
841.5997	853.467	10841.7	9968.35
841.7448	855.5155	10756.5	9886
841.8899	857.5633	10608.15	9737.15
842.0351	859.6105	10517.55	9646.65
842.1802	861.6569	10445.5	9574.25
842.3253	863.7027	10379.2	9507.55
842.4704	865.7478	10349.35	9475.95
842.6156	867.7922	10351.85	9482.95
842.7607	869.8359	10385.05	9509.95
842.9058	871.8789	10487.75	9613.95
843.0509	873.9212	10682.3	9775.85
843.1961	875.9629	10811.2	9940.3
843.3412	878.0039	10996.75	10125.3
843.4863	880.0441	11040.55	10167.95
843.6315	882.0837	11038.7	10166.9
843.7766	884.1226	10915.15	10039.5
843.9218	886.1609	10772	9901.75
844.0669	888.1984	10644.3	9771.9
844.212	890.2352	10580.6	9707.1
844.3572	892.2714	10524.95	9648.25
844.5023	894.3069	10482.3	9606.4
844.6475	896.3416	10417	9542.2
844.7926	898.3757	10375.45	9500.75
844.9377	900.4091	10379.35	9505
845.0829	902.4418	10388.05	9510.2
845.228	904.4739	10380.95	9505.75
845.3732	906.5052	10355.35	9478.45
845.5183	908.5358	10238.1	9365.35
845.6635	910.5658	10093.05	9214.25
845.8086	912.595	9911.45	9037.05
845.9538	914.6236	9806.6	8931.35
846.0989	916.6515	9750.75	8876.3
846.2441	918.6786	9753.15	8875.7
846.3892	920.7051	9817.85	8941
846.5344	922.7309	9909.55	9033.75
846.6795	924.756	9983.5	9109.1
846.8246	926.7804	10066.1	9188.6
846.9698	928.8041	10003.95	9128.05
847.1149	930.8272	10006.95	9131.1
847.2601	932.8495	9956.65	9079.65
847.4052	934.8711	9866.6	8988.8
847.5504	936.892	9705.35	8829.2
847.6955	938.9123	9553.65	8678.2
847.8407	940.9318	9394.4	8519.15
847.9858	942.9506	9296.35	8419.75
848.131	944.9688	9178.1	8303.4
848.2761	946.9862	9150.2	8275.95
848.4213	949.003	9115.05	8240.05
848.5664	951.019	9111.75	8237.9
848.7115	953.0344	9107.7	8230.9
848.8567	955.0491	9129.65	8252.65
849.0018	957.063	9230.9	8355.05
849.147	959.0763	9296.3	8421.35
849.2921	961.0888	9337.9	8458
849.4373	963.1007	9421.05	8543.7
849.5824	965.1119	9446.8	8570.55
849.7275	967.1223	9460.65	8582
849.8727	969.1321	9461.45	8586.4
850.0178	971.1412	9498.85	8621.6
850.1629	973.1495	9524.9	8648.6
850.3081	975.1572	9581.65	8672.05
850.4532	977.1641	9545.4	8668.9
850.5983	979.1704	9531.6	8654.75
850.7435	981.1759	9533	8652.95
850.8886	983.1808	9579.25	8702
851.0337	985.1849	9671.7	8782.35
851.1788	987.1884	9829.85	8948.25
851.324	989.1911	10011.5	9131.8
851.4691	991.1932	10121.2	9239.9
851.6142	993.1945	10167.65	9289.95
851.7593	995.1951	10122.55	9244.85
851.9045	997.1951	10070.6	9187.85
852.0496	999.1943	10004.2	9126.5
852.1947	1001.1928	9936.7	9057.4
852.3398	1003.1906	9920.75	9044.9
852.4849	1005.1877	9950.05	9069.45
852.63	1007.1841	9891.45	9012.2
852.7751	1009.1798	9810.5	8931.75
852.9202	1011.1748	9598.95	8720.4
853.0653	1013.1691	9419.8	8540.9
853.2104	1015.1627	9213.2	8334.45
853.3555	1017.1556	9031.95	8151.75
853.5006	1019.1477	8947.25	8069.7
853.6457	1021.1392	8883.95	8008.65
853.7908	1023.1299	8875.35	7995.75
853.9359	1025.12	8891.4	8011
854.081	1027.1093	8926.85	8048.35
854.2261	1029.0979	9014.4	8137.7
854.3712	1031.0859	9087.45	8210.15
854.5163	1033.0731	9044.9	8164.25
854.6613	1035.0596	8973.25	8095.4
854.8064	1037.0454	8826.95	7946.4
854.9515	1039.0304	8719.75	7842.3
855.0965	1041.0148	8569.25	7690.4
855.2416	1042.9985	8502.4	7624.3
855.3867	1044.9814	8449.7	7571.95
855.5317	1046.9636	8403.6	7521.7
855.6768	1048.9452	8372.45	7495.4
855.8219	1050.926	8350.25	7472.15
855.9669	1052.9061	8364.7	7485.4
856.112	1054.8855	8340.7	7461.35
856.257	1056.8642	8353.5	7473.4
856.4021	1058.8421	8401.8	7522.35
856.5471	1060.8194	8440.8	7563.45
856.6921	1062.7959	8468.05	7589.05
856.8372	1064.7717	8453.3	7573.25
856.9822	1066.7469	8460.6	7580.85
857.1272	1068.7213	8425.75	7543.85
857.2723	1070.695	8395.4	7519.85
857.4173	1072.6679	8305.9	7426.6
857.5623	1074.6402	8277.65	7398.15
857.7073	1076.6117	8273.6	7388.5
857.8523	1078.5826	8267.85	7388.2
857.9973	1080.5527	8342.75	7462.5
858.1423	1082.5221	8442.55	7562.2
858.2873	1084.4908	8643.85	7763.35
858.4323	1086.4587	8842.95	7962.65
858.5773	1088.426	8976	8096.2
858.7223	1090.3925	8960.7	8077.1
858.8673	1092.3584	8894.15	8013.8
859.0123	1094.3235	8746.65	7868.25
859.1573	1096.2879	8613.25	7731.65
859.3022	1098.2515	8596.15	7716.3
859.4472	1100.2145	8627.3	7746.5
859.5922	1102.1767	8700.05	7818.4
859.7371	1104.1382	8822.1	7944.25
859.8821	1106.099	8987.2	8105.05
860.027	1108.0591	9183.9	8304.6
860.172	1110.0185	9334.8	8454.1
860.3169	1111.9771	9325.55	8444
860.4619	1113.9351	9100.85	8220.25
860.6068	1115.8923	8775.55	7895.9
860.7517	1117.8488	8458.9	7576.05
860.8967	1119.8045	8193.2	7315.6
861.0416	1121.7596	8054.15	7173.7
861.1865	1123.7139	8002.6	7123.75
861.3314	1125.6675	8001.65	7121.3
861.4763	1127.6204	8071.55	7191.25
861.6212	1129.5726	8066.4	7185.9
861.7661	1131.524	8082.4	7202.3
861.911	1133.4748	8113.5	7231.45
862.0559	1135.4248	8158.45	7278.6
862.2008	1137.3741	8171.15	7289.95
862.3457	1139.3226	8126	7244.95
862.4905	1141.2705	8071.75	7191.65
862.6354	1143.2176	8003.8	7118.65
862.7803	1145.164	8049.3	7168.5
862.9251	1147.1097	8045.7	7165.8
863.07	1149.0546	8010.05	7128.6
863.2148	1150.9989	7912.7	7030.5
863.3597	1152.9424	7735.7	6853.5
863.5045	1154.8852	7579.35	6698.5
863.6493	1156.8272	7453.5	6574.05
863.7942	1158.7686	7404.65	6516.7
863.939	1160.7092	7357.75	6474.75
864.0838	1162.6491	7342.05	6457.3
864.2286	1164.5883	7398.8	6516.95
864.3734	1166.5267	7480.95	6597.3
864.5182	1168.4644	7604.05	6723.05
864.663	1170.4014	7787.35	6900.55
864.8078	1172.3377	7981.35	7100.65
864.9526	1174.2732	8161.95	7284.4
865.0974	1176.2081	8341.55	7458.6
865.2421	1178.1421	8531.9	7646.7
865.3869	1180.0755	8675.3	7797.15
865.5317	1182.0082	8673.5	7794.2
865.6764	1183.9401	8628.7	7745.9
865.8212	1185.8713	8428.4	7546.05
865.9659	1187.8017	8219.55	7339.15
866.1106	1189.7315	7986.6	7107.2
866.2554	1191.6605	7733.9	6823
866.4001	1193.5888	7560.65	6678.9
866.5448	1195.5163	7445.95	6564.4
866.6895	1197.4432	7356.05	6473.75
866.8342	1199.3693	7298.9	6417.85
