Software Version:	3.9.2.0
Unit SN:	10000200
Spectrometer SN:	6960
Date:	3/14/2024 2:06:14 PM
Data Line Index:	25
Spectral Points:	2048
Integration time (ms):	125
Averages:	20
Delay (ms):	30000
Sequence Number:	1
Processing:	dark subtract
Laser Power (mW):	305
Laser Current (mA):	824
Laser Diode Temp (C):	25.1
Laser Case Temp (C):	29
System Temp (C):	29
Spectrometer Temp (C):	26.8
CCD Temp (C):	0.009
Secondary Temp (C):	20.008
Heatsink Temp (C):	24.843
CCDPCB Temp (C):	38.341
SecondaryPCB Temp (C):	35.929

Wavelength	RamanShift	Raw Counts	Dark Subtracted
787.061	30.1047	445.5	33.6
787.2016	32.3739	449.4	37.9
787.3422	34.6426	450.35	39.15
787.4828	36.9109	454.55	43.25
787.6235	39.1787	463.6	46.35
787.7642	41.4461	471.4	52.2
787.9049	43.7131	478.8	56
788.0456	45.9796	483.6	57.65
788.1863	48.2456	494.15	60.9
788.3271	50.5112	503.95	67.4
788.4679	52.7764	508.95	72.55
788.6087	55.0411	517.05	77.2
788.7496	57.3054	528.45	82
788.8904	59.5692	535	87.45
789.0313	61.8326	545.75	93.25
789.1722	64.0955	555.7	99.05
789.3132	66.3579	571.65	108.8
789.4541	68.6199	582.45	117.85
789.5951	70.8815	611.4	144.1
789.7361	73.1426	665.65	194.25
789.8771	75.4032	808.85	332.4
790.0181	77.6634	1159.3	676.65
790.1592	79.9231	1996.6	1507.7
790.3003	82.1824	3811.4	3314.5
790.4414	84.4412	7131.9	6616.3
790.5825	86.6995	11878.8	11341.5
790.7237	88.9574	16676.9	16116.7
790.8648	91.2148	20138.1	19565.95
791.006	93.4717	21846.05	21262.15
791.1472	95.7282	22360.9	21773.6
791.2885	97.9842	22428.75	21839.6
791.4297	100.2398	22059.65	21465.9
791.571	102.4949	21605.4	21009.1
791.7123	104.7495	21069.5	20471
791.8536	107.0036	20456.65	19855.85
791.9949	109.2573	19838.65	19237.8
792.1363	111.5105	19222.1	18621.4
792.2777	113.7632	18611.15	18007.6
792.4191	116.0154	18101.2	17485.05
792.5605	118.2672	17695.6	17089.15
792.7019	120.5185	17311.5	16704.75
792.8434	122.7693	16969.6	16358.05
792.9849	125.0197	16720.15	16104.85
793.1264	127.2696	16503	15889.65
793.2679	129.519	16386.35	15767.65
793.4094	131.7679	16259.5	15639.15
793.551	134.0163	16147.85	15523.25
793.6926	136.2642	16051.65	15418.85
793.8342	138.5117	15947.5	15305.4
793.9758	140.7587	15774.4	15141.7
794.1175	143.0052	15638.65	15003.3
794.2591	145.2512	15536.65	14900.95
794.4008	147.4967	15340.95	14701.5
794.5425	149.7417	15241.55	14604.45
794.6842	151.9863	15144.95	14505.8
794.826	154.2304	15105.85	14458.6
794.9677	156.4739	14996.15	14348.35
795.1095	158.717	14924.6	14276.35
795.2513	160.9596	14806.65	14151.5
795.3931	163.2017	14592.25	13936.45
795.535	165.4433	14359.9	13700.15
795.6768	167.6844	14109	13448.85
795.8187	169.925	13891.75	13226.35
795.9606	172.1651	13559.7	12891.25
796.1025	174.4047	13303.25	12635.45
796.2445	176.6439	13109.05	12437.05
796.3864	178.8825	12903.6	12232.5
796.5284	181.1206	12742.3	12063.7
796.6704	183.3582	12612.95	11930.4
796.8124	185.5954	12517.95	11834.05
796.9544	187.832	12419.45	11733.65
797.0965	190.0681	12401.9	11717.75
797.2386	192.3037	12360.4	11670.1
797.3806	194.5388	12324.9	11633.45
797.5228	196.7734	12376.6	11681.25
797.6649	199.0075	12425.3	11721.55
797.807	201.2411	12506.6	11803.75
797.9492	203.4742	12539.05	11834.7
798.0914	205.7068	12634.25	11929.95
798.2336	207.9389	12688.25	11984.4
798.3758	210.1704	12802.45	12096.85
798.518	212.4015	12887.85	12175.7
798.6603	214.632	13017.25	12306.8
798.8025	216.862	13157.55	12453.15
798.9448	219.0915	13288.55	12591.6
799.0871	221.3205	13481.1	12789.15
799.2294	223.549	13696.7	13011.55
799.3718	225.777	13955.5	13266.85
799.5141	228.0044	14338.2	13644.95
799.6565	230.2314	14739.7	14052.15
799.7989	232.4578	15134	14444.7
799.9413	234.6837	15429	14729.8
800.0837	236.909	15634	14936.35
800.2262	239.1339	15575.45	14854.6
800.3687	241.3582	15348.3	14641.35
800.5111	243.582	15017.15	14281.3
800.6536	245.8053	14691.05	13965.7
800.7961	248.0281	14320.95	13601.15
800.9387	250.2503	14078.6	13351.55
801.0812	252.472	13902.7	13173.35
801.2238	254.6932	13811.4	13077.8
801.3664	256.9139	13674.25	12938.5
801.509	259.134	13619.8	12883.6
801.6516	261.3536	13521.2	12785.3
801.7942	263.5727	13470.25	12735.75
801.9369	265.7912	13372.7	12635
802.0795	268.0092	13304.85	12569
802.2222	270.2267	13247.45	12510.1
802.3649	272.4436	13161.6	12418.75
802.5076	274.6601	13126	12375.25
802.6504	276.8759	13061.75	12318.75
802.7931	279.0913	13084.55	12340.35
802.9359	281.3061	13084.35	12337.7
803.0787	283.5204	13175.15	12426.35
803.2215	285.7341	13278.6	12529.2
803.3643	287.9473	13410.65	12647.8
803.5071	290.16	13629	12872.8
803.6499	292.3721	13886.4	13131.65
803.7928	294.5837	14264.8	13513.05
803.9357	296.7947	14566.7	13813.1
804.0786	299.0052	14731.9	13977.05
804.2215	301.2152	14572.7	13816.4
804.3644	303.4246	14246.4	13492.45
804.5074	305.6334	13787.55	13033.9
804.6503	307.8418	13296.6	12539.45
804.7933	310.0495	12981.2	12224
804.9363	312.2568	12769.6	12010.4
805.0793	314.4635	12594.35	11835.75
805.2223	316.6696	12546.65	11788.4
805.3653	318.8752	12569.7	11802
805.5084	321.0802	12615.7	11852.7
805.6514	323.2847	12702.45	11939.5
805.7945	325.4887	12742.05	11978.3
805.9376	327.692	12688.95	11925.75
806.0807	329.8949	12586.85	11820.85
806.2238	332.0972	12335.7	11568.35
806.367	334.2989	12097.25	11325
806.5101	336.5001	11891.2	11120.4
806.6533	338.7007	11712.1	10943.3
806.7965	340.9008	11612.25	10841.5
806.9397	343.1003	11508.45	10733.75
807.0829	345.2992	11479.8	10703.45
807.2261	347.4976	11434.3	10658.9
807.3693	349.6955	11464.65	10683.55
807.5126	351.8927	11516.65	10738.65
807.6559	354.0895	11493.75	10700.3
807.7991	356.2856	11534.85	10753.8
807.9424	358.4812	11520.2	10739.35
808.0857	360.6763	11535.1	10752
808.2291	362.8707	11477.05	10692.35
808.3724	365.0646	11492.95	10709.4
808.5158	367.258	11493.55	10707.05
808.6591	369.4508	11477.25	10686.35
808.8025	371.643	11518.95	10727
808.9459	373.8346	11511	10717.8
809.0893	376.0257	11448.1	10653.4
809.2327	378.2162	11370.65	10577.3
809.3762	380.4062	11269.95	10470.95
809.5196	382.5956	11141.2	10342.2
809.6631	384.7844	11044.5	10247.15
809.8066	386.9726	10989.35	10188.65
809.9501	389.1603	10940.4	10143
810.0936	391.3474	10925.1	10094.8
810.2371	393.5339	10876.1	10077.7
810.3806	395.7199	10823.85	10031.45
810.5241	397.9052	10840	10049
810.6677	400.09	10829.2	10040.85
810.8113	402.2743	10836.4	10042.4
810.9548	404.4579	10870.3	10080.6
811.0984	406.641	11006.7	10215.9
811.2421	408.8235	11163.7	10373.1
811.3857	411.0054	11466.25	10670.35
811.5293	413.1868	11847	11052.3
811.673	415.3675	12129.25	11330.9
811.8166	417.5477	12319.75	11522.55
811.9603	419.7273	12327.3	11525
812.104	421.9064	12210.95	11404.75
812.2477	424.0848	12063	11261.75
812.3914	426.2627	11885.45	11082.3
812.5351	428.4399	11649.9	10843.25
812.6788	430.6166	11353.3	10541.75
812.8226	432.7928	11055.9	10245.3
812.9663	434.9683	10788.8	9977.6
813.1101	437.1432	10635.8	9822.3
813.2539	439.3176	10489.4	9673.7
813.3977	441.4914	10410.35	9596.75
813.5415	443.6645	10393.25	9575.8
813.6853	445.8371	10324.3	9508
813.8291	448.0091	10272.8	9457.6
813.973	450.1806	10242.95	9428.15
814.1168	452.3514	10179.15	9360.4
814.2607	454.5216	10162.1	9333.7
814.4046	456.6913	10079.45	9258.1
814.5485	458.8603	10095.7	9275.95
814.6924	461.0288	10145.2	9329.5
814.8363	463.1967	10164.5	9347
814.9802	465.3639	10251.75	9433.05
815.1241	467.5306	10369.3	9547.95
815.2681	469.6967	10501.1	9681
815.412	471.8622	10632.95	9812.25
815.556	474.0271	10771.2	9948.7
815.7	476.1914	10817.85	9994.8
815.844	478.3551	10759.1	9935.8
815.988	480.5182	10711.75	9890.9
816.132	482.6807	10674.45	9851.1
816.276	484.8426	10736.5	9913.2
816.4201	487.0039	10920.7	10099.15
816.5641	489.1647	11227.4	10401.05
816.7082	491.3248	11558.25	10735.5
816.8522	493.4843	11737.1	10910.5
816.9963	495.6432	11713.9	10888.6
817.1404	497.8015	11649.25	10821.5
817.2845	499.9592	11676.3	10849.75
817.4286	502.1163	11624.75	10798.85
817.5727	504.2728	11488.1	10659
817.7168	506.4287	11221.35	10392.25
817.861	508.5839	10864.55	10034.9
818.0051	510.7386	10605.2	9778.1
818.1493	512.8927	10411.45	9574.95
818.2935	515.0461	10292.3	9463.65
818.4377	517.199	10191.2	9361.7
818.5818	519.3512	10130.7	9300.2
818.726	521.5029	10129.95	9295.85
818.8703	523.6539	10118.2	9288.15
819.0145	525.8043	10131.1	9298.3
819.1587	527.9541	10184.65	9349.8
819.303	530.1033	10194.95	9361.25
819.4472	532.2519	10255.85	9422.3
819.5915	534.3999	10395.35	9561
819.7357	536.5472	10611.45	9777.55
819.88	538.694	11035.8	10199.8
820.0243	540.8401	11548.15	10711.45
820.1686	542.9856	11993.6	11156.75
820.3129	545.1305	12135.25	11297.55
820.4572	547.2748	11970.7	11133.15
820.6016	549.4185	11607	10767.65
820.7459	551.5615	11296.8	10456.8
820.8902	553.704	11160.3	10321.35
821.0346	555.8458	11042.7	10203.6
821.1789	557.987	11022.3	10185.1
821.3233	560.1276	10901.7	10062
821.4677	562.2675	10808	9971.3
821.6121	564.4069	10696.65	9861.35
821.7565	566.5456	10550.9	9716.05
821.9009	568.6837	10429.7	9591.45
822.0453	570.8212	10275.8	9441.35
822.1897	572.958	10110.7	9271.2
822.3342	575.0942	9963.6	9127.65
822.4786	577.2299	9907.4	9068.25
822.6231	579.3648	9911.4	9074.05
822.7675	581.4992	9983.5	9145.85
822.912	583.6329	10158.4	9319.25
823.0565	585.766	10355.05	9515.75
823.201	587.8985	10436.2	9596.25
823.3454	590.0304	10418.2	9568.15
823.4899	592.1616	10347.8	9507.5
823.6345	594.2922	10301.3	9458.65
823.779	596.4222	10188.65	9348.8
823.9235	598.5515	10057.55	9213.05
824.068	600.6802	9921.45	9080.8
824.2126	602.8083	9764.5	8922.1
824.3571	604.9358	9719.3	8875.6
824.5017	607.0626	9627.4	8781.5
824.6462	609.1888	9560.6	8715.2
824.7908	611.3144	9442.85	8601.7
824.9354	613.4393	9317.1	8473.25
825.08	615.5636	9198.35	8354.3
825.2246	617.6873	9094.4	8248.75
825.3692	619.8103	9043.7	8193.55
825.5138	621.9327	8988.4	8140.9
825.6584	624.0544	8975.3	8130.35
825.803	626.1756	8987.3	8142.85
825.9477	628.2961	8955.1	8106.95
826.0923	630.4159	8908.3	8062.5
826.237	632.5351	8894.65	8047.95
826.3816	634.6537	8818.95	7969.15
826.5263	636.7716	8787.75	7937.3
826.6709	638.8889	8792.9	7945.6
826.8156	641.0056	8784	7933.4
826.9603	643.1216	8773	7921.9
827.105	645.237	8783.8	7934.3
827.2497	647.3518	8779.15	7929.75
827.3944	649.4659	8792.35	7942.05
827.5391	651.5793	8800.65	7946.6
827.6838	653.6922	8796.15	7947
827.8285	655.8043	8753.2	7902.6
827.9733	657.9159	8748.9	7897.85
828.118	660.0268	8691.75	7837.1
828.2627	662.137	8611.25	7758.15
828.4075	664.2466	8572.55	7719.95
828.5522	666.3556	8519.3	7668.7
828.697	668.4639	8537.55	7682.65
828.8418	670.5716	8595.05	7742.05
828.9865	672.6786	8636	7782.8
829.1313	674.785	8719.4	7863.7
829.2761	676.8907	8782.6	7928.5
829.4209	678.9958	8822.75	7969.6
829.5657	681.1002	8812.2	7957.9
829.7105	683.204	8770.15	7912.8
829.8553	685.3072	8677.55	7820
830.0001	687.4097	8630.1	7774.35
830.1449	689.5115	8575.5	7717.1
830.2898	691.6127	8498.45	7642.5
830.4346	693.7132	8449.85	7592.5
830.5794	695.8131	8410.1	7531.1
830.7243	697.9123	8358.05	7501.3
830.8691	700.0109	8309.85	7452.55
831.014	702.1089	8290.25	7434.25
831.1588	704.2061	8276.95	7420.05
831.3037	706.3028	8309.25	7451.5
831.4486	708.3987	8347.6	7490.8
831.5935	710.4941	8408.75	7550.2
831.7383	712.5887	8556.2	7697.7
831.8832	714.6827	8806	7945.3
832.0281	716.7761	9105	8247.95
832.173	718.8688	9400.05	8542.35
832.3179	720.9608	9532	8668.1
832.4628	723.0522	9529.35	8665.25
832.6077	725.1429	9326.35	8467.35
832.7527	727.233	9009.5	8149.95
832.8976	729.3224	8729.35	7869.1
833.0425	731.4112	8487.35	7626.6
833.1874	733.4993	8321.4	7457.95
833.3324	735.5867	8214.65	7352.75
833.4773	737.6735	8140.1	7274.1
833.6222	739.7596	8117.1	7256.1
833.7672	741.845	8106.65	7243.15
833.9122	743.9298	8090.8	7227.65
834.0571	746.014	8067.8	7206.85
834.2021	748.0974	8093.65	7229.7
834.347	750.1802	8066.1	7201.85
834.492	752.2624	8059.5	7198.95
834.637	754.3439	8077.2	7213.65
834.782	756.4247	8116.4	7242
834.9269	758.5048	8170.45	7307.05
835.0719	760.5843	8278.15	7412.35
835.2169	762.6631	8503.6	7640.55
835.3619	764.7413	8804.9	7944.6
835.5069	766.8188	9237.5	8371.35
835.6519	768.8956	9581.85	8717
835.7969	770.9718	9806.5	8945.25
835.9419	773.0473	9703.8	8837.6
836.0869	775.1221	9434.45	8568
836.232	777.1962	9135.95	8271.05
836.377	779.2697	8967.1	8099.3
836.522	781.3426	9045.9	8165.35
836.667	783.4147	9269.65	8405.95
836.8121	785.4862	9551	8689.15
836.9571	787.557	9543.45	8677.85
837.1021	789.6271	9241.9	8376.5
837.2472	791.6966	8804.2	7940.9
837.3922	793.7654	8391.5	7524.5
837.5373	795.8335	8164.6	7301.15
837.6823	797.901	8028.05	7163.85
837.8274	799.9678	7986.65	7120.4
837.9724	802.0339	8003.45	7139.55
838.1175	804.0993	8040.5	7163.9
838.2626	806.1641	8016.05	7149.55
838.4076	808.2282	7978.65	7112.95
838.5527	810.2916	7894.35	7024.85
838.6978	812.3544	7810.95	6946.6
838.8428	814.4164	7722.3	6859.4
838.9879	816.4778	7709.25	6842.2
839.133	818.5385	7698.25	6834
839.2781	820.5986	7723.75	6859.1
839.4232	822.658	7746.55	6880.25
839.5682	824.7166	7758.1	6893.65
839.7133	826.7747	7861.6	6996.75
839.8584	828.832	7930.35	7063.8
840.0035	830.8886	8005.1	7135.15
840.1486	832.9446	8114.15	7245.55
840.2937	834.9999	8200.1	7333.75
840.4388	837.0545	8263.7	7392.1
840.5839	839.1085	8308.15	7440.75
840.729	841.1618	8299	7426.8
840.8741	843.2143	8286.75	7419.15
841.0192	845.2662	8239.85	7372.8
841.1643	847.3175	8185.25	7317.7
841.3095	849.368	8092.45	7226.5
841.4546	851.4179	8008.6	7140.75
841.5997	853.467	7885.05	7017.7
841.7448	855.5155	7802.45	6933.4
841.8899	857.5633	7704.5	6836.35
842.0351	859.6105	7602.55	6735.1
842.1802	861.6569	7561.75	6692.9
842.3253	863.7027	7501.35	6631.6
842.4704	865.7478	7489.5	6620.25
842.6156	867.7922	7485.9	6615.75
842.7607	869.8359	7511.45	6640.55
842.9058	871.8789	7624.5	6755
843.0509	873.9212	7769.5	6863.8
843.1961	875.9629	7870.45	7000.85
843.3412	878.0039	8015.05	7143.25
843.4863	880.0441	8066.65	7196.45
843.6315	882.0837	8076	7205.1
843.7766	884.1226	7951.55	7076.1
843.9218	886.1609	7839.8	6970.85
844.0669	888.1984	7720.55	6850.7
844.212	890.2352	7654.5	6784.55
844.3572	892.2714	7604.85	6730.55
844.5023	894.3069	7581.75	6709.95
844.6475	896.3416	7537.45	6666.8
844.7926	898.3757	7497.1	6626.9
844.9377	900.4091	7482	6611.65
845.0829	902.4418	7537.3	6659.7
845.228	904.4739	7521.55	6647.35
845.3732	906.5052	7474.65	6603.7
845.5183	908.5358	7376	6507.95
845.6635	910.5658	7264.85	6390.95
845.8086	912.595	7151.05	6279.2
845.9538	914.6236	7074.9	6203.3
846.0989	916.6515	7053.35	6183.85
846.2441	918.6786	7032.95	6160.8
846.3892	920.7051	7102.35	6227.4
846.5344	922.7309	7152.35	6283.5
846.6795	924.756	7209.25	6336.65
846.8246	926.7804	7267	6394.2
846.9698	928.8041	7252.4	6379.8
847.1149	930.8272	7275.65	6403.25
847.2601	932.8495	7200.85	6325.2
847.4052	934.8711	7151.6	6278.65
847.5504	936.892	7015.65	6143.75
847.6955	938.9123	6885.05	6011.45
847.8407	940.9318	6758.25	5887.6
847.9858	942.9506	6660	5788.2
848.131	944.9688	6593	5718.6
848.2761	946.9862	6554.65	5682.4
848.4213	949.003	6502.1	5627.4
848.5664	951.019	6506.3	5632.05
848.7115	953.0344	6538.55	5662.45
848.8567	955.0491	6569.4	5694.05
849.0018	957.063	6622.2	5746.3
849.147	959.0763	6701.35	5828.15
849.2921	961.0888	6708.5	5830.9
849.4373	963.1007	6786.3	5911.95
849.5824	965.1119	6821.95	5949.6
849.7275	967.1223	6826.2	5952.85
849.8727	969.1321	6845.95	5971
850.0178	971.1412	6858.35	5985
850.1629	973.1495	6883.8	6010.25
850.3081	975.1572	6940.25	6017.95
850.4532	977.1641	6939.4	6066.2
850.5983	979.1704	6911.1	6036.5
850.7435	981.1759	6896.05	6016.1
850.8886	983.1808	6952.8	6080.4
851.0337	985.1849	7048.05	6161.8
851.1788	987.1884	7163.95	6287.85
851.324	989.1911	7314.75	6436.4
851.4691	991.1932	7421.1	6542.25
851.6142	993.1945	7450.75	6577.05
851.7593	995.1951	7427.85	6551.1
851.9045	997.1951	7412.95	6532.45
852.0496	999.1943	7352.3	6479.7
852.1947	1001.1928	7282.15	6408.15
852.3398	1003.1906	7250.65	6374.5
852.4849	1005.1877	7279.55	6402
852.63	1007.1841	7254.3	6378.55
852.7751	1009.1798	7187.35	6312.75
852.9202	1011.1748	7017.45	6143.75
853.0653	1013.1691	6858.45	5981.9
853.2104	1015.1627	6683.7	5806.5
853.3555	1017.1556	6548.3	5673.7
853.5006	1019.1477	6494.95	5618.65
853.6457	1021.1392	6441.1	5566.9
853.7908	1023.1299	6452.2	5577
853.9359	1025.12	6479.75	5601.85
854.081	1027.1093	6477.55	5601.6
854.2261	1029.0979	6544.5	5670.7
854.3712	1031.0859	6585	5710.45
854.5163	1033.0731	6589.95	5715.45
854.6613	1035.0596	6508.9	5635.15
854.8064	1037.0454	6407.4	5531.55
854.9515	1039.0304	6300.5	5420.8
855.0965	1041.0148	6209.9	5331.85
855.2416	1042.9985	6155.7	5278
855.3867	1044.9814	6131	5254.3
855.5317	1046.9636	6101.4	5223.15
855.6768	1048.9452	6070.55	5196
855.8219	1050.926	6078.3	5202.45
855.9669	1052.9061	6056.95	5182.85
856.112	1054.8855	6062.8	5186.9
856.257	1056.8642	6055.8	5179.75
856.4021	1058.8421	6105.15	5225.3
856.5471	1060.8194	6126.9	5252.45
856.6921	1062.7959	6135.7	5259.3
856.8372	1064.7717	6137.55	5260.35
856.9822	1066.7469	6124.05	5246
857.1272	1068.7213	6107	5228.3
857.2723	1070.695	6087.05	5210.45
857.4173	1072.6679	6028.4	5147.8
857.5623	1074.6402	5995.45	5120.4
857.7073	1076.6117	5957.4	5075.3
857.8523	1078.5826	5977.1	5099.95
857.9973	1080.5527	6058.5	5179.05
858.1423	1082.5221	6162.45	5285.1
858.2873	1084.4908	6321.45	5445.15
858.4323	1086.4587	6500.9	5619.8
858.5773	1088.426	6613.65	5736.55
858.7223	1090.3925	6616.95	5732.4
858.8673	1092.3584	6530.8	5655.4
859.0123	1094.3235	6405.55	5528.25
859.1573	1096.2879	6325.7	5447.45
859.3022	1098.2515	6286.05	5407.05
859.4472	1100.2145	6301.1	5423.65
859.5922	1102.1767	6341.3	5458.65
859.7371	1104.1382	6444.2	5563.35
859.8821	1106.099	6627.55	5746.6
860.027	1108.0591	6768.85	5891.2
860.172	1110.0185	6848.25	5967.5
860.3169	1111.9771	6843.5	5967.05
860.4619	1113.9351	6680.6	5803.9
860.6068	1115.8923	6418.55	5538.85
860.7517	1117.8488	6147.85	5271.1
860.8967	1119.8045	5933.3	5054.15
861.0416	1121.7596	5835.1	4953.8
861.1865	1123.7139	5754.45	4879.9
861.3314	1125.6675	5783.85	4904.6
861.4763	1127.6204	5842.75	4965.1
861.6212	1129.5726	5856.75	4975.7
861.7661	1131.524	5871.9	4993.6
861.911	1133.4748	5923.5	5045.45
862.0559	1135.4248	5920.8	5041.95
862.2008	1137.3741	5945.45	5070.25
862.3457	1139.3226	5925.85	5045.1
862.4905	1141.2705	5909.75	5033.35
862.6354	1143.2176	5854	4968.95
862.7803	1145.164	5867.5	4986.4
862.9251	1147.1097	5890.5	5011.55
863.07	1149.0546	5892.3	5012.7
863.2148	1150.9989	5795.5	4914.6
863.3597	1152.9424	5658.5	4779.15
863.5045	1154.8852	5510.55	4630.3
863.6493	1156.8272	5409.7	4530.7
863.7942	1158.7686	5360.25	4476.1
863.939	1160.7092	5327.85	4448.05
864.0838	1162.6491	5305.8	4425.15
864.2286	1164.5883	5346.1	4468.8
864.3734	1166.5267	5429	4548.55
864.5182	1168.4644	5541.6	4661.65
864.663	1170.4014	5682.3	4799.45
864.8078	1172.3377	5832.75	4956.6
864.9526	1174.2732	5975.05	5094.85
865.0974	1176.2081	6122.25	5241.55
865.2421	1178.1421	6236.35	5353.65
865.3869	1180.0755	6333.45	5455.5
865.5317	1182.0082	6330.5	5452.2
865.6764	1183.9401	6268.3	5388.2
865.8212	1185.8713	6131.75	5254.85
865.9659	1187.8017	5952.5	5072.8
866.1106	1189.7315	5737.3	4859.8
866.2554	1191.6605	5576.3	4668
866.4001	1193.5888	5409.35	4530.9
866.5448	1195.5163	5323	4442.3
866.6895	1197.4432	5255.8	4375.2
866.8342	1199.3693	5178.05	4299.3
866.9789	1201.2947	5172	4289.3
867.1236	1203.2193	5144.55	4265.3
867.2683	1205.1432	5168.85	4289.5
867.413	1207.0664	5212.65	4333.9
867.5576	1208.9889	5281.35	4399.2
867.7023	1210.9106	5327.2	4446.25
867.847	1212.8316	5374.4	4495.8
867.9916	1214.7519	5456.4	4566.05
868.1363	1216.6715	5467.8	4588.75
868.2809	1218.5903	5450.65	4572.15
868.4255	1220.5084	5408.1	4529.9
