Software Version:	3.9.2.0
Unit SN:	10000200
Spectrometer SN:	6960
Date:	3/14/2024 1:41:49 PM
Data Line Index:	25
Spectral Points:	2048
Integration time (ms):	125
Averages:	20
Delay (ms):	30000
Sequence Number:	1
Processing:	dark subtract
Laser Power (mW):	305
Laser Current (mA):	824
Laser Diode Temp (C):	25.1
Laser Case Temp (C):	28.7
System Temp (C):	28.8
Spectrometer Temp (C):	26.6
CCD Temp (C):	0.016
Secondary Temp (C):	20.01
Heatsink Temp (C):	24.683
CCDPCB Temp (C):	38.208
SecondaryPCB Temp (C):	35.784

Wavelength	RamanShift	Raw Counts	Dark Subtracted
787.061	30.1047	466.8	57.1
787.2016	32.3739	467.5	58.5
787.3422	34.6426	472.25	63.4
787.4828	36.9109	480.2	69.75
787.6235	39.1787	490.05	74.25
787.7642	41.4461	499.55	79.1
787.9049	43.7131	510.85	87.4
788.0456	45.9796	519.8	90.45
788.1863	48.2456	527.3	93.8
788.3271	50.5112	539.85	101.9
788.4679	52.7764	548.75	111.45
788.6087	55.0411	559.3	120.4
788.7496	57.3054	572.25	125.85
788.8904	59.5692	583.45	133.6
789.0313	61.8326	600.25	146.05
789.1722	64.0955	614.75	157.4
789.3132	66.3579	630.8	166.95
789.4541	68.6199	650.75	183.35
789.5951	70.8815	688.65	221.45
789.7361	73.1426	774.1	301.9
789.8771	75.4032	989.05	510
790.0181	77.6634	1528.25	1044.15
790.1592	79.9231	2796.05	2305.65
790.3003	82.1824	5593.4	5094.4
790.4414	84.4412	10746.8	10230.25
790.5825	86.6995	17990.9	17449.05
790.7237	88.9574	25183.55	24620
790.8648	91.2148	30296.75	29718.4
791.006	93.4717	32685	32094.05
791.1472	95.7282	33278.05	32682.55
791.2885	97.9842	33225.45	32627.7
791.4297	100.2398	32621.9	32020.5
791.571	102.4949	31955.65	31354.7
791.7123	104.7495	31162.2	30555.7
791.8536	107.0036	30310.8	29704.85
791.9949	109.2573	29532.75	28925.75
792.1363	111.5105	28780.65	28174.2
792.2777	113.7632	28083.9	27474.15
792.4191	116.0154	27444	26820.45
792.5605	118.2672	27059.75	26444.9
792.7019	120.5185	26623.7	26008.55
792.8434	122.7693	26309.65	25692.8
792.9849	125.0197	26018.65	25395.65
793.1264	127.2696	25694.7	25070.65
793.2679	129.519	25579	24955.8
793.4094	131.7679	25295	24668.15
793.551	134.0163	25104.25	24469.7
793.6926	136.2642	24852.1	24217.35
793.8342	138.5117	24594.25	23947.85
793.9758	140.7587	24269.75	23627.8
794.1175	143.0052	23989.35	23345.55
794.2591	145.2512	23738.4	23095.05
794.4008	147.4967	23445.05	22804.4
794.5425	149.7417	23265.9	22618.65
794.6842	151.9863	23096.2	22448.1
794.826	154.2304	23016.65	22361.65
794.9677	156.4739	22848.25	22190.35
795.1095	158.717	22781.05	22126.95
795.2513	160.9596	22585.15	21923.2
795.3931	163.2017	22319.8	21656.3
795.535	165.4433	22031.5	21365.65
795.6768	167.6844	21651.25	20983.75
795.8187	169.925	21347.75	20676.95
795.9606	172.1651	20948.35	20277
796.1025	174.4047	20673.95	19997.75
796.2445	176.6439	20371.95	19695.35
796.3864	178.8825	20135.05	19454.7
796.5284	181.1206	19979.3	19294.15
796.6704	183.3582	19808.95	19121.05
796.8124	185.5954	19704.4	19015.3
796.9544	187.832	19599.05	18904.9
797.0965	190.0681	19580.4	18882.55
797.2386	192.3037	19553.35	18855.75
797.3806	194.5388	19541.55	18840.15
797.5228	196.7734	19563.35	18861.5
797.6649	199.0075	19608.05	18899.65
797.807	201.2411	19787.7	19078.3
797.9492	203.4742	19817.9	19108.95
798.0914	205.7068	19969.5	19255.6
798.2336	207.9389	20081.65	19369.55
798.3758	210.1704	20229.55	19516.55
798.518	212.4015	20362.5	19645.9
798.6603	214.632	20485.25	19766.35
798.8025	216.862	20635.35	19922.35
798.9448	219.0915	20756.3	20052.2
799.0871	221.3205	20934.55	20230.15
799.2294	223.549	21115.25	20418.05
799.3718	225.777	21345.3	20649.3
799.5141	228.0044	21582.65	20883.85
799.6565	230.2314	21960.8	21266.15
799.7989	232.4578	22228.3	21531.8
799.9413	234.6837	22495.15	21791.45
800.0837	236.909	22662.6	21958.7
800.2262	239.1339	22657.15	21929.95
800.3687	241.3582	22490.05	21777.3
800.5111	243.582	22227.95	21490.6
800.6536	245.8053	21999.85	21266.7
800.7961	248.0281	21773.45	21049.3
800.9387	250.2503	21600.95	20867.8
801.0812	252.472	21517.25	20780.95
801.2238	254.6932	21528.4	20786.7
801.3664	256.9139	21538.6	20799.5
801.509	259.134	21593.25	20849.3
801.6516	261.3536	21687.25	20944.45
801.7942	263.5727	21820.15	21075.05
801.9369	265.7912	21903.05	21160
802.0795	268.0092	22053.05	21312.35
802.2222	270.2267	22090.75	21345.75
802.3649	272.4436	22093.75	21348
802.5076	274.6601	22035.9	21281.4
802.6504	276.8759	21922.4	21176.45
802.7931	279.0913	21865	21113.1
802.9359	281.3061	21737.4	20987.45
803.0787	283.5204	21730.35	20977.6
803.2215	285.7341	21750.2	20990.65
803.3643	287.9473	21843.45	21069.9
803.5071	290.16	22003.7	21237.9
803.6499	292.3721	22255.4	21494.65
803.7928	294.5837	22590.7	21831.25
803.9357	296.7947	22851.95	22091.05
804.0786	299.0052	23067.75	22309.7
804.2215	301.2152	22935.25	22173.4
804.3644	303.4246	22596	21836.5
804.5074	305.6334	22104.75	21343.95
804.6503	307.8418	21604.4	20843
804.7933	310.0495	21152.75	20391.5
804.9363	312.2568	20766.15	20004.15
805.0793	314.4635	20458.9	19693.5
805.2223	316.6696	20239.6	19472.85
805.3653	318.8752	20114.1	19340.25
805.5084	321.0802	20129.1	19360.2
805.6514	323.2847	20191.8	19426.4
805.7945	325.4887	20217.35	19450
805.9376	327.692	20140.8	19370.9
806.0807	329.8949	20086.3	19314.9
806.2238	332.0972	19837.15	19063.45
806.367	334.2989	19572.6	18797.75
806.5101	336.5001	19317.85	18541.7
806.6533	338.7007	19087.6	18312.75
806.7965	340.9008	18939.85	18162.35
806.9397	343.1003	18778.6	17997.75
807.0829	345.2992	18673.1	17892.1
807.2261	347.4976	18629.5	17847.4
807.3693	349.6955	18567.45	17783.55
807.5126	351.8927	18624.1	17840.2
807.6559	354.0895	18553.15	17757.9
807.7991	356.2856	18566.35	17778.35
807.9424	358.4812	18491.05	17702.2
808.0857	360.6763	18544.1	17758.05
808.2291	362.8707	18451.7	17664.9
808.3724	365.0646	18524	17736.6
808.5158	367.258	18542.7	17751.65
808.6591	369.4508	18567.45	17773.3
808.8025	371.643	18656.9	17861.05
808.9459	373.8346	18630.35	17826.9
809.0893	376.0257	18654.5	17850.45
809.2327	378.2162	18576.45	17774.45
809.3762	380.4062	18502.2	17697.3
809.5196	382.5956	18325.8	17521.75
809.6631	384.7844	18214.7	17409.95
809.8066	386.9726	18076.7	17269.1
809.9501	389.1603	18001.65	17194.55
810.0936	391.3474	17949.55	17111.85
810.2371	393.5339	17858.75	17054.65
810.3806	395.7199	17805.75	17006.3
810.5241	397.9052	17854.1	17054.9
810.6677	400.09	17862	17063.65
810.8113	402.2743	17934.75	17135.9
810.9548	404.4579	18035.05	17240.3
811.0984	406.641	18186.85	17389.6
811.2421	408.8235	18393.55	17597.3
811.3857	411.0054	18625.5	17827.8
811.5293	413.1868	18990.65	18192.6
811.673	415.3675	19192.2	18389.15
811.8166	417.5477	19303.65	18500.6
811.9603	419.7273	19341.3	18533.15
812.104	421.9064	19224.85	18414.2
812.2477	424.0848	19080.6	18270.1
812.3914	426.2627	18861.75	18050.2
812.5351	428.4399	18597.35	17784.7
812.6788	430.6166	18230.85	17415.1
812.8226	432.7928	17837.7	17018.9
812.9663	434.9683	17511.6	16696.45
813.1101	437.1432	17239.15	16421.15
813.2539	439.3176	17080.45	16258.25
813.3977	441.4914	16922.8	16101.45
813.5415	443.6645	16907.85	16084.8
813.6853	445.8371	16803.4	15980.25
813.8291	448.0091	16721.65	15900.45
813.973	450.1806	16697.15	15879.05
814.1168	452.3514	16610.1	15786.15
814.2607	454.5216	16606.7	15772.4
814.4046	456.6913	16529.3	15704.95
814.5485	458.8603	16573.65	15746.85
814.6924	461.0288	16647.8	15824
814.8363	463.1967	16638.95	15814.55
814.9802	465.3639	16697.15	15871
815.1241	467.5306	16726.9	15900.15
815.2681	469.6967	16794.95	15968.85
815.412	471.8622	16906.4	16081.85
815.556	474.0271	17018.3	16192.5
815.7	476.1914	17052.35	16224.65
815.844	478.3551	17012.6	16185.3
815.988	480.5182	17011.2	16181.1
816.132	482.6807	17034.25	16203
816.276	484.8426	17163.9	16334
816.4201	487.0039	17471.45	16642.7
816.5641	489.1647	17848.65	17017.85
816.7082	491.3248	18260.3	17429.55
816.8522	493.4843	18418.55	17587.85
816.9963	495.6432	18361.4	17531.7
817.1404	497.8015	18216.2	17382.05
817.2845	499.9592	18162.75	17329.8
817.4286	502.1163	18031.4	17197.35
817.5727	504.2728	17732.3	16899.7
817.7168	506.4287	17453.85	16620
817.861	508.5839	17027.5	16192.85
818.0051	510.7386	16732.95	15900.7
818.1493	512.8927	16553.6	15711.2
818.2935	515.0461	16481.6	15643.85
818.4377	517.199	16467.7	15632.45
818.5818	519.3512	16526.65	15690.7
818.726	521.5029	16680.95	15834.7
818.8703	523.6539	16781.85	15946.85
819.0145	525.8043	16841.25	16001.05
819.1587	527.9541	16833.95	15991.1
819.303	530.1033	16690.2	15849.7
819.4472	532.2519	16655.8	15816.2
819.5915	534.3999	16705.85	15863.15
819.7357	536.5472	16867.4	16025.6
819.88	538.694	17236.85	16395.95
820.0243	540.8401	17661.45	16819.25
820.1686	542.9856	18059.4	17218
820.3129	545.1305	18185.6	17342.3
820.4572	547.2748	18017.65	17173.2
820.6016	549.4185	17717.05	16874
820.7459	551.5615	17415.7	16574.1
820.8902	553.704	17309.7	16464.45
821.0346	555.8458	17262.8	16420.55
821.1789	557.987	17351.8	16510.95
821.3233	560.1276	17380.55	16535.8
821.4677	562.2675	17574	16731.5
821.6121	564.4069	17821.3	16977.4
821.7565	566.5456	17969.7	17126.45
821.9009	568.6837	17974.15	17128.5
822.0453	570.8212	17620.7	16775.55
822.1897	572.958	17138.8	16292.45
822.3342	575.0942	16634.6	15790.65
822.4786	577.2299	16331.95	15487.35
822.6231	579.3648	16208.2	15360.8
822.7675	581.4992	16218.85	15372.9
822.912	583.6329	16346	15499.5
823.0565	585.766	16626.9	15783.1
823.201	587.8985	16675.75	15828.8
823.3454	590.0304	16691.7	15818.75
823.4899	592.1616	16606	15757.8
823.6345	594.2922	16475.2	15627.85
823.779	596.4222	16259.55	15407.7
823.9235	598.5515	16075.95	15225.5
824.068	600.6802	15913.5	15064.2
824.2126	602.8083	15706.15	14856.1
824.3571	604.9358	15662.4	14813.05
824.5017	607.0626	15598.15	14748.25
824.6462	609.1888	15599.55	14747.35
824.7908	611.3144	15630.55	14779.45
824.9354	613.4393	15589.5	14738.6
825.08	615.5636	15562.8	14709.6
825.2246	617.6873	15519.9	14670.25
825.3692	619.8103	15433.25	14579.75
825.5138	621.9327	15276.85	14422.75
825.6584	624.0544	15165.3	14314.55
825.803	626.1756	15067.75	14215.7
825.9477	628.2961	14974.55	14121.35
826.0923	630.4159	14884.95	14029.3
826.237	632.5351	14831.45	13978.4
826.3816	634.6537	14779.85	13925.85
826.5263	636.7716	14751.85	13896.05
826.6709	638.8889	14721.95	13867
826.8156	641.0056	14760.15	13905.8
826.9603	643.1216	14710.7	13854.65
827.105	645.237	14720.35	13861.75
827.2497	647.3518	14669.15	13810.45
827.3944	649.4659	14620.25	13762.35
827.5391	651.5793	14578.8	13722.85
827.6838	653.6922	14556.4	13701.45
827.8285	655.8043	14524.95	13667.85
827.9733	657.9159	14509.45	13650.25
828.118	660.0268	14443.75	13583.9
828.2627	662.137	14379.55	13522.35
828.4075	664.2466	14366.8	13506.75
828.5522	666.3556	14351.8	13493.85
828.697	668.4639	14268	13404.25
828.8418	670.5716	14290.35	13431.1
828.9865	672.6786	14332.4	13474.15
829.1313	674.785	14295.65	13433.9
829.2761	676.8907	14310.35	13447.7
829.4209	678.9958	14369.85	13510.3
829.5657	681.1002	14328.75	13467.3
829.7105	683.204	14283	13417.85
829.8553	685.3072	14239.4	13377.95
830.0001	687.4097	14142.2	13282.95
830.1449	689.5115	14147.05	13284
830.2898	691.6127	14097.85	13236
830.4346	693.7132	14022	13157.35
830.5794	695.8131	13995.9	13121.2
830.7243	697.9123	13969.3	13107
830.8691	700.0109	13924.35	13060.15
831.014	702.1089	13943.25	13082.6
831.1588	704.2061	13945.25	13082.4
831.3037	706.3028	13966.1	13101.05
831.4486	708.3987	13969.85	13107.3
831.5935	710.4941	14042	13177.15
831.7383	712.5887	14179.85	13314.55
831.8832	714.6827	14353.5	13485.45
832.0281	716.7761	14640.65	13776.75
832.173	718.8688	14887.4	14021.7
832.3179	720.9608	15038.95	14170.45
832.4628	723.0522	15102.8	14233.75
832.6077	725.1429	15029.15	14162.2
832.7527	727.233	14854.25	13992.2
832.8976	729.3224	14714.7	13849.65
833.0425	731.4112	14535.55	13667.4
833.1874	733.4993	14300.3	13433.85
833.3324	735.5867	14125.25	13255.25
833.4773	737.6735	13932.15	13064.8
833.6222	739.7596	13807.95	12938.4
833.7672	741.845	13701	12831.95
833.9122	743.9298	13633.2	12766.1
834.0571	746.014	13607.75	12741.1
834.2021	748.0974	13605.95	12736.45
834.347	750.1802	13591.8	12725.25
834.492	752.2624	13595.7	12727.75
834.637	754.3439	13621.9	12752.85
834.782	756.4247	13694.6	12815.2
834.9269	758.5048	13784.7	12916.6
835.0719	760.5843	14069.4	13202.65
835.2169	762.6631	14416	13548.3
835.3619	764.7413	14905.5	14037
835.5069	766.8188	15576.95	14705.25
835.6519	768.8956	16092.45	15220.65
835.7969	770.9718	16400.85	15531.6
835.9419	773.0473	16238.55	15368.9
836.0869	775.1221	15926.8	15059.8
836.232	777.1962	15574.05	14705.65
836.377	779.2697	15388.05	14517.6
836.522	781.3426	15423.7	14543.5
836.667	783.4147	15599.6	14729.2
836.8121	785.4862	15807.35	14939
836.9571	787.557	15742.9	14872.6
837.1021	789.6271	15303.75	14431.35
837.2472	791.6966	14695.7	13826
837.3922	793.7654	14115.85	13243.8
837.5373	795.8335	13737.2	12864.75
837.6823	797.901	13459.75	12589.35
837.8274	799.9678	13340.5	12466.75
837.9724	802.0339	13285.85	12416.35
838.1175	804.0993	13298.8	12418.85
838.2626	806.1641	13250.65	12378.65
838.4076	808.2282	13148.15	12277.65
838.5527	810.2916	13066.4	12190.8
838.6978	812.3544	12981.5	12112.85
838.8428	814.4164	12864.8	11992.9
838.9879	816.4778	12887.9	12015.45
839.133	818.5385	12853.4	11981.35
839.2781	820.5986	12981.6	12109.55
839.4232	822.658	13126.2	12253.9
839.5682	824.7166	13340.25	12468.15
839.7133	826.7747	13673.35	12800.55
839.8584	828.832	13985.75	13114.2
840.0035	830.8886	14215.95	13340
840.1486	832.9446	14355.1	13479.25
840.2937	834.9999	14288.65	13417.95
840.4388	837.0545	14147.25	13270.95
840.5839	839.1085	13972.45	13098.2
840.729	841.1618	13794.1	12918.2
840.8741	843.2143	13664.2	12793.7
841.0192	845.2662	13517.2	12645.5
841.1643	847.3175	13422.1	12546.9
841.3095	849.368	13305.35	12428.9
841.4546	851.4179	13157.75	12283.8
841.5997	853.467	13056.8	12184.6
841.7448	855.5155	12945.85	12071.5
841.8899	857.5633	12827.35	11952.9
842.0351	859.6105	12703.15	11830.5
842.1802	861.6569	12615	11741.35
842.3253	863.7027	12518.75	11646
842.4704	865.7478	12494.1	11616.85
842.6156	867.7922	12471.05	11596.1
842.7607	869.8359	12442.65	11566.7
842.9058	871.8789	12533.55	11657.4
843.0509	873.9212	12656.7	11746.5
843.1961	875.9629	12772.3	11896.85
843.3412	878.0039	12913.35	12036.1
843.4863	880.0441	13023.6	12148.25
843.6315	882.0837	13044.65	12168.1
843.7766	884.1226	12974.15	12097.05
843.9218	886.1609	12906.3	12033.65
844.0669	888.1984	12903.85	12029
844.212	890.2352	12935.15	12061.25
844.3572	892.2714	12905.05	12023.8
844.5023	894.3069	12824.65	11947.15
844.6475	896.3416	12698.7	11823.15
844.7926	898.3757	12592.25	11717.2
844.9377	900.4091	12548.65	11669.2
845.0829	902.4418	12542.05	11662.4
845.228	904.4739	12557.55	11680
845.3732	906.5052	12543.95	11669
845.5183	908.5358	12491.6	11618.15
845.6635	910.5658	12348.75	11469.05
845.8086	912.595	12126.15	11247.85
845.9538	914.6236	11926.65	11049.85
846.0989	916.6515	11838.5	10962.95
846.2441	918.6786	11804.65	10925.6
846.3892	920.7051	11777.65	10898.75
846.5344	922.7309	11863.05	10988.15
846.6795	924.756	11895.45	11017.05
846.8246	926.7804	11961.3	11082.15
846.9698	928.8041	11944.95	11065.5
847.1149	930.8272	11993.45	11115.15
847.2601	932.8495	11930.45	11053
847.4052	934.8711	11881.95	11002.3
847.5504	936.892	11756.7	10879.8
847.6955	938.9123	11674	10795.1
847.8407	940.9318	11575.2	10697.7
847.9858	942.9506	11489.35	10611.1
848.131	944.9688	11411.75	10529.75
848.2761	946.9862	11314.3	10434.2
848.4213	949.003	11235.5	10357
848.5664	951.019	11160.4	10280.3
848.7115	953.0344	11149	10269.85
848.8567	955.0491	11139	10256.9
849.0018	957.063	11188.05	10309
849.147	959.0763	11271.65	10393.15
849.2921	961.0888	11279.85	10398.2
849.4373	963.1007	11343.4	10462.7
849.5824	965.1119	11403.5	10523.7
849.7275	967.1223	11401.6	10520.95
849.8727	969.1321	11419.1	10540.6
850.0178	971.1412	11396.15	10517.1
850.1629	973.1495	11377.4	10499.2
850.3081	975.1572	11420.6	10509
850.4532	977.1641	11424.45	10544.35
850.5983	979.1704	11372	10491
850.7435	981.1759	11387.8	10505.6
850.8886	983.1808	11397.75	10517.1
851.0337	985.1849	11458.75	10569.45
851.1788	987.1884	11538.95	10659
851.324	989.1911	11658.45	10778.5
851.4691	991.1932	11775.25	10891.6
851.6142	993.1945	11827.3	10947.1
851.7593	995.1951	11742.9	10861.15
851.9045	997.1951	11717.85	10832.45
852.0496	999.1943	11654.65	10776.25
852.1947	1001.1928	11616.3	10737.8
852.3398	1003.1906	11640	10759.8
852.4849	1005.1877	11687.8	10806.2
852.63	1007.1841	11686.15	10806.55
852.7751	1009.1798	11647.8	10768.1
852.9202	1011.1748	11522.8	10641.1
853.0653	1013.1691	11316.95	10435.55
853.2104	1015.1627	11112.8	10230.85
853.3555	1017.1556	10861.55	9980.3
853.5006	1019.1477	10758.45	9876.05
853.6457	1021.1392	10645.55	9765.95
853.7908	1023.1299	10615.8	9732.05
853.9359	1025.12	10657.2	9773.9
854.081	1027.1093	10687.4	9807.7
854.2261	1029.0979	10772.1	9893.1
854.3712	1031.0859	10885.4	10006.4
854.5163	1033.0731	10886.05	10005.55
854.6613	1035.0596	10780.2	9900.75
854.8064	1037.0454	10635.15	9754.25
854.9515	1039.0304	10545.7	9662.55
855.0965	1041.0148	10400.3	9519
855.2416	1042.9985	10300.45	9418.3
855.3867	1044.9814	10252.85	9372.7
855.5317	1046.9636	10172.5	9288.5
855.6768	1048.9452	10172	9293.85
855.8219	1050.926	10141.25	9262.5
855.9669	1052.9061	10136.35	9259.4
856.112	1054.8855	10146.65	9265.6
856.257	1056.8642	10189.15	9307.75
856.4021	1058.8421	10229.5	9346.2
856.5471	1060.8194	10276.7	9394
856.6921	1062.7959	10289.4	9408.1
856.8372	1064.7717	10342.8	9459.15
856.9822	1066.7469	10386.5	9502.65
857.1272	1068.7213	10388.4	9505.05
857.2723	1070.695	10404	9522.75
857.4173	1072.6679	10381.9	9498.75
857.5623	1074.6402	10362.05	9480.6
857.7073	1076.6117	10318.65	9431.95
857.8523	1078.5826	10259	9377.15
857.9973	1080.5527	10182.85	9299.2
858.1423	1082.5221	10206.85	9326
858.2873	1084.4908	10291.05	9410.15
858.4323	1086.4587	10433.15	9548.65
858.5773	1088.426	10525.1	9642.1
858.7223	1090.3925	10516.3	9628.2
858.8673	1092.3584	10486.05	9603.45
859.0123	1094.3235	10410.95	9531.55
859.1573	1096.2879	10374.25	9491.95
859.3022	1098.2515	10419.05	9538.3
859.4472	1100.2145	10520.15	9640.8
859.5922	1102.1767	10635.6	9749.2
859.7371	1104.1382	10838.4	9956.45
859.8821	1106.099	11062.25	10175.95
860.027	1108.0591	11286.45	10404.05
860.172	1110.0185	11442.55	10557.45
860.3169	1111.9771	11449.35	10567.8
860.4619	1113.9351	11319	10436.05
860.6068	1115.8923	11073.15	10189.55
860.7517	1117.8488	10835.4	9951.4
860.8967	1119.8045	10568.3	9686.95
861.0416	1121.7596	10441.45	9558.55
861.1865	1123.7139	10339	9456.4
861.3314	1125.6675	10361	9477.7
861.4763	1127.6204	10366.2	9483.85
861.6212	1129.5726	10334.8	9449.7
861.7661	1131.524	10290	9409.4
861.911	1133.4748	10184.8	9303.15
862.0559	1135.4248	10084.85	9201.5
862.2008	1137.3741	10018.05	9137.45
862.3457	1139.3226	9940.05	9054.6
862.4905	1141.2705	9888.35	9008.1
862.6354	1143.2176	9786.75	8898.35
862.7803	1145.164	9754.3	8871.05
862.9251	1147.1097	9716.3	8832.35
863.07	1149.0546	9667.05	8782.9
863.2148	1150.9989	9577.15	8694.65
863.3597	1152.9424	9448.05	8565.35
863.5045	1154.8852	9311.6	8429.6
863.6493	1156.8272	9199.5	8319.85
863.7942	1158.7686	9200.75	8312.6
863.939	1160.7092	9176.75	8293.85
864.0838	1162.6491	9198.65	8312.25
864.2286	1164.5883	9258.5	8376.7
864.3734	1166.5267	9367	8480.6
864.5182	1168.4644	9488.35	8603.4
864.663	1170.4014	9715.1	8829.45
864.8078	1172.3377	9925.05	9045.9
864.9526	1174.2732	10177.35	9294.45
865.0974	1176.2081	10503.45	9619.6
865.2421	1178.1421	10853.35	9969.45
865.3869	1180.0755	11247.3	10366.55
865.5317	1182.0082	11420.4	10539.25
865.6764	1183.9401	11507.7	10623.3
865.8212	1185.8713	11377.95	10494.8
865.9659	1187.8017	11127.7	10247.5
