Software Version:	3.9.2.0
Unit SN:	10000200
Spectrometer SN:	6960
Date:	3/14/2024 1:23:38 PM
Data Line Index:	25
Spectral Points:	2048
Integration time (ms):	125
Averages:	20
Delay (ms):	30000
Sequence Number:	1
Processing:	dark subtract
Laser Power (mW):	305
Laser Current (mA):	825
Laser Diode Temp (C):	25
Laser Case Temp (C):	28.4
System Temp (C):	28.4
Spectrometer Temp (C):	26.2
CCD Temp (C):	0.001
Secondary Temp (C):	20.013
Heatsink Temp (C):	24.33
CCDPCB Temp (C):	37.696
SecondaryPCB Temp (C):	35.395

Wavelength	RamanShift	Raw Counts	Dark Subtracted
787.061	30.1047	461.6	50.35
787.2016	32.3739	467.2	59.3
787.3422	34.6426	467.75	58.25
787.4828	36.9109	476.3	63.9
787.6235	39.1787	485.9	69.55
787.7642	41.4461	494.75	74
787.9049	43.7131	504.1	81.05
788.0456	45.9796	513.4	87.05
788.1863	48.2456	521.85	90
788.3271	50.5112	530.5	95.55
788.4679	52.7764	538.75	100.55
788.6087	55.0411	550.35	109.85
788.7496	57.3054	560.4	116.3
788.8904	59.5692	574.6	125.5
789.0313	61.8326	585.4	133.2
789.1722	64.0955	597.35	137.55
789.3132	66.3579	615.8	153.35
789.4541	68.6199	638.95	171.95
789.5951	70.8815	672.1	203.4
789.7361	73.1426	746.4	274.8
789.8771	75.4032	952.2	473.95
790.0181	77.6634	1468.6	985.45
790.1592	79.9231	2677.2	2188.25
790.3003	82.1824	5318.7	4820.3
790.4414	84.4412	10121.4	9605.7
790.5825	86.6995	16862.6	16323.6
790.7237	88.9574	23473.4	22914.2
790.8648	91.2148	28151.95	27579.05
791.006	93.4717	30318.65	29737.3
791.1472	95.7282	30787.9	30200.7
791.2885	97.9842	30678.8	30089.45
791.4297	100.2398	30023.85	29430.6
791.571	102.4949	29322.75	28725.4
791.7123	104.7495	28461.45	27859.15
791.8536	107.0036	27672.5	27069
791.9949	109.2573	26944.8	26345.85
792.1363	111.5105	26277.5	25675.25
792.2777	113.7632	25659.35	25056.4
792.4191	116.0154	25168.65	24557.9
792.5605	118.2672	24819.7	24213.25
792.7019	120.5185	24453	23844.95
792.8434	122.7693	24227.15	23617.45
792.9849	125.0197	23969.95	23356.3
793.1264	127.2696	23772.15	23156.3
793.2679	129.519	23626.9	23008.45
793.4094	131.7679	23362.1	22739
793.551	134.0163	23135.1	22510.05
793.6926	136.2642	22854.75	22226.15
793.8342	138.5117	22524.75	21895.3
793.9758	140.7587	22141.5	21505.45
794.1175	143.0052	21846.55	21209.95
794.2591	145.2512	21555.8	20917.75
794.4008	147.4967	21241.75	20605.5
794.5425	149.7417	21012.8	20374.6
794.6842	151.9863	20849.6	20205.95
794.826	154.2304	20763.6	20118.85
794.9677	156.4739	20569.4	19917.05
795.1095	158.717	20498.6	19851.6
795.2513	160.9596	20348.05	19695.15
795.3931	163.2017	20135.8	19478.8
795.535	165.4433	19864.7	19204.7
795.6768	167.6844	19591.85	18928.7
795.8187	169.925	19295.7	18634.65
795.9606	172.1651	18965.85	18299.3
796.1025	174.4047	18703.4	18034.25
796.2445	176.6439	18480.05	17807.7
796.3864	178.8825	18280.95	17610.4
796.5284	181.1206	18169.75	17491.5
796.6704	183.3582	18050.4	17366.35
796.8124	185.5954	17975.6	17291.3
796.9544	187.832	17915.1	17229.55
797.0965	190.0681	17857.25	17170.8
797.2386	192.3037	17888.8	17199.8
797.3806	194.5388	17841.8	17148.9
797.5228	196.7734	17892.15	17196.9
797.6649	199.0075	17935.1	17232.4
797.807	201.2411	18064.9	17358
797.9492	203.4742	18106.2	17406.05
798.0914	205.7068	18274.05	17569.45
798.2336	207.9389	18370.2	17666.4
798.3758	210.1704	18493.15	17787.2
798.518	212.4015	18590.35	17879.45
798.6603	214.632	18713.85	18003.45
798.8025	216.862	18839.15	18133.95
798.9448	219.0915	18923.8	18227.5
799.0871	221.3205	18975.05	18278.35
799.2294	223.549	19037.15	18350.6
799.3718	225.777	19079.7	18391.05
799.5141	228.0044	19191.1	18500.7
799.6565	230.2314	19304.15	18616.55
799.7989	232.4578	19376.45	18688.55
799.9413	234.6837	19459.85	18762.75
800.0837	236.909	19467.6	18767.6
800.2262	239.1339	19459.05	18737.1
800.3687	241.3582	19392.75	18685.3
800.5111	243.582	19324.1	18592.2
800.6536	245.8053	19288.45	18564.25
800.7961	248.0281	19257	18537.4
800.9387	250.2503	19244.2	18518.6
801.0812	252.472	19307.45	18576.65
801.2238	254.6932	19408.25	18676.3
801.3664	256.9139	19461.55	18726.45
801.509	259.134	19700.65	18960
801.6516	261.3536	19893.7	19162.45
801.7942	263.5727	20179.05	19438.8
801.9369	265.7912	20360.05	19621.05
802.0795	268.0092	20663.2	19926.35
802.2222	270.2267	20908.7	20169.95
802.3649	272.4436	20997.7	20255.1
802.5076	274.6601	21049.55	20298.05
802.6504	276.8759	20980.9	20234.35
802.7931	279.0913	20870.85	20129
802.9359	281.3061	20786.6	20043
803.0787	283.5204	20741.1	19992.25
803.2215	285.7341	20698.1	19945
803.3643	287.9473	20753.95	19988.5
803.5071	290.16	20757.75	19999.9
803.6499	292.3721	20788.7	20039.1
803.7928	294.5837	20974.3	20219.95
803.9357	296.7947	21109.65	20356.55
804.0786	299.0052	21245.25	20493.35
804.2215	301.2152	21235.95	20475.45
804.3644	303.4246	21115.45	20359.85
804.5074	305.6334	20796.55	20043.55
804.6503	307.8418	20456	19697
804.7933	310.0495	20062.2	19305.8
804.9363	312.2568	19609.6	18851.4
805.0793	314.4635	19238.05	18478
805.2223	316.6696	18912.25	18148.3
805.3653	318.8752	18639.35	17868.3
805.5084	321.0802	18534.95	17773.45
805.6514	323.2847	18567	17803.8
805.7945	325.4887	18581.2	17819.3
805.9376	327.692	18552.6	17787
806.0807	329.8949	18545.6	17781.8
806.2238	332.0972	18395.15	17629.75
806.367	334.2989	18252.85	17481.1
806.5101	336.5001	17979.65	17211
806.6533	338.7007	17812	17040.65
806.7965	340.9008	17638	16863.55
806.9397	343.1003	17467	16689.85
807.0829	345.2992	17308.15	16534.6
807.2261	347.4976	17236.85	16459.45
807.3693	349.6955	17121.9	16342.45
807.5126	351.8927	17095.75	16313.95
807.6559	354.0895	16999.45	16210.3
807.7991	356.2856	16970.7	16187.5
807.9424	358.4812	16878.5	16095.95
808.0857	360.6763	16874.65	16092.15
808.2291	362.8707	16829.2	16043.55
808.3724	365.0646	16858	16073.8
808.5158	367.258	16898.3	16111.6
808.6591	369.4508	16938.65	16144.35
808.8025	371.643	17070.2	16278.55
808.9459	373.8346	17123.7	16327.9
809.0893	376.0257	17225.75	16429.7
809.2327	378.2162	17227.65	16434.6
809.3762	380.4062	17208.45	16410.6
809.5196	382.5956	17094.2	16295.05
809.6631	384.7844	16965.7	16163.7
809.8066	386.9726	16838.15	16037.65
809.9501	389.1603	16738.75	15938.45
810.0936	391.3474	16696.8	15866.85
810.2371	393.5339	16624.15	15824.2
810.3806	395.7199	16528.7	15734.15
810.5241	397.9052	16598.45	15804.6
810.6677	400.09	16643.1	15852.9
810.8113	402.2743	16810.9	16019.35
810.9548	404.4579	16939.2	16147.35
811.0984	406.641	17116	16322.25
811.2421	408.8235	17217.1	16425.95
811.3857	411.0054	17393.15	16598.95
811.5293	413.1868	17508.85	16712.2
811.673	415.3675	17517.45	16717.7
811.8166	417.5477	17496.9	16698.85
811.9603	419.7273	17485.65	16683.85
812.104	421.9064	17342.45	16531.8
812.2477	424.0848	17259.65	16450.6
812.3914	426.2627	17121.75	16317.85
812.5351	428.4399	16883.75	16074.2
812.6788	430.6166	16552	15740.45
812.8226	432.7928	16269.4	15456.8
812.9663	434.9683	15942.85	15128.65
813.1101	437.1432	15735.3	14920.75
813.2539	439.3176	15571.6	14752.8
813.3977	441.4914	15426.2	14609.25
813.5415	443.6645	15393.15	14573.75
813.6853	445.8371	15329.5	14514.05
813.8291	448.0091	15248.85	14430.55
813.973	450.1806	15223.15	14408.35
814.1168	452.3514	15199.6	14379.5
814.2607	454.5216	15215.4	14390.05
814.4046	456.6913	15174.55	14353.4
814.5485	458.8603	15194.3	14370.35
814.6924	461.0288	15238.75	14420.6
814.8363	463.1967	15233.85	14414.1
814.9802	465.3639	15250.4	14428.1
815.1241	467.5306	15168.5	14347.85
815.2681	469.6967	15170.65	14347.8
815.412	471.8622	15160.85	14340.7
815.556	474.0271	15184.7	14361.25
815.7	476.1914	15192.1	14367.9
815.844	478.3551	15157.6	14332.6
815.988	480.5182	15236.75	14411.15
816.132	482.6807	15278.95	14450.95
816.276	484.8426	15465.65	14641.15
816.4201	487.0039	15753.25	14929.05
816.5641	489.1647	16107	15278.6
816.7082	491.3248	16406.9	15580.35
816.8522	493.4843	16477.95	15652.55
816.9963	495.6432	16395.3	15569.4
817.1404	497.8015	16233	15403
817.2845	499.9592	16112.8	15285.35
817.4286	502.1163	15926.5	15098.85
817.5727	504.2728	15629.4	14799.3
817.7168	506.4287	15374.9	14545.85
817.861	508.5839	15107.45	14276.2
818.0051	510.7386	14899.1	14067.25
818.1493	512.8927	14832.9	13995.5
818.2935	515.0461	14781.85	13949.1
818.4377	517.199	14864.25	14033.35
818.5818	519.3512	15029.35	14196.85
818.726	521.5029	15268.85	14427.3
818.8703	523.6539	15509.65	14677.25
819.0145	525.8043	15582.1	14746.45
819.1587	527.9541	15541.6	14703.5
819.303	530.1033	15303.95	14470.5
819.4472	532.2519	15128.65	14294.2
819.5915	534.3999	15043.05	14207.25
819.7357	536.5472	15053.55	14216.85
819.88	538.694	15203.55	14365.55
820.0243	540.8401	15423.8	14583.95
820.1686	542.9856	15607	14767.4
820.3129	545.1305	15615.3	14773.75
820.4572	547.2748	15535.5	14695.1
820.6016	549.4185	15365.7	14525.55
820.7459	551.5615	15249.95	14410.15
820.8902	553.704	15247.85	14405.65
821.0346	555.8458	15324.1	14485.7
821.1789	557.987	15458.6	14616.4
821.3233	560.1276	15689.6	14847.95
821.4677	562.2675	16069.6	15227.2
821.6121	564.4069	16549.7	15707.4
821.7565	566.5456	16974.2	16132
821.9009	568.6837	17115.35	16275.2
822.0453	570.8212	16734.3	15892.9
822.1897	572.958	16084.6	15239.35
822.3342	575.0942	15412.25	14569.9
822.4786	577.2299	14976.95	14135.1
822.6231	579.3648	14761.95	13921.9
822.7675	581.4992	14669.2	13825.75
822.912	583.6329	14741.2	13898.7
823.0565	585.766	14924.5	14082.85
823.201	587.8985	15030.45	14188.4
823.3454	590.0304	15119.55	14253.5
823.4899	592.1616	15045.05	14199.45
823.6345	594.2922	14907.9	14063.7
823.779	596.4222	14697.8	13852.95
823.9235	598.5515	14505.75	13658.7
824.068	600.6802	14321.75	13475.9
824.2126	602.8083	14124.4	13279.4
824.3571	604.9358	14121.95	13275.5
824.5017	607.0626	14091.2	13244.7
824.6462	609.1888	14193.95	13345.4
824.7908	611.3144	14344.85	13498.35
824.9354	613.4393	14473.4	13627.65
825.08	615.5636	14604.85	13756.55
825.2246	617.6873	14654.1	13805.15
825.3692	619.8103	14564.95	13714.25
825.5138	621.9327	14355.05	13503.3
825.6584	624.0544	14146.65	13297.5
825.803	626.1756	13953.15	13104.1
825.9477	628.2961	13782.75	12933.65
826.0923	630.4159	13696.1	12845.35
826.237	632.5351	13688.2	12837.3
826.3816	634.6537	13661.05	12807.25
826.5263	636.7716	13663.45	12810.7
826.6709	638.8889	13668.9	12817.95
826.8156	641.0056	13688.25	12834.55
826.9603	643.1216	13661.35	12808
827.105	645.237	13625.05	12768.45
827.2497	647.3518	13553.65	12700.25
827.3944	649.4659	13451.3	12598
827.5391	651.5793	13365.35	12512.15
827.6838	653.6922	13310.8	12458.6
827.8285	655.8043	13268.7	12416.6
827.9733	657.9159	13281.9	12427.15
828.118	660.0268	13249.1	12391.75
828.2627	662.137	13241.05	12384.25
828.4075	664.2466	13257.85	12401.05
828.5522	666.3556	13221.2	12366.55
828.697	668.4639	13162.35	12302.7
828.8418	670.5716	13127.2	12271.75
828.9865	672.6786	13093.3	12234.6
829.1313	674.785	13001.75	12143.05
829.2761	676.8907	12947.2	12089.35
829.4209	678.9958	12962.4	12106.5
829.5657	681.1002	12890.9	12035.25
829.7105	683.204	12889.8	12025.95
829.8553	685.3072	12843.5	11984.65
830.0001	687.4097	12833	11973.5
830.1449	689.5115	12837.45	11976.9
830.2898	691.6127	12801.1	11943.5
830.4346	693.7132	12784.25	11925.7
830.5794	695.8131	12802.6	11927.9
830.7243	697.9123	12811.4	11950.5
830.8691	700.0109	12826.55	11968.05
831.014	702.1089	12852.5	11994.6
831.1588	704.2061	12882.15	12020.25
831.3037	706.3028	12970.65	12109.5
831.4486	708.3987	13015.05	12156.1
831.5935	710.4941	13008.15	12147.7
831.7383	712.5887	13021.1	12159.55
831.8832	714.6827	13064.1	12195.65
832.0281	716.7761	13158.7	12296.5
832.173	718.8688	13295.2	12432.45
832.3179	720.9608	13383.3	12517.25
832.4628	723.0522	13531.6	12667.55
832.6077	725.1429	13576.1	12712.55
832.7527	727.233	13656.15	12792.55
832.8976	729.3224	13771.95	12909.95
833.0425	731.4112	13688.35	12823.5
833.1874	733.4993	13557.3	12690.95
833.3324	735.5867	13329.35	12463.75
833.4773	737.6735	13104.45	12237.95
833.6222	739.7596	12869.1	12002.8
833.7672	741.845	12725.5	11860.8
833.9122	743.9298	12626.75	11760.75
834.0571	746.014	12562.35	11698.6
834.2021	748.0974	12558.95	11691.5
834.347	750.1802	12527.6	11662.75
834.492	752.2624	12509.25	11642.65
834.637	754.3439	12550.2	11683.05
834.782	756.4247	12649.3	11772.1
834.9269	758.5048	12768.6	11903.8
835.0719	760.5843	13005.9	12140.45
835.2169	762.6631	13349.45	12481.9
835.3619	764.7413	13868.1	13002.25
835.5069	766.8188	14526.1	13658.8
835.6519	768.8956	15069.7	14199.6
835.7969	770.9718	15456.35	14591.15
835.9419	773.0473	15428.8	14561
836.0869	775.1221	15194.5	14329.6
836.232	777.1962	14958.2	14090.55
836.377	779.2697	14876.2	14005.35
836.522	781.3426	14959.6	14078.3
836.667	783.4147	15089.45	14222.85
836.8121	785.4862	15118.4	14251.25
836.9571	787.557	14921.4	14051.4
837.1021	789.6271	14445.45	13576.4
837.2472	791.6966	13802.8	12932.95
837.3922	793.7654	13229.2	12360.2
837.5373	795.8335	12798.8	11929.85
837.6823	797.901	12523.05	11655.55
837.8274	799.9678	12333.5	11463.45
837.9724	802.0339	12238.95	11372.45
838.1175	804.0993	12183.05	11306.05
838.2626	806.1641	12087.9	11220.8
838.4076	808.2282	12014.35	11146.05
838.5527	810.2916	11924.8	11052.75
838.6978	812.3544	11873.85	11006.3
838.8428	814.4164	11813.45	10944.25
838.9879	816.4778	11819.45	10948.95
839.133	818.5385	11849	10980.7
839.2781	820.5986	11983.25	11115.3
839.4232	822.658	12212.6	11340.95
839.5682	824.7166	12497.9	11630.05
839.7133	826.7747	13028.15	12157.8
839.8584	828.832	13559.4	12688.75
840.0035	830.8886	13924.3	13053.15
840.1486	832.9446	14143.5	13274.4
840.2937	834.9999	13974.95	13106.45
840.4388	837.0545	13669.6	12793.5
840.5839	839.1085	13292.15	12420.05
840.729	841.1618	12934.65	12059.9
840.8741	843.2143	12663.4	11791.65
841.0192	845.2662	12452.55	11581.35
841.1643	847.3175	12309.85	11437.65
841.3095	849.368	12169	11298
841.4546	851.4179	12091.65	11221.3
841.5997	853.467	11980.65	11111.45
841.7448	855.5155	11935	11064.55
841.8899	857.5633	11848.35	10979.5
842.0351	859.6105	11773.45	10901.95
842.1802	861.6569	11695.55	10823.8
842.3253	863.7027	11602.7	10730.7
842.4704	865.7478	11534.65	10660.7
842.6156	867.7922	11495.9	10624.7
842.7607	869.8359	11462.9	10589.4
842.9058	871.8789	11448.35	10575.4
843.0509	873.9212	11547.3	10641.45
843.1961	875.9629	11536.1	10664.6
843.3412	878.0039	11623.3	10747.55
843.4863	880.0441	11732.3	10862.85
843.6315	882.0837	11763.35	10890.65
843.7766	884.1226	11816.3	10942.25
843.9218	886.1609	11888.85	11016.4
844.0669	888.1984	11950.1	11077.55
844.212	890.2352	12106.9	11234.7
844.3572	892.2714	12100	11221.15
844.5023	894.3069	12089.3	11215.1
844.6475	896.3416	11921.7	11048.05
844.7926	898.3757	11751.75	10878.05
844.9377	900.4091	11651.9	10778.35
845.0829	902.4418	11610.5	10733.35
845.228	904.4739	11617.35	10739.5
845.3732	906.5052	11694.4	10820.5
845.5183	908.5358	11626.8	10751.9
845.6635	910.5658	11535.1	10660
845.8086	912.595	11327.35	10453.3
845.9538	914.6236	11097.1	10222
846.0989	916.6515	10940.9	10065.15
846.2441	918.6786	10867.9	9989.55
846.3892	920.7051	10853.75	9979
846.5344	922.7309	10848.4	9971.55
846.6795	924.756	10880.1	10002.2
846.8246	926.7804	10917.2	10038.25
846.9698	928.8041	10891.25	10013.05
847.1149	930.8272	10979.25	10104.4
847.2601	932.8495	10938	10060.75
847.4052	934.8711	10918.95	10042.4
847.5504	936.892	10856	9980.35
847.6955	938.9123	10876.1	9999.25
847.8407	940.9318	10888.6	10010.45
847.9858	942.9506	10894.9	10017.2
848.131	944.9688	10876.8	10000.15
848.2761	946.9862	10741.5	9863.55
848.4213	949.003	10584.25	9707.15
848.5664	951.019	10436.35	9558.85
848.7115	953.0344	10390.45	9513.6
848.8567	955.0491	10339.45	9462.55
849.0018	957.063	10368.15	9491.55
849.147	959.0763	10417.5	9541.2
849.2921	961.0888	10430.75	9551.75
849.4373	963.1007	10489.35	9615.05
849.5824	965.1119	10495.7	9618.85
849.7275	967.1223	10471.1	9592.3
849.8727	969.1321	10452.15	9575.75
850.0178	971.1412	10440.85	9563.7
850.1629	973.1495	10410.05	9535.15
850.3081	975.1572	10426.4	9514
850.4532	977.1641	10416.75	9536.45
850.5983	979.1704	10378.6	9498.35
850.7435	981.1759	10339	9458.85
850.8886	983.1808	10347.35	9468.95
851.0337	985.1849	10333.75	9442.6
851.1788	987.1884	10367.85	9489.35
851.324	989.1911	10442.85	9561.45
851.4691	991.1932	10482.2	9602.65
851.6142	993.1945	10503.95	9623.95
851.7593	995.1951	10467.1	9587.05
851.9045	997.1951	10449.05	9565.4
852.0496	999.1943	10382.3	9505.25
852.1947	1001.1928	10387.05	9507.7
852.3398	1003.1906	10431.1	9553.7
852.4849	1005.1877	10516.2	9635.9
852.63	1007.1841	10608.25	9730.05
852.7751	1009.1798	10632.7	9755.25
852.9202	1011.1748	10569	9691.25
853.0653	1013.1691	10406.95	9527.05
853.2104	1015.1627	10249.35	9369.25
853.3555	1017.1556	9998.65	9120.35
853.5006	1019.1477	9880	9002.6
853.6457	1021.1392	9773.25	8895.35
853.7908	1023.1299	9716.7	8838.65
853.9359	1025.12	9713.75	8833.3
854.081	1027.1093	9760.4	8882.9
854.2261	1029.0979	9866.05	8989.55
854.3712	1031.0859	9955.35	9077.3
854.5163	1033.0731	9976.6	9096.25
854.6613	1035.0596	9924.05	9045.9
854.8064	1037.0454	9826.65	8947.5
854.9515	1039.0304	9736.25	8857.05
855.0965	1041.0148	9624.75	8744.5
855.2416	1042.9985	9534.05	8652.4
855.3867	1044.9814	9460.5	8581.55
855.5317	1046.9636	9412.4	8532.7
855.6768	1048.9452	9379.95	8500.15
855.8219	1050.926	9415.5	8535.65
855.9669	1052.9061	9435.4	8556.25
856.112	1054.8855	9427.75	8548.3
856.257	1056.8642	9475.75	8596.5
856.4021	1058.8421	9527.45	8644.95
856.5471	1060.8194	9551.5	8671.1
856.6921	1062.7959	9574.35	8696.25
856.8372	1064.7717	9620.7	8739.8
856.9822	1066.7469	9677	8795.6
857.1272	1068.7213	9746.7	8865.3
857.2723	1070.695	9844.5	8965.2
857.4173	1072.6679	9860.5	8980.6
857.5623	1074.6402	9903	9020.8
857.7073	1076.6117	9885.2	9000.9
857.8523	1078.5826	9756.1	8877.75
857.9973	1080.5527	9583.6	8701.1
858.1423	1082.5221	9475.35	8596.1
858.2873	1084.4908	9432.75	8550.65
858.4323	1086.4587	9406.6	8525.05
858.5773	1088.426	9412.95	8531.55
858.7223	1090.3925	9418.25	8533.1
858.8673	1092.3584	9465.55	8586.4
859.0123	1094.3235	9456.15	8577.55
859.1573	1096.2879	9522.35	8642.45
859.3022	1098.2515	9647.6	8767.15
859.4472	1100.2145	9818.5	8938.85
859.5922	1102.1767	10021.9	9137.85
859.7371	1104.1382	10209.2	9328.6
859.8821	1106.099	10466.35	9584.1
860.027	1108.0591	10664.3	9784.95
860.172	1110.0185	10826.9	9944
860.3169	1111.9771	10906.1	10028.2
860.4619	1113.9351	10836.65	9955.4
860.6068	1115.8923	10728.1	9847.2
860.7517	1117.8488	10612.85	9730.65
860.8967	1119.8045	10409.5	9529.7
861.0416	1121.7596	10274.3	9393
861.1865	1123.7139	10101.9	9220.15
861.3314	1125.6675	10025.1	9145.55
861.4763	1127.6204	10042.25	9160.45
861.6212	1129.5726	10006.05	9125.45
861.7661	1131.524	9927.2	9047.35
861.911	1133.4748	9771.85	8891.2
862.0559	1135.4248	9597.5	8715.15
862.2008	1137.3741	9429.05	8548.2
862.3457	1139.3226	9307.9	8427.3
862.4905	1141.2705	9240.7	8359.8
862.6354	1143.2176	9167.9	8281.7
862.7803	1145.164	9145.35	8261.05
862.9251	1147.1097	9061.65	8180.15
863.07	1149.0546	8981.05	8100.25
863.2148	1150.9989	8861.4	7978.6
863.3597	1152.9424	8752.15	7870.15
863.5045	1154.8852	8656.7	7772.25
863.6493	1156.8272	8629.05	7750.15
863.7942	1158.7686	8634.4	7745.9
863.939	1160.7092	8663.15	7780.85
864.0838	1162.6491	8682.05	7798.3
864.2286	1164.5883	8777.65	7897.55
864.3734	1166.5267	8871.65	7988
864.5182	1168.4644	9036.25	8152.25
864.663	1170.4014	9213.5	8327.7
864.8078	1172.3377	9441.4	8560.95
864.9526	1174.2732	9743.55	8863.55
865.0974	1176.2081	10112.2	9229.7
865.2421	1178.1421	10612.75	9728.4
865.3869	1180.0755	11161.45	10281.3
865.5317	1182.0082	11523.55	10641.65
865.6764	1183.9401	11678.9	10795.4
865.8212	1185.8713	11541.6	10657.75
865.9659	1187.8017	11177.15	10296.4
866.1106	1189.7315	10787.6	9905.95
866.2554	1191.6605	10365.75	9454.25
