Software Version:	3.9.2.0
Unit SN:	10000200
Spectrometer SN:	6960
Date:	3/14/2024 1:42:37 PM
Data Line Index:	25
Spectral Points:	2048
Integration time (ms):	125
Averages:	20
Delay (ms):	30000
Sequence Number:	1
Processing:	dark subtract
Laser Power (mW):	300
Laser Current (mA):	825
Laser Diode Temp (C):	25
Laser Case Temp (C):	28.7
System Temp (C):	28.7
Spectrometer Temp (C):	26.5
CCD Temp (C):	0.008
Secondary Temp (C):	20.007
Heatsink Temp (C):	24.69
CCDPCB Temp (C):	38.241
SecondaryPCB Temp (C):	35.718

Wavelength	RamanShift	Raw Counts	Dark Subtracted
787.061	30.1047	469.95	56.75
787.2016	32.3739	469.15	59.15
787.3422	34.6426	473.1	60.35
787.4828	36.9109	479.2	67.55
787.6235	39.1787	492.8	74.95
787.7642	41.4461	499	77.3
787.9049	43.7131	508.05	83.1
788.0456	45.9796	520.25	91.15
788.1863	48.2456	529.5	97.35
788.3271	50.5112	541.3	105.45
788.4679	52.7764	553.25	112.85
788.6087	55.0411	561.3	118.85
788.7496	57.3054	573.1	126.9
788.8904	59.5692	584.95	135.75
789.0313	61.8326	595.5	142.75
789.1722	64.0955	612.1	154.1
789.3132	66.3579	631.15	168.9
789.4541	68.6199	652.5	186.4
789.5951	70.8815	689.65	223.1
789.7361	73.1426	773	301.5
789.8771	75.4032	1000.25	524.45
790.0181	77.6634	1530.9	1048.3
790.1592	79.9231	2801	2310.75
790.3003	82.1824	5618.8	5118.75
790.4414	84.4412	10799.7	10282.2
790.5825	86.6995	18086.75	17543.4
790.7237	88.9574	25354.05	24791.9
790.8648	91.2148	30457	29877.75
791.006	93.4717	32882	32296.2
791.1472	95.7282	33447.15	32853.1
791.2885	97.9842	33385.65	32785.9
791.4297	100.2398	32793.85	32196.7
791.571	102.4949	32141.75	31540.4
791.7123	104.7495	31336.65	30732.95
791.8536	107.0036	30472.6	29862.5
791.9949	109.2573	29710.2	29103
792.1363	111.5105	28926.95	28322.7
792.2777	113.7632	28202.05	27590.95
792.4191	116.0154	27576	26954.3
792.5605	118.2672	27172.9	26559.3
792.7019	120.5185	26719.9	26104.9
792.8434	122.7693	26373.35	25756.25
792.9849	125.0197	26088.4	25470.8
793.1264	127.2696	25823.25	25203.2
793.2679	129.519	25636.65	25010.25
793.4094	131.7679	25374.4	24745.8
793.551	134.0163	25186.35	24553.5
793.6926	136.2642	24944.3	24306.65
793.8342	138.5117	24670.7	24026.45
793.9758	140.7587	24348.2	23709
794.1175	143.0052	24136.35	23495
794.2591	145.2512	23816.25	23175.4
794.4008	147.4967	23510.9	22866.4
794.5425	149.7417	23361.3	22714.85
794.6842	151.9863	23198.85	22553.2
794.826	154.2304	23129.9	22479.5
794.9677	156.4739	22965.1	22306.05
795.1095	158.717	22889.15	22231.95
795.2513	160.9596	22695.65	22034.95
795.3931	163.2017	22421.3	21755.1
795.535	165.4433	22094.05	21429.35
795.6768	167.6844	21697.7	21031.05
795.8187	169.925	21417.45	20746.95
795.9606	172.1651	21019.05	20343.95
796.1025	174.4047	20700.05	20024.5
796.2445	176.6439	20455.95	19774.65
796.3864	178.8825	20205.85	19525.65
796.5284	181.1206	20025.5	19340.25
796.6704	183.3582	19850.05	19162.2
796.8124	185.5954	19748.65	19061.85
796.9544	187.832	19679.8	18984.7
797.0965	190.0681	19604.05	18910.05
797.2386	192.3037	19617.65	18919
797.3806	194.5388	19544	18844.55
797.5228	196.7734	19602.2	18901.15
797.6649	199.0075	19650.15	18941.6
797.807	201.2411	19819.75	19110.9
797.9492	203.4742	19853.7	19145.85
798.0914	205.7068	20021.45	19313.6
798.2336	207.9389	20139.9	19430.55
798.3758	210.1704	20274.95	19566
798.518	212.4015	20370.6	19653.55
798.6603	214.632	20556.55	19841.75
798.8025	216.862	20680.4	19971.6
798.9448	219.0915	20835.8	20138.7
799.0871	221.3205	20994	20292.1
799.2294	223.549	21176.15	20483.5
799.3718	225.777	21407.25	20711.8
799.5141	228.0044	21681.1	20985.4
799.6565	230.2314	22032.85	21340.85
799.7989	232.4578	22343.2	21648.05
799.9413	234.6837	22622.55	21919.15
800.0837	236.909	22817	22114.7
800.2262	239.1339	22814.1	22083.8
800.3687	241.3582	22626.1	21914.5
800.5111	243.582	22356.1	21616.1
800.6536	245.8053	22108.65	21375.95
800.7961	248.0281	21876.45	21147.65
800.9387	250.2503	21666.35	20932.5
801.0812	252.472	21617	20881.85
801.2238	254.6932	21632.35	20893
801.3664	256.9139	21576.65	20832.85
801.509	259.134	21635.2	20892.2
801.6516	261.3536	21722.3	20981.6
801.7942	263.5727	21891.4	21148.7
801.9369	265.7912	21932.6	21192.45
802.0795	268.0092	22058.9	21317.2
802.2222	270.2267	22079.3	21334.4
802.3649	272.4436	22097.75	21349.95
802.5076	274.6601	22024.3	21272.75
802.6504	276.8759	21929.45	21183.45
802.7931	279.0913	21852.65	21102.4
802.9359	281.3061	21737.5	20986.75
803.0787	283.5204	21750.15	20999.25
803.2215	285.7341	21757.2	20999.2
803.3643	287.9473	21849.8	21081.65
803.5071	290.16	22044.9	21280.1
803.6499	292.3721	22254.35	21499.4
803.7928	294.5837	22599.2	21843.2
803.9357	296.7947	22923.3	22162.85
804.0786	299.0052	23145.1	22389.5
804.2215	301.2152	22982.5	22219.35
804.3644	303.4246	22675.5	21915.6
804.5074	305.6334	22122.7	21364.8
804.6503	307.8418	21609	20845.75
804.7933	310.0495	21191.25	20429.6
804.9363	312.2568	20785.85	20026.35
805.0793	314.4635	20496.5	19733.6
805.2223	316.6696	20293.9	19531.25
805.3653	318.8752	20156.4	19385
805.5084	321.0802	20171.2	19406.85
805.6514	323.2847	20260.85	19492.7
805.7945	325.4887	20300.5	19535.6
805.9376	327.692	20219.1	19453.75
806.0807	329.8949	20128.05	19359
806.2238	332.0972	19847.75	19075.7
806.367	334.2989	19621.5	18846.6
806.5101	336.5001	19312.65	18535.7
806.6533	338.7007	19075.7	18300
806.7965	340.9008	18947.8	18171.4
806.9397	343.1003	18813.9	18036.4
807.0829	345.2992	18726.15	17947.2
807.2261	347.4976	18633.75	17851.7
807.3693	349.6955	18601.6	17815.85
807.5126	351.8927	18630.6	17844.6
807.6559	354.0895	18591.2	17796.15
807.7991	356.2856	18598.15	17812.95
807.9424	358.4812	18534.1	17749.65
808.0857	360.6763	18565.85	17778.65
808.2291	362.8707	18550.25	17762.8
808.3724	365.0646	18579.8	17790.2
808.5158	367.258	18591.45	17798.2
808.6591	369.4508	18598.25	17802.25
808.8025	371.643	18659.1	17864.75
808.9459	373.8346	18656.1	17857.15
809.0893	376.0257	18652.65	17850.15
809.2327	378.2162	18592.1	17787.2
809.3762	380.4062	18506	17701.75
809.5196	382.5956	18362.25	17556.2
809.6631	384.7844	18197.95	17391.35
809.8066	386.9726	18071.45	17262.15
809.9501	389.1603	17978.25	17169.45
810.0936	391.3474	17970.15	17129.45
810.2371	393.5339	17934.2	17128.8
810.3806	395.7199	17835.75	17034.95
810.5241	397.9052	17864.75	17069.9
810.6677	400.09	17861.4	17064.1
810.8113	402.2743	17952.55	17158.75
810.9548	404.4579	18044.15	17249.45
811.0984	406.641	18242.75	17446.8
811.2421	408.8235	18456.3	17661.7
811.3857	411.0054	18698.7	17899.25
811.5293	413.1868	19055.4	18256.35
811.673	415.3675	19250.55	18449.35
811.8166	417.5477	19369.65	18566.25
811.9603	419.7273	19392.25	18588.3
812.104	421.9064	19270.3	18456.6
812.2477	424.0848	19110.6	18299.1
812.3914	426.2627	18920.5	18110.65
812.5351	428.4399	18616.2	17804.55
812.6788	430.6166	18262.85	17449.2
812.8226	432.7928	17892.15	17077.9
812.9663	434.9683	17542.95	16726.15
813.1101	437.1432	17262.8	16444.15
813.2539	439.3176	17083.05	16263.9
813.3977	441.4914	16924.1	16103.45
813.5415	443.6645	16896	16074.45
813.6853	445.8371	16839.15	16017.25
813.8291	448.0091	16757.95	15937
813.973	450.1806	16705.65	15885.3
814.1168	452.3514	16633.15	15808.4
814.2607	454.5216	16660.25	15829.15
814.4046	456.6913	16596.7	15775.15
814.5485	458.8603	16585.2	15762.1
814.6924	461.0288	16672.1	15847.4
814.8363	463.1967	16624.9	15802.3
814.9802	465.3639	16715.65	15891.25
815.1241	467.5306	16747.8	15919.75
815.2681	469.6967	16869.85	16045.65
815.412	471.8622	16953.95	16128.3
815.556	474.0271	17043.5	16218.85
815.7	476.1914	17088.1	16261.6
815.844	478.3551	17062.55	16234.4
815.988	480.5182	17026.55	16196.25
816.132	482.6807	17074.85	16246.5
816.276	484.8426	17225.95	16398.9
816.4201	487.0039	17511.05	16684.35
816.5641	489.1647	17903.75	17073.9
816.7082	491.3248	18337.95	17507.85
816.8522	493.4843	18486.85	17657.05
816.9963	495.6432	18447.75	17617.45
817.1404	497.8015	18285.5	17452.8
817.2845	499.9592	18221.75	17392
817.4286	502.1163	18117.65	17288.1
817.5727	504.2728	17805	16969.65
817.7168	506.4287	17484.4	16650.7
817.861	508.5839	17101.65	16267.25
818.0051	510.7386	16803.95	15970.8
818.1493	512.8927	16619.35	15780.8
818.2935	515.0461	16500.9	15670
818.4377	517.199	16488.65	15656.3
818.5818	519.3512	16527	15694.75
818.726	521.5029	16673.8	15832.25
818.8703	523.6539	16829.3	15993.45
819.0145	525.8043	16876.75	16038
819.1587	527.9541	16859.75	16019.35
819.303	530.1033	16742.5	15906.8
819.4472	532.2519	16666.55	15827.75
819.5915	534.3999	16714.95	15873.5
819.7357	536.5472	16913.3	16073.3
819.88	538.694	17299.65	16457.9
820.0243	540.8401	17773.8	16930
820.1686	542.9856	18177	17333.8
820.3129	545.1305	18278.3	17432.1
820.4572	547.2748	18117.55	17273
820.6016	549.4185	17792	16942.75
820.7459	551.5615	17446.4	16603.05
820.8902	553.704	17388.95	16542.9
821.0346	555.8458	17333.25	16491.7
821.1789	557.987	17405.1	16563.5
821.3233	560.1276	17490.65	16646.55
821.4677	562.2675	17594.75	16752.55
821.6121	564.4069	17784.2	16941.5
821.7565	566.5456	17929	17088.9
821.9009	568.6837	17967.65	17122.2
822.0453	570.8212	17618.95	16778.65
822.1897	572.958	17134.35	16290.55
822.3342	575.0942	16693.45	15852.65
822.4786	577.2299	16370.55	15529.85
822.6231	579.3648	16265.85	15422.05
822.7675	581.4992	16253.4	15411.3
822.912	583.6329	16402.45	15562.35
823.0565	585.766	16627.5	15780
823.201	587.8985	16715	15871.85
823.3454	590.0304	16758.35	15887.4
823.4899	592.1616	16677.55	15826.75
823.6345	594.2922	16527.3	15679.7
823.779	596.4222	16313.6	15464.5
823.9235	598.5515	16108.7	15261.1
824.068	600.6802	15924.35	15076.1
824.2126	602.8083	15710.05	14862.2
824.3571	604.9358	15700.2	14849.55
824.5017	607.0626	15604.6	14755.2
824.6462	609.1888	15627.45	14776.15
824.7908	611.3144	15620.6	14772.55
824.9354	613.4393	15578.5	14727.65
825.08	615.5636	15574.7	14724.45
825.2246	617.6873	15521.15	14671.65
825.3692	619.8103	15415.6	14562.95
825.5138	621.9327	15286.85	14434.4
825.6584	624.0544	15153.55	14301
825.803	626.1756	15063.95	14212.1
825.9477	628.2961	14986.95	14135.7
826.0923	630.4159	14867.75	14015.55
826.237	632.5351	14848.8	13995.95
826.3816	634.6537	14785.3	13933.8
826.5263	636.7716	14771.2	13915
826.6709	638.8889	14777.2	13922.55
826.8156	641.0056	14741	13885.3
826.9603	643.1216	14718.2	13863.3
827.105	645.237	14738.15	13881.55
827.2497	647.3518	14677.15	13821.4
827.3944	649.4659	14646.05	13792.7
827.5391	651.5793	14620.7	13763.7
827.6838	653.6922	14578.5	13721.5
827.8285	655.8043	14520.9	13665
827.9733	657.9159	14498.2	13641.4
828.118	660.0268	14430.4	13575.8
828.2627	662.137	14397.65	13538.65
828.4075	664.2466	14370.15	13511.2
828.5522	666.3556	14337.1	13482.15
828.697	668.4639	14324.4	13461.7
828.8418	670.5716	14298.2	13441.2
828.9865	672.6786	14303	13444.45
829.1313	674.785	14315.65	13453.45
829.2761	676.8907	14344.3	13484.95
829.4209	678.9958	14385.75	13526.5
829.5657	681.1002	14368.45	13507.7
829.7105	683.204	14349.25	13485.45
829.8553	685.3072	14277.9	13417.15
830.0001	687.4097	14195.15	13332.1
830.1449	689.5115	14149.15	13283.55
830.2898	691.6127	14107.2	13249.25
830.4346	693.7132	14075.7	13215.05
830.5794	695.8131	14024.75	13149.55
830.7243	697.9123	14006.05	13144.15
830.8691	700.0109	13944.5	13081.05
831.014	702.1089	13937.75	13076.75
831.1588	704.2061	13974.3	13109.75
831.3037	706.3028	13959.4	13094.65
831.4486	708.3987	14009.95	13150.1
831.5935	710.4941	14032.8	13170.95
831.7383	712.5887	14165.75	13301.7
831.8832	714.6827	14360.25	13491.95
832.0281	716.7761	14651.85	13790.55
832.173	718.8688	14941.1	14074.8
832.3179	720.9608	15102.15	14233.6
832.4628	723.0522	15156.45	14287.5
832.6077	725.1429	15072.8	14207.75
832.7527	727.233	14904.85	14040.35
832.8976	729.3224	14770.7	13904.15
833.0425	731.4112	14524.3	13655.5
833.1874	733.4993	14318.7	13451.65
833.3324	735.5867	14112.65	13245.85
833.4773	737.6735	13938.55	13068.35
833.6222	739.7596	13817.8	12951.05
833.7672	741.845	13726.7	12860
833.9122	743.9298	13650.35	12782.4
834.0571	746.014	13619.95	12752.7
834.2021	748.0974	13582.35	12713.1
834.347	750.1802	13552.75	12684.5
834.492	752.2624	13606.9	12739.95
834.637	754.3439	13617.5	12748.6
834.782	756.4247	13698.25	12822.5
834.9269	758.5048	13815.25	12946.8
835.0719	760.5843	14064.9	13198
835.2169	762.6631	14422.45	13555.2
835.3619	764.7413	14909.4	14043
835.5069	766.8188	15559	14687.6
835.6519	768.8956	16071.85	15199.7
835.7969	770.9718	16366.55	15497.1
835.9419	773.0473	16263.85	15394.05
836.0869	775.1221	15946.35	15076.35
836.232	777.1962	15559.45	14690.15
836.377	779.2697	15373.3	14501.35
836.522	781.3426	15431.5	14554.15
836.667	783.4147	15574.65	14705.95
836.8121	785.4862	15837.1	14967.75
836.9571	787.557	15740.85	14870.85
837.1021	789.6271	15347.55	14474.7
837.2472	791.6966	14731.55	13862.65
837.3922	793.7654	14142.85	13269.25
837.5373	795.8335	13766	12895.55
837.6823	797.901	13474.3	12606.1
837.8274	799.9678	13350.15	12478.75
837.9724	802.0339	13309.35	12442.45
838.1175	804.0993	13291.35	12410.7
838.2626	806.1641	13232.8	12363.15
838.4076	808.2282	13176.25	12306.4
838.5527	810.2916	13063.15	12188.95
838.6978	812.3544	12966.55	12096.4
838.8428	814.4164	12874.1	12005.3
838.9879	816.4778	12895.55	12021.9
839.133	818.5385	12906.4	12036
839.2781	820.5986	12999.1	12128.65
839.4232	822.658	13135.6	12262.85
839.5682	824.7166	13293.5	12422.5
839.7133	826.7747	13638.3	12767.05
839.8584	828.832	13973.3	13103.5
840.0035	830.8886	14202	13327.9
840.1486	832.9446	14329.2	13457.2
840.2937	834.9999	14276.25	13404.7
840.4388	837.0545	14165.5	13288.9
840.5839	839.1085	14016.35	13144.85
840.729	841.1618	13855.55	12981.25
840.8741	843.2143	13723.2	12851.1
841.0192	845.2662	13571.5	12698.45
841.1643	847.3175	13463.7	12591.2
841.3095	849.368	13327.4	12453.1
841.4546	851.4179	13205.3	12334.65
841.5997	853.467	13038.05	12163.45
841.7448	855.5155	12942.55	12068.1
841.8899	857.5633	12837.6	11961.45
842.0351	859.6105	12723.8	11851.75
842.1802	861.6569	12623.35	11747.75
842.3253	863.7027	12540.4	11665.25
842.4704	865.7478	12485.7	11613.45
842.6156	867.7922	12479.1	11605.2
842.7607	869.8359	12463.4	11589.95
842.9058	871.8789	12524.85	11648.4
843.0509	873.9212	12717.55	11809.4
843.1961	875.9629	12809.2	11933.35
843.3412	878.0039	12984.15	12106.75
843.4863	880.0441	13047.85	12174.25
843.6315	882.0837	13059.7	12183.45
843.7766	884.1226	12997.85	12122.95
843.9218	886.1609	12948.55	12073.65
844.0669	888.1984	12911.95	12038
844.212	890.2352	12916.4	12043.45
844.3572	892.2714	12906.8	12028.75
844.5023	894.3069	12843.5	11967.95
844.6475	896.3416	12737	11862.05
844.7926	898.3757	12618.6	11743.5
844.9377	900.4091	12577	11702.3
845.0829	902.4418	12574.45	11694.05
845.228	904.4739	12569.3	11689.2
845.3732	906.5052	12609.15	11732.05
845.5183	908.5358	12507.2	11632.75
845.6635	910.5658	12343.95	11467.05
845.8086	912.595	12155.15	11279.5
845.9538	914.6236	11962.2	11087.65
846.0989	916.6515	11868.75	10993.6
846.2441	918.6786	11808.2	10930.15
846.3892	920.7051	11853.3	10976
846.5344	922.7309	11898.8	11022.45
846.6795	924.756	11912.05	11034.45
846.8246	926.7804	12014.3	11133.45
846.9698	928.8041	11977.6	11097.45
847.1149	930.8272	12009.9	11133.5
847.2601	932.8495	11928.4	11047.55
847.4052	934.8711	11909.7	11032.15
847.5504	936.892	11774.7	10896.9
847.6955	938.9123	11645.6	10768
847.8407	940.9318	11583.15	10704.7
847.9858	942.9506	11502.9	10622.35
848.131	944.9688	11396.1	10517.4
848.2761	946.9862	11322.65	10444.05
848.4213	949.003	11217.9	10338.85
848.5664	951.019	11176.15	10298.4
848.7115	953.0344	11157.15	10280.1
848.8567	955.0491	11149.5	10270.8
849.0018	957.063	11206.85	10330.8
849.147	959.0763	11295.1	10417.05
849.2921	961.0888	11346.9	10465.4
849.4373	963.1007	11386.6	10507.65
849.5824	965.1119	11413.65	10535.45
849.7275	967.1223	11409	10531.05
849.8727	969.1321	11412.15	10533.35
850.0178	971.1412	11389.45	10510
850.1629	973.1495	11418.55	10540
850.3081	975.1572	11450.5	10536.2
850.4532	977.1641	11439.35	10560.85
850.5983	979.1704	11407.3	10527.95
850.7435	981.1759	11372.05	10489.8
850.8886	983.1808	11405.8	10524.1
851.0337	985.1849	11458	10568.5
851.1788	987.1884	11555.2	10673.9
851.324	989.1911	11734.2	10851.75
851.4691	991.1932	11823	10941.3
851.6142	993.1945	11841.95	10962.75
851.7593	995.1951	11787.9	10906.7
851.9045	997.1951	11763.65	10875.6
852.0496	999.1943	11690.4	10812.4
852.1947	1001.1928	11673.2	10791.75
852.3398	1003.1906	11671.55	10793.1
852.4849	1005.1877	11756.5	10876
852.63	1007.1841	11767.15	10887.2
852.7751	1009.1798	11720.5	10842.8
852.9202	1011.1748	11522.4	10643.1
853.0653	1013.1691	11357.5	10476.1
853.2104	1015.1627	11135.35	10254.15
853.3555	1017.1556	10875.2	9997.25
853.5006	1019.1477	10784.65	9902.85
853.6457	1021.1392	10660.55	9780.85
853.7908	1023.1299	10630.4	9751.3
853.9359	1025.12	10684.8	9800.75
854.081	1027.1093	10696.5	9817.55
854.2261	1029.0979	10799.6	9921.15
854.3712	1031.0859	10869.2	9990.2
854.5163	1033.0731	10905.35	10025.65
854.6613	1035.0596	10830.7	9954.3
854.8064	1037.0454	10676.85	9795.2
854.9515	1039.0304	10560.75	9679.9
855.0965	1041.0148	10405.6	9523.3
855.2416	1042.9985	10326.45	9446.5
855.3867	1044.9814	10241.55	9362.55
855.5317	1046.9636	10200.8	9316.95
855.6768	1048.9452	10168.85	9288.65
855.8219	1050.926	10191.25	9311.3
855.9669	1052.9061	10189.75	9310.8
856.112	1054.8855	10180.65	9298.35
856.257	1056.8642	10211	9329.85
856.4021	1058.8421	10248.2	9366.8
856.5471	1060.8194	10281.1	9402.05
856.6921	1062.7959	10309	9428.75
856.8372	1064.7717	10326.4	9444.2
856.9822	1066.7469	10380.4	9495.7
857.1272	1068.7213	10409.55	9525.45
857.2723	1070.695	10419.75	9538.15
857.4173	1072.6679	10366.85	9486.55
857.5623	1074.6402	10384.15	9503.3
857.7073	1076.6117	10339.6	9450.7
857.8523	1078.5826	10258.35	9377.45
857.9973	1080.5527	10204.7	9321.65
858.1423	1082.5221	10224.15	9342.5
858.2873	1084.4908	10334.75	9452.35
858.4323	1086.4587	10456.45	9573.6
858.5773	1088.426	10558.65	9676.25
858.7223	1090.3925	10545.3	9658.9
858.8673	1092.3584	10501	9622.25
859.0123	1094.3235	10426.1	9546.25
859.1573	1096.2879	10410.8	9530.9
859.3022	1098.2515	10469.4	9588.7
859.4472	1100.2145	10544	9660.25
859.5922	1102.1767	10662.9	9779.6
859.7371	1104.1382	10864.45	9982.8
859.8821	1106.099	11059.75	10173.1
860.027	1108.0591	11292.65	10409.35
860.172	1110.0185	11434.5	10549.95
860.3169	1111.9771	11496.7	10615.1
860.4619	1113.9351	11330.8	10450.35
860.6068	1115.8923	11090.15	10208.5
860.7517	1117.8488	10823.25	9941.75
860.8967	1119.8045	10605.15	9722.65
861.0416	1121.7596	10445.95	9563.8
861.1865	1123.7139	10362.95	9481.95
861.3314	1125.6675	10319.35	9435.75
861.4763	1127.6204	10357.35	9474.8
861.6212	1129.5726	10326.15	9439.7
861.7661	1131.524	10280.95	9401.55
861.911	1133.4748	10225.55	9342.3
862.0559	1135.4248	10106.6	9222
862.2008	1137.3741	10035.35	9153.75
862.3457	1139.3226	9961.35	9078.45
862.4905	1141.2705	9885.7	9003
862.6354	1143.2176	9792.95	8904.75
862.7803	1145.164	9786.5	8902.4
862.9251	1147.1097	9748.25	8865.2
863.07	1149.0546	9678.9	8794.25
863.2148	1150.9989	9613.5	8732.45
863.3597	1152.9424	9443.9	8561.45
863.5045	1154.8852	9318.55	8435.45
863.6493	1156.8272	9216.75	8334.8
863.7942	1158.7686	9200.95	8310.95
863.939	1160.7092	9168.7	8284.1
864.0838	1162.6491	9180.05	8295.2
864.2286	1164.5883	9268.6	8388
864.3734	1166.5267	9379.4	8496.55
864.5182	1168.4644	9513.8	8630.3
864.663	1170.4014	9699.3	8814.65
864.8078	1172.3377	9942.25	9060.95
864.9526	1174.2732	10188.5	9306.1
865.0974	1176.2081	10537.4	9655.15
865.2421	1178.1421	10876.15	9989.9
865.3869	1180.0755	11207.9	10326.6
865.5317	1182.0082	11457.95	10575
865.6764	1183.9401	11534.8	10650.35
865.8212	1185.8713	11369.4	10489.15
865.9659	1187.8017	11118.65	10235
866.1106	1189.7315	10800.75	9918.3
