Software Version:	3.9.2.0
Unit SN:	10000200
Spectrometer SN:	6960
Date:	3/14/2024 1:49:41 PM
Data Line Index:	25
Spectral Points:	2048
Integration time (ms):	125
Averages:	20
Delay (ms):	30000
Sequence Number:	1
Processing:	dark subtract
Laser Power (mW):	305
Laser Current (mA):	824
Laser Diode Temp (C):	25
Laser Case Temp (C):	28.9
System Temp (C):	28.9
Spectrometer Temp (C):	26.7
CCD Temp (C):	0.009
Secondary Temp (C):	20.013
Heatsink Temp (C):	24.717
CCDPCB Temp (C):	38.041
SecondaryPCB Temp (C):	35.873

Wavelength	RamanShift	Raw Counts	Dark Subtracted
787.061	30.1047	463.85	53.55
787.2016	32.3739	462.2	53.8
787.3422	34.6426	468.05	59
787.4828	36.9109	477	67.25
787.6235	39.1787	484.1	69.35
787.7642	41.4461	491.35	72.9
787.9049	43.7131	504.7	81.9
788.0456	45.9796	512.6	85
788.1863	48.2456	527.8	97
788.3271	50.5112	537.35	102.4
788.4679	52.7764	545.8	110.1
788.6087	55.0411	558.6	118.9
788.7496	57.3054	568.6	123.7
788.8904	59.5692	582.6	133.9
789.0313	61.8326	594.4	142.6
789.1722	64.0955	613.25	156.05
789.3132	66.3579	628.85	167.65
789.4541	68.6199	652	186.4
789.5951	70.8815	680.2	211.7
789.7361	73.1426	762.95	290.2
789.8771	75.4032	974.25	497.5
790.0181	77.6634	1492.2	1008.05
790.1592	79.9231	2725.4	2236.25
790.3003	82.1824	5426.7	4928.3
790.4414	84.4412	10407.7	9892.3
790.5825	86.6995	17469.35	16932.15
790.7237	88.9574	24559.55	24000.15
790.8648	91.2148	29518.8	28946.45
791.006	93.4717	31993.15	31412.15
791.1472	95.7282	32572.55	31982.6
791.2885	97.9842	32569.7	31979.6
791.4297	100.2398	32078.8	31486.5
791.571	102.4949	31528.3	30932.65
791.7123	104.7495	30717.5	30117.1
791.8536	107.0036	29957.4	29357.25
791.9949	109.2573	29165.2	28565.65
792.1363	111.5105	28384.15	27782.15
792.2777	113.7632	27670.6	27065.9
792.4191	116.0154	26971.4	26357.9
792.5605	118.2672	26559.65	25952.85
792.7019	120.5185	26068.1	25457.7
792.8434	122.7693	25690.7	25078.05
792.9849	125.0197	25390.7	24777
793.1264	127.2696	25107	24493.05
793.2679	129.519	24970.55	24351.9
793.4094	131.7679	24764.1	24141.4
793.551	134.0163	24583.95	23958.9
793.6926	136.2642	24350.1	23717.3
793.8342	138.5117	24141.9	23500.5
793.9758	140.7587	23882.55	23247.85
794.1175	143.0052	23666.8	23029.7
794.2591	145.2512	23437.85	22802.3
794.4008	147.4967	23187.15	22550.95
794.5425	149.7417	23034.2	22396
794.6842	151.9863	22913.1	22271.65
794.826	154.2304	22843.45	22195.25
794.9677	156.4739	22692	22039.25
795.1095	158.717	22585.5	21939.5
795.2513	160.9596	22429.45	21774.45
795.3931	163.2017	22166.2	21510.05
795.535	165.4433	21863.45	21206.05
795.6768	167.6844	21451.55	20790.95
795.8187	169.925	21111.3	20450.5
795.9606	172.1651	20741.65	20077
796.1025	174.4047	20456.25	19789
796.2445	176.6439	20193.85	19520.85
796.3864	178.8825	19873.2	19198.35
796.5284	181.1206	19745.1	19066.8
796.6704	183.3582	19535.75	18855.25
796.8124	185.5954	19423.8	18741.75
796.9544	187.832	19331.1	18640.55
797.0965	190.0681	19298.95	18607.9
797.2386	192.3037	19265.2	18574.25
797.3806	194.5388	19235.8	18541.15
797.5228	196.7734	19306.5	18609.5
797.6649	199.0075	19356.2	18655.35
797.807	201.2411	19498.65	18792.6
797.9492	203.4742	19546.6	18838.85
798.0914	205.7068	19651.4	18943.75
798.2336	207.9389	19760.2	19055.85
798.3758	210.1704	19904.95	19199.55
798.518	212.4015	19981.05	19267.85
798.6603	214.632	20183.65	19469.5
798.8025	216.862	20379.55	19675.15
798.9448	219.0915	20503.05	19803.65
799.0871	221.3205	20729.35	20033.9
799.2294	223.549	20980.25	20291.4
799.3718	225.777	21231.8	20544.05
799.5141	228.0044	21602.4	20910.55
799.6565	230.2314	22067.55	21379.45
799.7989	232.4578	22477.5	21784.85
799.9413	234.6837	22851.7	22154.65
800.0837	236.909	23041.45	22343.75
800.2262	239.1339	23019.15	22303.3
800.3687	241.3582	22755.5	22047.4
800.5111	243.582	22445.45	21710
800.6536	245.8053	22094.5	21365.2
800.7961	248.0281	21729.25	21007.6
800.9387	250.2503	21491.7	20768.55
801.0812	252.472	21342.25	20610.6
801.2238	254.6932	21289.9	20556.85
801.3664	256.9139	21195.85	20458.55
801.509	259.134	21176.2	20436.1
801.6516	261.3536	21149.8	20411.6
801.7942	263.5727	21228.05	20490.15
801.9369	265.7912	21210.65	20471.3
802.0795	268.0092	21228.6	20491.2
802.2222	270.2267	21194.55	20455.35
802.3649	272.4436	21125.8	20384.5
802.5076	274.6601	21068.05	20320.2
802.6504	276.8759	20965.4	20220.35
802.7931	279.0913	20930.35	20186.1
802.9359	281.3061	20858.25	20110.1
803.0787	283.5204	20885.9	20134.45
803.2215	285.7341	20957.6	20207.2
803.3643	287.9473	21097.2	20333.6
803.5071	290.16	21336.55	20574.3
803.6499	292.3721	21629.85	20876.05
803.7928	294.5837	22037.2	21281.85
803.9357	296.7947	22427.35	21673.95
804.0786	299.0052	22605.3	21852.15
804.2215	301.2152	22448.45	21689.4
804.3644	303.4246	22064.95	21311.05
804.5074	305.6334	21481.15	20729.6
804.6503	307.8418	20920.25	20161.1
804.7933	310.0495	20461.75	19700.4
804.9363	312.2568	20103.75	19345.85
805.0793	314.4635	19844.15	19085.3
805.2223	316.6696	19739.3	18980
805.3653	318.8752	19643.65	18872.8
805.5084	321.0802	19729.6	18970.2
805.6514	323.2847	19817.7	19051.35
805.7945	325.4887	19832.3	19068.55
805.9376	327.692	19797.3	19030.4
806.0807	329.8949	19678.3	18908.2
806.2238	332.0972	19383.7	18616
806.367	334.2989	19079.35	18308.4
806.5101	336.5001	18775.45	18005.1
806.6533	338.7007	18569.05	17797.6
806.7965	340.9008	18431.65	17659.7
806.9397	343.1003	18303.45	17526.8
807.0829	345.2992	18220.3	17443.75
807.2261	347.4976	18199.5	17424.25
807.3693	349.6955	18173.85	17393.6
807.5126	351.8927	18242.95	17459.7
807.6559	354.0895	18198.3	17403.8
807.7991	356.2856	18206.35	17425.25
807.9424	358.4812	18221.75	17442.05
808.0857	360.6763	18206.1	17423.8
808.2291	362.8707	18189.5	17405.5
808.3724	365.0646	18183.7	17399.35
808.5158	367.258	18208.55	17420.3
808.6591	369.4508	18180.35	17389
808.8025	371.643	18289.45	17499.15
808.9459	373.8346	18248.6	17452.25
809.0893	376.0257	18206.85	17409.3
809.2327	378.2162	18119.25	17321.2
809.3762	380.4062	17999.5	17199.55
809.5196	382.5956	17841.35	17038.9
809.6631	384.7844	17728.35	16928.95
809.8066	386.9726	17576.6	16772.5
809.9501	389.1603	17533.45	16734.65
810.0936	391.3474	17459.25	16624
810.2371	393.5339	17422.6	16622.7
810.3806	395.7199	17337	16543.7
810.5241	397.9052	17357.55	16568
810.6677	400.09	17360.8	16568.2
810.8113	402.2743	17421.6	16632.55
810.9548	404.4579	17455.55	16663.85
811.0984	406.641	17640.9	16849.85
811.2421	408.8235	17869.65	17078.6
811.3857	411.0054	18173.5	17377.7
811.5293	413.1868	18627.6	17829.75
811.673	415.3675	18930.45	18133.45
811.8166	417.5477	19082.85	18286.5
811.9603	419.7273	19113.25	18311.95
812.104	421.9064	19015.45	18210.6
812.2477	424.0848	18843.3	18041.45
812.3914	426.2627	18637.2	17829.7
812.5351	428.4399	18311	17502.9
812.6788	430.6166	17914.4	17101.1
812.8226	432.7928	17510.15	16698.5
812.9663	434.9683	17169.3	16354.75
813.1101	437.1432	16924.2	16107.1
813.2539	439.3176	16732.6	15917.8
813.3977	441.4914	16603.45	15787.35
813.5415	443.6645	16557.1	15738.6
813.6853	445.8371	16453.75	15634.85
813.8291	448.0091	16398.2	15578.7
813.973	450.1806	16329.55	15509.9
814.1168	452.3514	16256.05	15435.95
814.2607	454.5216	16288.35	15458.65
814.4046	456.6913	16179.1	15360.1
814.5485	458.8603	16184.4	15363.1
814.6924	461.0288	16272.3	15451.8
814.8363	463.1967	16274.05	15450.3
814.9802	465.3639	16361.3	15537.35
815.1241	467.5306	16445.9	15624.25
815.2681	469.6967	16572.45	15747.8
815.412	471.8622	16674.45	15854.35
815.556	474.0271	16852.35	16032.65
815.7	476.1914	16898.8	16075.1
815.844	478.3551	16861.1	16037.05
815.988	480.5182	16841.4	16017.8
816.132	482.6807	16821	15997.05
816.276	484.8426	16950	16126.7
816.4201	487.0039	17244.75	16419.2
816.5641	489.1647	17622.8	16794.15
816.7082	491.3248	18063.45	17238.25
816.8522	493.4843	18209.65	17387.3
816.9963	495.6432	18185.45	17362.15
817.1404	497.8015	18070.05	17241.5
817.2845	499.9592	18077.6	17252.4
817.4286	502.1163	17960.25	17134
817.5727	504.2728	17712.65	16884.7
817.7168	506.4287	17396.45	16568.1
817.861	508.5839	16928.5	16099.5
818.0051	510.7386	16583.75	15754.65
818.1493	512.8927	16412.3	15572.4
818.2935	515.0461	16252.25	15420.8
818.4377	517.199	16183.5	15354.15
818.5818	519.3512	16169.25	15341.5
818.726	521.5029	16244.45	15408.05
818.8703	523.6539	16320.25	15485.3
819.0145	525.8043	16371.5	15537.9
819.1587	527.9541	16343.35	15505
819.303	530.1033	16342.8	15507.65
819.4472	532.2519	16311.15	15474.2
819.5915	534.3999	16457.05	15620.85
819.7357	536.5472	16693.85	15859.1
819.88	538.694	17170.4	16330.5
820.0243	540.8401	17724.7	16884.95
820.1686	542.9856	18225.5	17386.2
820.3129	545.1305	18338.55	17499.5
820.4572	547.2748	18188.85	17349.6
820.6016	549.4185	17814.1	16973.55
820.7459	551.5615	17397.85	16560.6
820.8902	553.704	17262.75	16424.7
821.0346	555.8458	17182.25	16341.65
821.1789	557.987	17146.6	16309.65
821.3233	560.1276	17149.4	16310.25
821.4677	562.2675	17192.35	16355
821.6121	564.4069	17210.15	16370.4
821.7565	566.5456	17232.7	16393.65
821.9009	568.6837	17130.55	16291.7
822.0453	570.8212	16816.75	15976.8
822.1897	572.958	16451.55	15608.45
822.3342	575.0942	16133.6	15293.6
822.4786	577.2299	15891.2	15049.1
822.6231	579.3648	15866.25	15023.05
822.7675	581.4992	15888.55	15049.15
822.912	583.6329	16109.55	15269.45
823.0565	585.766	16342.25	15501.5
823.201	587.8985	16457.75	15615.75
823.3454	590.0304	16465.85	15601.15
823.4899	592.1616	16334.75	15487.9
823.6345	594.2922	16218.6	15376.4
823.779	596.4222	16026.6	15181.7
823.9235	598.5515	15823.65	14980.6
824.068	600.6802	15648.65	14806.55
824.2126	602.8083	15478.85	14634.75
824.3571	604.9358	15392.65	14548.25
824.5017	607.0626	15343.95	14498.45
824.6462	609.1888	15260.05	14414
824.7908	611.3144	15220.95	14376.35
824.9354	613.4393	15087.25	14241.35
825.08	615.5636	15007.55	14161.4
825.2246	617.6873	14882.05	14035.55
825.3692	619.8103	14805.65	13955.5
825.5138	621.9327	14711.25	13864
825.6584	624.0544	14649	13800.5
825.803	626.1756	14607.65	13761.4
825.9477	628.2961	14540.7	13690.65
826.0923	630.4159	14453.55	13602.4
826.237	632.5351	14394.6	13545.15
826.3816	634.6537	14337	13489.4
826.5263	636.7716	14294.6	13442
826.6709	638.8889	14296.35	13446.4
826.8156	641.0056	14305.8	13456.3
826.9603	643.1216	14291.45	13441.65
827.105	645.237	14265.5	13411.8
827.2497	647.3518	14259.65	13407.45
827.3944	649.4659	14239.45	13388.65
827.5391	651.5793	14228.85	13374.9
827.6838	653.6922	14192.4	13340.2
827.8285	655.8043	14189.55	13339.6
827.9733	657.9159	14162.45	13307.35
828.118	660.0268	14089.05	13236.05
828.2627	662.137	13987.25	13131.65
828.4075	664.2466	13954.9	13100.45
828.5522	666.3556	13899.7	13045.6
828.697	668.4639	13898.15	13039.45
828.8418	670.5716	13936.25	13083.2
828.9865	672.6786	13985.6	13130.7
829.1313	674.785	14027.6	13171.95
829.2761	676.8907	14059.05	13203.65
829.4209	678.9958	14124.15	13269.75
829.5657	681.1002	14102.75	13245.7
829.7105	683.204	14064.35	13206.25
829.8553	685.3072	13998.85	13140.15
830.0001	687.4097	13926.1	13068.75
830.1449	689.5115	13849.6	12988.6
830.2898	691.6127	13789.4	12932.2
830.4346	693.7132	13696.15	12840.15
830.5794	695.8131	13650	12776.3
830.7243	697.9123	13633.3	12773.85
830.8691	700.0109	13555.25	12695.75
831.014	702.1089	13540.25	12681.3
831.1588	704.2061	13529.65	12670.2
831.3037	706.3028	13535.25	12674.25
831.4486	708.3987	13561.9	12699
831.5935	710.4941	13629.75	12771.45
831.7383	712.5887	13793.8	12932.55
831.8832	714.6827	14085.05	13219.05
832.0281	716.7761	14414.3	13553.05
832.173	718.8688	14756.7	13893.65
832.3179	720.9608	14958.55	14092.65
832.4628	723.0522	14984.1	14119.5
832.6077	725.1429	14781.7	13922.7
832.7527	727.233	14487.45	13625.65
832.8976	729.3224	14234.95	13373.95
833.0425	731.4112	13948.55	13085.6
833.1874	733.4993	13756.75	12893
833.3324	735.5867	13557.1	12694.35
833.4773	737.6735	13403.15	12536.1
833.6222	739.7596	13320.35	12456.4
833.7672	741.845	13237.45	12375.3
833.9122	743.9298	13190.3	12327.1
834.0571	746.014	13168.65	12306.55
834.2021	748.0974	13185.65	12319.25
834.347	750.1802	13156.25	12290.25
834.492	752.2624	13182.85	12318.4
834.637	754.3439	13200.95	12338.55
834.782	756.4247	13279.85	12405.5
834.9269	758.5048	13397.2	12532.2
835.0719	760.5843	13602.85	12736.25
835.2169	762.6631	13911.8	13046.15
835.3619	764.7413	14354.65	13490.4
835.5069	766.8188	14938.15	14072.05
835.6519	768.8956	15425.4	14560.6
835.7969	770.9718	15733.6	14867.3
835.9419	773.0473	15558.75	14696.2
836.0869	775.1221	15220.45	14353.65
836.232	777.1962	14827.25	13960.95
836.377	779.2697	14624.15	13755.55
836.522	781.3426	14673.6	13789.25
836.667	783.4147	14907.35	14042.55
836.8121	785.4862	15193.2	14330.45
836.9571	787.557	15176.3	14312.95
837.1021	789.6271	14766.7	13898
837.2472	791.6966	14216.6	13350.8
837.3922	793.7654	13614.6	12748.6
837.5373	795.8335	13264.75	12396.15
837.6823	797.901	13038.9	12175
837.8274	799.9678	12934.9	12064.65
837.9724	802.0339	12921.45	12057.65
838.1175	804.0993	12955.65	12078.3
838.2626	806.1641	12915.5	12048.2
838.4076	808.2282	12854.25	11985.8
838.5527	810.2916	12741.1	11870
838.6978	812.3544	12635.15	11768.5
838.8428	814.4164	12531.1	11661.8
838.9879	816.4778	12540.1	11671.2
839.133	818.5385	12525.35	11660.25
839.2781	820.5986	12551.1	11683.4
839.4232	822.658	12690	11820.25
839.5682	824.7166	12806.2	11940.2
839.7133	826.7747	13027.7	12159.45
839.8584	828.832	13232.2	12364.6
840.0035	830.8886	13379.5	12509.15
840.1486	832.9446	13517.2	12648.15
840.2937	834.9999	13512.2	12645.4
840.4388	837.0545	13501.5	12627.15
840.5839	839.1085	13445.55	12574.25
840.729	841.1618	13349.05	12475.75
840.8741	843.2143	13308.45	12441.35
841.0192	845.2662	13167.05	12297.7
841.1643	847.3175	13112.75	12243.9
841.3095	849.368	12963.9	12093.75
841.4546	851.4179	12858.65	11988.35
841.5997	853.467	12699.45	11831.25
841.7448	855.5155	12575.95	11705.8
841.8899	857.5633	12474.7	11604.7
842.0351	859.6105	12329.4	11457
842.1802	861.6569	12240.45	11371.2
842.3253	863.7027	12149.55	11275.75
842.4704	865.7478	12114.55	11242.4
842.6156	867.7922	12119.9	11249.1
842.7607	869.8359	12168.3	11295.8
842.9058	871.8789	12240.5	11371.55
843.0509	873.9212	12427.8	11522.15
843.1961	875.9629	12541.3	11670.15
843.3412	878.0039	12691.85	11816.3
843.4863	880.0441	12811.65	11940.1
843.6315	882.0837	12791.4	11919.1
843.7766	884.1226	12692.45	11818.3
843.9218	886.1609	12555.9	11685.65
844.0669	888.1984	12476.1	11605.8
844.212	890.2352	12455.6	11585.15
844.3572	892.2714	12410.95	11534.75
844.5023	894.3069	12334.25	11460
844.6475	896.3416	12248.7	11375.2
844.7926	898.3757	12173.7	11300.05
844.9377	900.4091	12154.75	11278.8
845.0829	902.4418	12172.85	11296.95
845.228	904.4739	12167	11294.85
845.3732	906.5052	12153.75	11278.4
845.5183	908.5358	12045.45	11172.8
845.6635	910.5658	11897	11021.4
845.8086	912.595	11686.95	10813
845.9538	914.6236	11557.8	10686.55
846.0989	916.6515	11497.9	10625.25
846.2441	918.6786	11442.3	10566.3
846.3892	920.7051	11522	10645.95
846.5344	922.7309	11574.1	10699.35
846.6795	924.756	11625.7	10748.85
846.8246	926.7804	11713.8	10836.9
846.9698	928.8041	11669.65	10792.4
847.1149	930.8272	11664.8	10790.05
847.2601	932.8495	11634.15	10758.15
847.4052	934.8711	11539.6	10665.35
847.5504	936.892	11392.45	10515.7
847.6955	938.9123	11217.75	10343.7
847.8407	940.9318	11104.5	10228.85
847.9858	942.9506	11004.05	10129.7
848.131	944.9688	10902.2	10028.6
848.2761	946.9862	10864.1	9988.3
848.4213	949.003	10782.8	9907.15
848.5664	951.019	10747.3	9871.65
848.7115	953.0344	10729.65	9854.25
848.8567	955.0491	10761.4	9882
849.0018	957.063	10857.3	9982.1
849.147	959.0763	10928.95	10055
849.2921	961.0888	10961.7	10082.45
849.4373	963.1007	11035.45	10160.25
849.5824	965.1119	11082.6	10206.2
849.7275	967.1223	11108.9	10231.95
849.8727	969.1321	11092.2	10217.35
850.0178	971.1412	11081.3	10201.65
850.1629	973.1495	11114.95	10239.15
850.3081	975.1572	11154.2	10246.55
850.4532	977.1641	11159.55	10285.2
850.5983	979.1704	11116.5	10238.9
850.7435	981.1759	11069.7	10192.8
850.8886	983.1808	11148.2	10271.4
851.0337	985.1849	11231.6	10345.35
851.1788	987.1884	11389.8	10506.95
851.324	989.1911	11526	10646.8
851.4691	991.1932	11649	10767.05
851.6142	993.1945	11695.3	10818
851.7593	995.1951	11631.75	10754
851.9045	997.1951	11600	10714.25
852.0496	999.1943	11523.05	10646.95
852.1947	1001.1928	11467.1	10589.85
852.3398	1003.1906	11464.7	10588.35
852.4849	1005.1877	11522.05	10641.7
852.63	1007.1841	11477.1	10600.1
852.7751	1009.1798	11394.05	10519.7
852.9202	1011.1748	11224.65	10345.5
853.0653	1013.1691	11006.7	10130.5
853.2104	1015.1627	10786.85	9907.5
853.3555	1017.1556	10567.05	9690.7
853.5006	1019.1477	10464.85	9586.05
853.6457	1021.1392	10368.35	9491.2
853.7908	1023.1299	10365.3	9488
853.9359	1025.12	10393.65	9512.9
854.081	1027.1093	10411.6	9532.45
854.2261	1029.0979	10504.5	9625.9
854.3712	1031.0859	10557.35	9682
854.5163	1033.0731	10545.35	9665.95
854.6613	1035.0596	10479.2	9601.65
854.8064	1037.0454	10328.4	9451.15
854.9515	1039.0304	10231.1	9352.95
855.0965	1041.0148	10085.35	9207.65
855.2416	1042.9985	9974.55	9094.9
855.3867	1044.9814	9913.65	9035.15
855.5317	1046.9636	9869	8989.75
855.6768	1048.9452	9822.15	8944.4
855.8219	1050.926	9821.5	8946.2
855.9669	1052.9061	9826.65	8949.2
856.112	1054.8855	9828.1	8948.65
856.257	1056.8642	9837.25	8959.1
856.4021	1058.8421	9875.2	8996.5
856.5471	1060.8194	9902.4	9025.35
856.6921	1062.7959	9925.4	9047.95
856.8372	1064.7717	9952	9073.1
856.9822	1066.7469	9947.15	9066.3
857.1272	1068.7213	9930.55	9049.75
857.2723	1070.695	9947.15	9069.6
857.4173	1072.6679	9908.8	9030.9
857.5623	1074.6402	9832.3	8952.7
857.7073	1076.6117	9811.55	8928
857.8523	1078.5826	9786.75	8906.55
857.9973	1080.5527	9805.7	8925.55
858.1423	1082.5221	9876.55	8997.15
858.2873	1084.4908	10052.95	9173.9
858.4323	1086.4587	10216.5	9336.15
858.5773	1088.426	10347.65	9467.5
858.7223	1090.3925	10343.45	9457.7
858.8673	1092.3584	10282.85	9404.55
859.0123	1094.3235	10154.15	9275.15
859.1573	1096.2879	10118.35	9235.55
859.3022	1098.2515	10079.4	9201.3
859.4472	1100.2145	10136.4	9257.3
859.5922	1102.1767	10235.7	9354.25
859.7371	1104.1382	10397.65	9517.9
859.8821	1106.099	10585.95	9705.15
860.027	1108.0591	10827.6	9945.55
860.172	1110.0185	10944.7	10062
860.3169	1111.9771	10990.8	10110.7
860.4619	1113.9351	10787.2	9907.85
860.6068	1115.8923	10483.1	9602.6
860.7517	1117.8488	10165.05	9284.6
860.8967	1119.8045	9892.8	9014.6
861.0416	1121.7596	9775.3	8897.05
861.1865	1123.7139	9688.5	8808.25
861.3314	1125.6675	9692.75	8813.65
861.4763	1127.6204	9732.2	8854.45
861.6212	1129.5726	9699.55	8816.3
861.7661	1131.524	9680.3	8800.6
861.911	1133.4748	9650.6	8770.45
862.0559	1135.4248	9645.65	8763.9
862.2008	1137.3741	9611.8	8733.55
862.3457	1139.3226	9522.6	8641.6
862.4905	1141.2705	9467.85	8590.4
862.6354	1143.2176	9397.75	8512.6
862.7803	1145.164	9397.4	8515.85
862.9251	1147.1097	9398.05	8517.45
863.07	1149.0546	9384.65	8503.8
863.2148	1150.9989	9272.45	8392.4
863.3597	1152.9424	9121.55	8240.05
863.5045	1154.8852	8941.75	8061.1
863.6493	1156.8272	8818	7937.65
863.7942	1158.7686	8776.8	7889.2
863.939	1160.7092	8747.95	7865.25
864.0838	1162.6491	8728.5	7845.35
864.2286	1164.5883	8836.5	7956.55
864.3734	1166.5267	8901.65	8020.95
864.5182	1168.4644	9022	8142
864.663	1170.4014	9214.2	8324.55
864.8078	1172.3377	9468.2	8587.7
864.9526	1174.2732	9702.75	8820.3
865.0974	1176.2081	9969.45	9090.3
865.2421	1178.1421	10217.5	9334.85
865.3869	1180.0755	10465.3	9586.65
865.5317	1182.0082	10565.85	9684.45
865.6764	1183.9401	10576.5	9695.05
865.8212	1185.8713	10429.25	9548.1
865.9659	1187.8017	10178.45	9298
866.1106	1189.7315	9894.1	9015.1
866.2554	1191.6605	9612	8700.7
