Software Version:	3.9.2.0
Unit SN:	10000200
Spectrometer SN:	6960
Date:	3/14/2024 1:34:45 PM
Data Line Index:	25
Spectral Points:	2048
Integration time (ms):	125
Averages:	20
Delay (ms):	30000
Sequence Number:	1
Processing:	dark subtract
Laser Power (mW):	305
Laser Current (mA):	824
Laser Diode Temp (C):	25
Laser Case Temp (C):	28.6
System Temp (C):	28.6
Spectrometer Temp (C):	26.4
CCD Temp (C):	0.012
Secondary Temp (C):	20.004
Heatsink Temp (C):	24.575
CCDPCB Temp (C):	38.208
SecondaryPCB Temp (C):	35.662

Wavelength	RamanShift	Raw Counts	Dark Subtracted
787.061	30.1047	466.65	56.25
787.2016	32.3739	464.9	53.95
787.3422	34.6426	469.15	57.65
787.4828	36.9109	477.15	65.55
787.6235	39.1787	488.1	71.65
787.7642	41.4461	498.25	76.15
787.9049	43.7131	506.7	81.4
788.0456	45.9796	512.35	85.1
788.1863	48.2456	524.25	91.75
788.3271	50.5112	534.7	96.85
788.4679	52.7764	544.95	105.8
788.6087	55.0411	561.8	117.5
788.7496	57.3054	566.95	117.9
788.8904	59.5692	581.9	132.3
789.0313	61.8326	599.65	146.45
789.1722	64.0955	607.55	150.05
789.3132	66.3579	626.75	163.3
789.4541	68.6199	645.9	182.4
789.5951	70.8815	680.55	210.95
789.7361	73.1426	768.15	297.8
789.8771	75.4032	987.45	510.7
790.0181	77.6634	1520.25	1035.9
790.1592	79.9231	2801.45	2313.3
790.3003	82.1824	5595	5093.5
790.4414	84.4412	10710.35	10192.3
790.5825	86.6995	17888.2	17342.45
790.7237	88.9574	24974.2	24407.85
790.8648	91.2148	29954.05	29370.25
791.006	93.4717	32286.1	31687.35
791.1472	95.7282	32735.4	32135.35
791.2885	97.9842	32646.85	32039.15
791.4297	100.2398	32015.9	31409.8
791.571	102.4949	31232.5	30620.85
791.7123	104.7495	30399.9	29783.95
791.8536	107.0036	29493.5	28879.3
791.9949	109.2573	28704.35	28089.3
792.1363	111.5105	27980.5	27368.15
792.2777	113.7632	27293.3	26676.05
792.4191	116.0154	26737.85	26108.65
792.5605	118.2672	26328.55	25708.15
792.7019	120.5185	25905	25282.9
792.8434	122.7693	25641.65	25017.85
792.9849	125.0197	25358.55	24730.45
793.1264	127.2696	25071.45	24442
793.2679	129.519	24891.95	24256.45
793.4094	131.7679	24644.5	24010.9
793.551	134.0163	24436.65	23797.9
793.6926	136.2642	24094.65	23453.4
793.8342	138.5117	23829.85	23177.8
793.9758	140.7587	23436	22789.15
794.1175	143.0052	23141.8	22492.4
794.2591	145.2512	22818.8	22166.55
794.4008	147.4967	22540	21888.05
794.5425	149.7417	22361.8	21709.7
794.6842	151.9863	22154.05	21499.05
794.826	154.2304	22058.5	21401.55
794.9677	156.4739	21907.45	21244.7
795.1095	158.717	21788.4	21125.6
795.2513	160.9596	21633.75	20961.5
795.3931	163.2017	21349.2	20683.6
795.535	165.4433	21038.55	20368.25
795.6768	167.6844	20737.1	20063.9
795.8187	169.925	20395.05	19718.55
795.9606	172.1651	20004	19324.65
796.1025	174.4047	19754.45	19071.05
796.2445	176.6439	19467.75	18783.55
796.3864	178.8825	19242.6	18559.55
796.5284	181.1206	19130.05	18439.85
796.6704	183.3582	18972.75	18278.65
796.8124	185.5954	18868.5	18173.7
796.9544	187.832	18775.45	18077.25
797.0965	190.0681	18713.1	18014.45
797.2386	192.3037	18710.35	18007.3
797.3806	194.5388	18691.45	17981.8
797.5228	196.7734	18730.15	18021.1
797.6649	199.0075	18809.6	18095.6
797.807	201.2411	18937.85	18219.2
797.9492	203.4742	19019.55	18304.2
798.0914	205.7068	19144.8	18428.6
798.2336	207.9389	19257.8	18541.8
798.3758	210.1704	19393.45	18675.95
798.518	212.4015	19514.85	18792.45
798.6603	214.632	19651.7	18927.1
798.8025	216.862	19803.1	19085.5
798.9448	219.0915	19902.9	19193.8
799.0871	221.3205	20027.1	19320.2
799.2294	223.549	20132.35	19430.95
799.3718	225.777	20266.15	19567.1
799.5141	228.0044	20455.95	19752.35
799.6565	230.2314	20690.95	19990.8
799.7989	232.4578	20868.5	20165.5
799.9413	234.6837	21060.7	20351.45
800.0837	236.909	21192.5	20483.35
800.2262	239.1339	21198.65	20466.35
800.3687	241.3582	21091.45	20374.45
800.5111	243.582	20898.15	20156.85
800.6536	245.8053	20762.2	20024.3
800.7961	248.0281	20596.95	19861.55
800.9387	250.2503	20502.35	19764.9
801.0812	252.472	20545.7	19803.75
801.2238	254.6932	20632.6	19884.4
801.3664	256.9139	20658.9	19915
801.509	259.134	20787.7	20039.65
801.6516	261.3536	20944.15	20196.3
801.7942	263.5727	21219	20469.95
801.9369	265.7912	21366.8	20618.1
802.0795	268.0092	21582.25	20832.4
802.2222	270.2267	21681.35	20931.9
802.3649	272.4436	21741.45	20987.6
802.5076	274.6601	21720.95	20959.6
802.6504	276.8759	21603.2	20849.15
802.7931	279.0913	21488.85	20734.35
802.9359	281.3061	21385.4	20628.75
803.0787	283.5204	21368.3	20607.55
803.2215	285.7341	21314.35	20549.6
803.3643	287.9473	21383.35	20608.3
803.5071	290.16	21480.3	20709.1
803.6499	292.3721	21636.15	20873.2
803.7928	294.5837	21916.55	21152.2
803.9357	296.7947	22151.05	21387.75
804.0786	299.0052	22289.7	21524.75
804.2215	301.2152	22227.5	21459.65
804.3644	303.4246	21973.7	21208.15
804.5074	305.6334	21594.8	20832.2
804.6503	307.8418	21132.4	20366.35
804.7933	310.0495	20671.85	19904.15
804.9363	312.2568	20250.8	19482.9
805.0793	314.4635	19881.4	19109.55
805.2223	316.6696	19628	18855.05
805.3653	318.8752	19460	18680.4
805.5084	321.0802	19408.85	18635.4
805.6514	323.2847	19440.35	18668.9
805.7945	325.4887	19443.55	18670.1
805.9376	327.692	19425.25	18651.35
806.0807	329.8949	19364.85	18590.65
806.2238	332.0972	19133.45	18355.2
806.367	334.2989	18912	18132.3
806.5101	336.5001	18671.85	17890.2
806.6533	338.7007	18469.45	17686.6
806.7965	340.9008	18267.25	17484.15
806.9397	343.1003	18126.25	17342.35
807.0829	345.2992	18014.65	17227.85
807.2261	347.4976	17906.55	17119.75
807.3693	349.6955	17850.65	17061.1
807.5126	351.8927	17870.85	17079.45
807.6559	354.0895	17766.15	16964.9
807.7991	356.2856	17785.25	16992.6
807.9424	358.4812	17711.9	16920.7
808.0857	360.6763	17738.4	16948.05
808.2291	362.8707	17680.2	16883
808.3724	365.0646	17708.9	16915.75
808.5158	367.258	17732.5	16932.7
808.6591	369.4508	17785.9	16985.8
808.8025	371.643	17899.95	17099.1
808.9459	373.8346	17897.05	17093.95
809.0893	376.0257	17993.9	17187.9
809.2327	378.2162	17918.95	17112.65
809.3762	380.4062	17870.1	17062.95
809.5196	382.5956	17729.2	16920.9
809.6631	384.7844	17587.35	16776.15
809.8066	386.9726	17475.65	16665.5
809.9501	389.1603	17376.95	16566.2
810.0936	391.3474	17323.65	16481
810.2371	393.5339	17283.95	16468.55
810.3806	395.7199	17205.2	16398.9
810.5241	397.9052	17224.3	16422
810.6677	400.09	17254.1	16450
810.8113	402.2743	17361.05	16562.3
810.9548	404.4579	17480.2	16679.95
811.0984	406.641	17667.4	16867.45
811.2421	408.8235	17857.4	17054.95
811.3857	411.0054	18046.4	17244.4
811.5293	413.1868	18302.15	17497.95
811.673	415.3675	18425.9	17620.5
811.8166	417.5477	18484.5	17680.3
811.9603	419.7273	18417.15	17607.9
812.104	421.9064	18362.25	17547.8
812.2477	424.0848	18248.75	17437.45
812.3914	426.2627	18038.9	17227.15
812.5351	428.4399	17814.2	16996.55
812.6788	430.6166	17423.25	16605.85
812.8226	432.7928	17082	16258.8
812.9663	434.9683	16753.7	15934.6
813.1101	437.1432	16507.75	15685.2
813.2539	439.3176	16332.55	15510.5
813.3977	441.4914	16179.3	15353.4
813.5415	443.6645	16161.95	15333.3
813.6853	445.8371	16066.7	15243.65
813.8291	448.0091	16000.65	15177.2
813.973	450.1806	15967.45	15143.45
814.1168	452.3514	15889.15	15058.6
814.2607	454.5216	15907.7	15071.95
814.4046	456.6913	15856.45	15026.05
814.5485	458.8603	15911.4	15081.25
814.6924	461.0288	15920.4	15091.3
814.8363	463.1967	15913.2	15085.15
814.9802	465.3639	15981.85	15152.65
815.1241	467.5306	15960.7	15129.55
815.2681	469.6967	15988.75	15159.65
815.412	471.8622	16029.9	15199
815.556	474.0271	16089.25	15258.95
815.7	476.1914	16137.25	15304.45
815.844	478.3551	16157.4	15326.75
815.988	480.5182	16154.95	15324.75
816.132	482.6807	16217.3	15383.45
816.276	484.8426	16340.1	15506.35
816.4201	487.0039	16678.8	15848.35
816.5641	489.1647	17066.65	16230.95
816.7082	491.3248	17427.6	16595.65
816.8522	493.4843	17510.8	16676.4
816.9963	495.6432	17464.8	16633.15
817.1404	497.8015	17322.15	16485.7
817.2845	499.9592	17192.35	16356.65
817.4286	502.1163	17061.6	16226.85
817.5727	504.2728	16747.25	15906.75
817.7168	506.4287	16456.45	15620.05
817.861	508.5839	16081.2	15245.15
818.0051	510.7386	15841.3	15005.3
818.1493	512.8927	15718	14873.2
818.2935	515.0461	15672.6	14832.45
818.4377	517.199	15695.8	14856.6
818.5818	519.3512	15781.35	14941.65
818.726	521.5029	15997.9	15153.05
818.8703	523.6539	16168.9	15325.8
819.0145	525.8043	16265.95	15424.1
819.1587	527.9541	16229	15387.2
819.303	530.1033	16053.1	15209.2
819.4472	532.2519	15942.2	15100.2
819.5915	534.3999	15907.65	15062.45
819.7357	536.5472	16019.65	15173.5
819.88	538.694	16296.55	15453.2
820.0243	540.8401	16645.65	15802
820.1686	542.9856	16929.05	16082.9
820.3129	545.1305	16948.75	16102.05
820.4572	547.2748	16864.2	16019
820.6016	549.4185	16609.05	15762.65
820.7459	551.5615	16394.05	15548.65
820.8902	553.704	16331.65	15482.85
821.0346	555.8458	16344.1	15499.1
821.1789	557.987	16477.45	15635.15
821.3233	560.1276	16625.5	15778.6
821.4677	562.2675	16916.55	16070.95
821.6121	564.4069	17273.3	16426.3
821.7565	566.5456	17587.65	16744.7
821.9009	568.6837	17679.25	16831.85
822.0453	570.8212	17320.45	16472.25
822.1897	572.958	16696.75	15849
822.3342	575.0942	16092.05	15245.95
822.4786	577.2299	15734.95	14886.5
822.6231	579.3648	15550.95	14701.9
822.7675	581.4992	15497.85	14650.5
822.912	583.6329	15615.65	14766.4
823.0565	585.766	15793.75	14944.55
823.201	587.8985	15913.35	15067.1
823.3454	590.0304	15986.5	15116.5
823.4899	592.1616	15882.15	15032.2
823.6345	594.2922	15752.9	14902.5
823.779	596.4222	15496.25	14643.25
823.9235	598.5515	15303.9	14451.25
824.068	600.6802	15148.55	14295.3
824.2126	602.8083	14944.8	14092.25
824.3571	604.9358	14948.4	14094.95
824.5017	607.0626	14917.3	14065.15
824.6462	609.1888	14964.5	14110.35
824.7908	611.3144	15041.1	14186.75
824.9354	613.4393	15078	14224.4
825.08	615.5636	15127.7	14274.3
825.2246	617.6873	15106.2	14251.65
825.3692	619.8103	15038.8	14182.6
825.5138	621.9327	14861.4	14005.25
825.6584	624.0544	14677.1	13825.15
825.803	626.1756	14521.8	13668.25
825.9477	628.2961	14403.3	13547.8
826.0923	630.4159	14319.8	13465.5
826.237	632.5351	14267.85	13413.8
826.3816	634.6537	14227.9	13371.6
826.5263	636.7716	14191.95	13334.85
826.6709	638.8889	14201	13343.05
826.8156	641.0056	14239.25	13380.9
826.9603	643.1216	14193.25	13335.55
827.105	645.237	14161.5	13300.2
827.2497	647.3518	14090.45	13231.6
827.3944	649.4659	14040.95	13182.8
827.5391	651.5793	13982.45	13122.15
827.6838	653.6922	13941.15	13082.8
827.8285	655.8043	13912.8	13052.9
827.9733	657.9159	13887.05	13023.5
828.118	660.0268	13864.25	13002.6
828.2627	662.137	13818	12956.2
828.4075	664.2466	13783.05	12921.25
828.5522	666.3556	13790.1	12928.45
828.697	668.4639	13733.7	12871.8
828.8418	670.5716	13726.6	12863.9
828.9865	672.6786	13689.25	12825.85
829.1313	674.785	13670	12806.2
829.2761	676.8907	13626.55	12763.7
829.4209	678.9958	13658.85	12796.9
829.5657	681.1002	13633.55	12771.65
829.7105	683.204	13629.1	12765.05
829.8553	685.3072	13574.9	12711.8
830.0001	687.4097	13524.5	12660.55
830.1449	689.5115	13532.55	12666.6
830.2898	691.6127	13481.1	12616.75
830.4346	693.7132	13436.7	12572.6
830.5794	695.8131	13417.25	12538.85
830.7243	697.9123	13434.5	12569
830.8691	700.0109	13395.1	12529.85
831.014	702.1089	13422.75	12560.05
831.1588	704.2061	13457.95	12591.95
831.3037	706.3028	13457.25	12589.35
831.4486	708.3987	13482.35	12618.05
831.5935	710.4941	13505.1	12639.65
831.7383	712.5887	13607.05	12739.6
831.8832	714.6827	13711.4	12839.8
832.0281	716.7761	13888.05	13022.35
832.173	718.8688	14142.15	13276.1
832.3179	720.9608	14285.15	13416.8
832.4628	723.0522	14407.9	13539.9
832.6077	725.1429	14387.75	13521.65
832.7527	727.233	14340.4	13471.9
832.8976	729.3224	14301.1	13431.25
833.0425	731.4112	14142.9	13274.75
833.1874	733.4993	13993.05	13122.4
833.3324	735.5867	13775.85	12907.45
833.4773	737.6735	13538.4	12668.65
833.6222	739.7596	13342.2	12472.15
833.7672	741.845	13212.95	12342.9
833.9122	743.9298	13151.55	12277.75
834.0571	746.014	13098.6	12232.05
834.2021	748.0974	13067.65	12195.05
834.347	750.1802	13084.1	12214.95
834.492	752.2624	13067.25	12197.65
834.637	754.3439	13110.15	12239
834.782	756.4247	13221.85	12344.9
834.9269	758.5048	13347.2	12477.3
835.0719	760.5843	13594.75	12724.25
835.2169	762.6631	13986.1	13115.3
835.3619	764.7413	14531.8	13662.2
835.5069	766.8188	15194.45	14320.55
835.6519	768.8956	15732.7	14859.8
835.7969	770.9718	16084.85	15212.8
835.9419	773.0473	16007.05	15138.3
836.0869	775.1221	15736.95	14867.4
836.232	777.1962	15387	14515.3
836.377	779.2697	15278.5	14405.85
836.522	781.3426	15289.7	14406.45
836.667	783.4147	15394.9	14524.25
836.8121	785.4862	15551.4	14682.2
836.9571	787.557	15398.6	14525.3
837.1021	789.6271	14971.4	14099.3
837.2472	791.6966	14353.95	13482.55
837.3922	793.7654	13725.7	12851.4
837.5373	795.8335	13312.2	12437.25
837.6823	797.901	13036	12162.95
837.8274	799.9678	12884	12008.2
837.9724	802.0339	12764.8	11894.9
838.1175	804.0993	12777	11895.45
838.2626	806.1641	12704.85	11830.65
838.4076	808.2282	12628.2	11756.5
838.5527	810.2916	12553.2	11677.7
838.6978	812.3544	12460.95	11591.5
838.8428	814.4164	12379.2	11506.6
838.9879	816.4778	12404.5	11530.75
839.133	818.5385	12414.1	11542.55
839.2781	820.5986	12521.5	11651.25
839.4232	822.658	12717.75	11842.6
839.5682	824.7166	13006.65	12135.7
839.7133	826.7747	13426.95	12551.9
839.8584	828.832	13866.6	12993
840.0035	830.8886	14181.65	13306.45
840.1486	832.9446	14335.15	13462.05
840.2937	834.9999	14237.3	13364.8
840.4388	837.0545	13993.8	13117.1
840.5839	839.1085	13705.8	12828.9
840.729	841.1618	13463.75	12585.9
840.8741	843.2143	13253.75	12378.5
841.0192	845.2662	13061.85	12187.1
841.1643	847.3175	12916.5	12041.65
841.3095	849.368	12824.1	11948.55
841.4546	851.4179	12695.8	11824.85
841.5997	853.467	12561.5	11687.9
841.7448	855.5155	12492.9	11616.3
841.8899	857.5633	12392.95	11517.7
842.0351	859.6105	12279.95	11403.3
842.1802	861.6569	12196.9	11321.7
842.3253	863.7027	12120.9	11243.1
842.4704	865.7478	12075.45	11199.7
842.6156	867.7922	12033.05	11156
842.7607	869.8359	12000.4	11122.8
842.9058	871.8789	12032.15	11154.15
843.0509	873.9212	12139.85	11230.4
843.1961	875.9629	12235.75	11359.3
843.3412	878.0039	12337.15	11459.25
843.4863	880.0441	12424.3	11552.05
843.6315	882.0837	12484.85	11605.75
843.7766	884.1226	12466.25	11589.4
843.9218	886.1609	12463	11586.1
844.0669	888.1984	12508.8	11634.7
844.212	890.2352	12587.2	11710.4
844.3572	892.2714	12577.95	11698.8
844.5023	894.3069	12501.3	11624.2
844.6475	896.3416	12355.5	11474.4
844.7926	898.3757	12219.6	11343.95
844.9377	900.4091	12137.25	11258
845.0829	902.4418	12174.75	11293.5
845.228	904.4739	12135.6	11256.1
845.3732	906.5052	12191.2	11313.85
845.5183	908.5358	12128.1	11249.6
845.6635	910.5658	12002.15	11121.55
845.8086	912.595	11764.65	10888.95
845.9538	914.6236	11579.1	10701.95
846.0989	916.6515	11470.3	10593.3
846.2441	918.6786	11364.55	10482.3
846.3892	920.7051	11357.95	10478.15
846.5344	922.7309	11429.05	10551.15
846.6795	924.756	11422.75	10543.8
846.8246	926.7804	11532.55	10651.45
846.9698	928.8041	11493.85	10613.4
847.1149	930.8272	11518.8	10637.95
847.2601	932.8495	11496.05	10613.75
847.4052	934.8711	11473.9	10594.3
847.5504	936.892	11368.9	10488.65
847.6955	938.9123	11307.35	10426.9
847.8407	940.9318	11281.8	10402.8
847.9858	942.9506	11230.45	10349.3
848.131	944.9688	11160.75	10282.2
848.2761	946.9862	11083.6	10206.4
848.4213	949.003	10926.25	10047.45
848.5664	951.019	10859.75	9979.45
848.7115	953.0344	10834	9953.15
848.8567	955.0491	10796.2	9916.35
849.0018	957.063	10814.6	9933.65
849.147	959.0763	10903.85	10026.1
849.2921	961.0888	10892	10009.55
849.4373	963.1007	10979.45	10101
849.5824	965.1119	11025.25	10144.7
849.7275	967.1223	10985.85	10104.7
849.8727	969.1321	11001.75	10121.7
850.0178	971.1412	10961.35	10082.45
850.1629	973.1495	10946.3	10068
850.3081	975.1572	11004.4	10090.05
850.4532	977.1641	10979.35	10100.15
850.5983	979.1704	10929.1	10049.1
850.7435	981.1759	10922.1	10041.45
850.8886	983.1808	10904.8	10025.6
851.0337	985.1849	10973.85	10081.6
851.1788	987.1884	11036.5	10150.7
851.324	989.1911	11148.25	10264.85
851.4691	991.1932	11235.5	10352.5
851.6142	993.1945	11248.65	10365.45
851.7593	995.1951	11195.05	10314.6
851.9045	997.1951	11175.35	10286.45
852.0496	999.1943	11100.2	10217.9
852.1947	1001.1928	11110.9	10230.4
852.3398	1003.1906	11115.4	10237.9
852.4849	1005.1877	11211.45	10327.6
852.63	1007.1841	11240.7	10359.6
852.7751	1009.1798	11230.4	10348.3
852.9202	1011.1748	11138.4	10256.9
853.0653	1013.1691	10981.35	10098.8
853.2104	1015.1627	10762.25	9881.3
853.3555	1017.1556	10516.1	9634.05
853.5006	1019.1477	10409.25	9526.35
853.6457	1021.1392	10295.1	9415.5
853.7908	1023.1299	10259.25	9376.7
853.9359	1025.12	10272.45	9389.95
854.081	1027.1093	10303.85	9421.4
854.2261	1029.0979	10419.45	9540.15
854.3712	1031.0859	10486.1	9605.3
854.5163	1033.0731	10515.15	9632.2
854.6613	1035.0596	10450.05	9569.4
854.8064	1037.0454	10314.2	9432.15
854.9515	1039.0304	10200.25	9319.6
855.0965	1041.0148	10093.7	9213.35
855.2416	1042.9985	9963.7	9082.15
855.3867	1044.9814	9919.9	9038.55
855.5317	1046.9636	9833.9	8951.75
855.6768	1048.9452	9828.65	8948.2
855.8219	1050.926	9858.05	8978.35
855.9669	1052.9061	9873.5	8989.95
856.112	1054.8855	9875.05	8993.7
856.257	1056.8642	9905.9	9024.1
856.4021	1058.8421	9940.5	9058.85
856.5471	1060.8194	9990.55	9109.45
856.6921	1062.7959	10018.15	9135.8
856.8372	1064.7717	10083.75	9199.4
856.9822	1066.7469	10132.2	9248.65
857.1272	1068.7213	10169.25	9283.8
857.2723	1070.695	10201.7	9321.1
857.4173	1072.6679	10231.25	9347.2
857.5623	1074.6402	10233.3	9349.55
857.7073	1076.6117	10202.35	9315.45
857.8523	1078.5826	10104.95	9223.7
857.9973	1080.5527	9998.15	9111.8
858.1423	1082.5221	9943.75	9061.7
858.2873	1084.4908	9958.8	9075.55
858.4323	1086.4587	10006.5	9122.8
858.5773	1088.426	10060.7	9175.5
858.7223	1090.3925	10079.6	9194.35
858.8673	1092.3584	10085.9	9202.2
859.0123	1094.3235	10045.95	9167.15
859.1573	1096.2879	10073.2	9189.95
859.3022	1098.2515	10153.9	9271.15
859.4472	1100.2145	10284.85	9401.95
859.5922	1102.1767	10463.85	9577.3
859.7371	1104.1382	10664.1	9783.55
859.8821	1106.099	10893.15	10007.95
860.027	1108.0591	11114.5	10232.4
860.172	1110.0185	11286.3	10402.3
860.3169	1111.9771	11343	10462.2
860.4619	1113.9351	11219.85	10336.9
860.6068	1115.8923	11035.65	10153.1
860.7517	1117.8488	10837	9951.65
860.8967	1119.8045	10628.8	9747.15
861.0416	1121.7596	10469.65	9586.35
861.1865	1123.7139	10343.05	9458.4
861.3314	1125.6675	10350.95	9466.05
861.4763	1127.6204	10365.4	9481.95
861.6212	1129.5726	10325.6	9440.1
861.7661	1131.524	10245.9	9364.8
861.911	1133.4748	10139.25	9257.75
862.0559	1135.4248	9977.25	9090.5
862.2008	1137.3741	9853.3	8970.3
862.3457	1139.3226	9735.4	8849.75
862.4905	1141.2705	9681.4	8795.7
862.6354	1143.2176	9556.8	8664.15
862.7803	1145.164	9521.4	8635.8
862.9251	1147.1097	9489.65	8604.85
863.07	1149.0546	9419.6	8534.85
863.2148	1150.9989	9304.7	8421.85
863.3597	1152.9424	9223.9	8340.95
863.5045	1154.8852	9092.55	8207.4
863.6493	1156.8272	9031.85	8150.2
863.7942	1158.7686	9020.7	8130.1
863.939	1160.7092	9009.2	8126.25
864.0838	1162.6491	9048.1	8162.85
864.2286	1164.5883	9125.65	8245.05
864.3734	1166.5267	9237.25	8353.15
864.5182	1168.4644	9380	8496.65
864.663	1170.4014	9570.85	8684.9
864.8078	1172.3377	9829.35	8947
864.9526	1174.2732	10098.95	9217.6
865.0974	1176.2081	10490.9	9608.25
865.2421	1178.1421	10902.15	10014.25
865.3869	1180.0755	11358.15	10473.7
865.5317	1182.0082	11693.95	10809.85
865.6764	1183.9401	11815.9	10930.85
865.8212	1185.8713	11701	10815.9
865.9659	1187.8017	11404.35	10521.6
