Software Version:	3.9.2.0
Unit SN:	10000200
Spectrometer SN:	6960
Date:	3/14/2024 12:54:13 PM
Data Line Index:	25
Spectral Points:	2048
Integration time (ms):	125
Averages:	20
Delay (ms):	30000
Sequence Number:	1
Processing:	dark subtract
Laser Power (mW):	300
Laser Current (mA):	823
Laser Diode Temp (C):	25
Laser Case Temp (C):	27.8
System Temp (C):	27.8
Spectrometer Temp (C):	25.5
CCD Temp (C):	0.005
Secondary Temp (C):	20.006
Heatsink Temp (C):	23.623
CCDPCB Temp (C):	37.53
SecondaryPCB Temp (C):	34.773

Wavelength	RamanShift	Raw Counts	Dark Subtracted
787.061	30.1047	418.75	8.45
787.2016	32.3739	416.45	7.15
787.3422	34.6426	419.65	6.7
787.4828	36.9109	419.3	4.65
787.6235	39.1787	424.45	4.65
787.7642	41.4461	430.15	7.3
787.9049	43.7131	436.05	11.05
788.0456	45.9796	438.2	8.55
788.1863	48.2456	444.3	10.6
788.3271	50.5112	450.15	13.45
788.4679	52.7764	449.95	10.9
788.6087	55.0411	451.65	8.3
788.7496	57.3054	458.95	13.15
788.8904	59.5692	462.6	12.9
789.0313	61.8326	467.05	13.75
789.1722	64.0955	475.3	18.45
789.3132	66.3579	482.35	16.5
789.4541	68.6199	486.35	20.25
789.5951	70.8815	492.5	23.95
789.7361	73.1426	510.85	40.25
789.8771	75.4032	543.45	66.75
790.0181	77.6634	602.6	121.8
790.1592	79.9231	749.65	263.7
790.3003	82.1824	1053.55	562.25
790.4414	84.4412	1581.65	1083.65
790.5825	86.6995	2265.35	1750.75
790.7237	88.9574	2952.5	2428.95
790.8648	91.2148	3431.55	2901.3
791.006	93.4717	3672.45	3136.6
791.1472	95.7282	3730.1	3191.1
791.2885	97.9842	3739.4	3193.55
791.4297	100.2398	3723.6	3177.25
791.571	102.4949	3708.8	3158.8
791.7123	104.7495	3677.85	3121.85
791.8536	107.0036	3640.9	3085.9
791.9949	109.2573	3620.05	3068.45
792.1363	111.5105	3546.25	2989.55
792.2777	113.7632	3487.05	2932.95
792.4191	116.0154	3441.45	2873.5
792.5605	118.2672	3381.2	2820.7
792.7019	120.5185	3327.8	2765.65
792.8434	122.7693	3265.6	2701.65
792.9849	125.0197	3214.55	2646.2
793.1264	127.2696	3143.8	2575.25
793.2679	129.519	3127.35	2555.1
793.4094	131.7679	3113.15	2538.9
793.551	134.0163	3110.75	2529.85
793.6926	136.2642	3111.1	2527.45
793.8342	138.5117	3109.2	2524.05
793.9758	140.7587	3093.6	2505.85
794.1175	143.0052	3060.55	2473.25
794.2591	145.2512	3028.9	2438.75
794.4008	147.4967	2992.25	2401.4
794.5425	149.7417	2959	2362.9
794.6842	151.9863	2946.65	2352.2
794.826	154.2304	2949.2	2349.05
794.9677	156.4739	2934.6	2326.85
795.1095	158.717	2934.45	2329.7
795.2513	160.9596	2965.1	2352.85
795.3931	163.2017	2962.95	2353.25
795.535	165.4433	2966.65	2352.6
795.6768	167.6844	2955.2	2340.5
795.8187	169.925	2922.65	2302.1
795.9606	172.1651	2904.6	2280.6
796.1025	174.4047	2877.2	2251.6
796.2445	176.6439	2856	2229.25
796.3864	178.8825	2827.65	2196.95
796.5284	181.1206	2819.9	2185.1
796.6704	183.3582	2818.7	2179.85
796.8124	185.5954	2822.75	2180.95
796.9544	187.832	2819.8	2173.9
797.0965	190.0681	2806.2	2161.1
797.2386	192.3037	2808.15	2159.55
797.3806	194.5388	2812.7	2161.8
797.5228	196.7734	2815.95	2164
797.6649	199.0075	2837.65	2179.7
797.807	201.2411	2841.4	2181.4
797.9492	203.4742	2838.3	2176.9
798.0914	205.7068	2854.45	2189.8
798.2336	207.9389	2866.55	2204.05
798.3758	210.1704	2881.1	2218.3
798.518	212.4015	2887.7	2220.1
798.6603	214.632	2884.25	2216.5
798.8025	216.862	2878.85	2214.9
798.9448	219.0915	2873.1	2213.6
799.0871	221.3205	2881.6	2229.4
799.2294	223.549	2863.4	2217.15
799.3718	225.777	2868.95	2223.55
799.5141	228.0044	2866.75	2214.75
799.6565	230.2314	2852.1	2203.3
799.7989	232.4578	2828	2179.9
799.9413	234.6837	2825	2169.15
800.0837	236.909	2827.95	2172.65
800.2262	239.1339	2828.5	2147.8
800.3687	241.3582	2816.85	2151.55
800.5111	243.582	2827.2	2136.15
800.6536	245.8053	2835.45	2148.65
800.7961	248.0281	2825.55	2142.75
800.9387	250.2503	2828.25	2142.7
801.0812	252.472	2840.2	2150.4
801.2238	254.6932	2846.55	2154.9
801.3664	256.9139	2833.7	2138.9
801.509	259.134	2856.8	2159.05
801.6516	261.3536	2852.85	2154.9
801.7942	263.5727	2877.05	2178.8
801.9369	265.7912	2905.4	2205.75
802.0795	268.0092	2943.35	2245.3
802.2222	270.2267	2945.85	2245.05
802.3649	272.4436	2982.2	2282.1
802.5076	274.6601	2994.55	2285.7
802.6504	276.8759	3016.9	2312.6
802.7931	279.0913	3039.25	2331.55
802.9359	281.3061	3022.1	2314.45
803.0787	283.5204	3044.1	2330.65
803.2215	285.7341	3055.2	2342.55
803.3643	287.9473	3062.1	2343.4
803.5071	290.16	3061.35	2339.9
803.6499	292.3721	3032.3	2315.5
803.7928	294.5837	2993.6	2274.85
803.9357	296.7947	2984.6	2266.65
804.0786	299.0052	2966.7	2250.05
804.2215	301.2152	2959.8	2238.65
804.3644	303.4246	2940.7	2224.35
804.5074	305.6334	2918.2	2201.2
804.6503	307.8418	2908.8	2187.05
804.7933	310.0495	2905.25	2183.85
804.9363	312.2568	2862.65	2141.8
805.0793	314.4635	2831.25	2109.45
805.2223	316.6696	2799.7	2075.4
805.3653	318.8752	2770.35	2039.8
805.5084	321.0802	2746.95	2018.35
805.6514	323.2847	2741.7	2014.2
805.7945	325.4887	2738.05	2009.35
805.9376	327.692	2752.25	2022
806.0807	329.8949	2765.3	2036.2
806.2238	332.0972	2792.4	2061.15
806.367	334.2989	2816.8	2080.6
806.5101	336.5001	2801.65	2065.8
806.6533	338.7007	2787.55	2049.4
806.7965	340.9008	2758.8	2022.2
806.9397	343.1003	2705.5	1965.05
807.0829	345.2992	2687.55	1946.1
807.2261	347.4976	2654.1	1912.15
807.3693	349.6955	2640.2	1892.9
807.5126	351.8927	2635.1	1886.2
807.6559	354.0895	2612.7	1853.85
807.7991	356.2856	2606.25	1857.35
807.9424	358.4812	2590.25	1843.5
808.0857	360.6763	2588.6	1841.75
808.2291	362.8707	2578.85	1830.9
808.3724	365.0646	2581.2	1827.65
808.5158	367.258	2577.4	1822.85
808.6591	369.4508	2594.45	1836.75
808.8025	371.643	2603.85	1845.85
808.9459	373.8346	2620.25	1858.35
809.0893	376.0257	2634.25	1868.85
809.2327	378.2162	2657	1893.7
809.3762	380.4062	2648.65	1879.65
809.5196	382.5956	2628.95	1860.65
809.6631	384.7844	2611.8	1847.4
809.8066	386.9726	2579.55	1809.65
809.9501	389.1603	2544.25	1773.65
810.0936	391.3474	2566.2	1765.45
810.2371	393.5339	2545.3	1776.05
810.3806	395.7199	2544.25	1782.55
810.5241	397.9052	2540.4	1778.55
810.6677	400.09	2562.75	1800.75
810.8113	402.2743	2576.35	1813.9
810.9548	404.4579	2604.7	1844.6
811.0984	406.641	2623.05	1863.35
811.2421	408.8235	2676.65	1915.2
811.3857	411.0054	2688.9	1926.4
811.5293	413.1868	2765.2	1998.25
811.673	415.3675	2829.85	2063.75
811.8166	417.5477	2842.4	2072.45
811.9603	419.7273	2765.25	1992.7
812.104	421.9064	2683.9	1906.1
812.2477	424.0848	2626.1	1849.9
812.3914	426.2627	2583.45	1806.25
812.5351	428.4399	2546.45	1765.7
812.6788	430.6166	2511.8	1730.7
812.8226	432.7928	2468.65	1684.3
812.9663	434.9683	2437.2	1652.05
813.1101	437.1432	2425.85	1639.4
813.2539	439.3176	2410	1623.8
813.3977	441.4914	2387.4	1599.2
813.5415	443.6645	2386.5	1596.95
813.6853	445.8371	2402.5	1613.2
813.8291	448.0091	2383	1593.45
813.973	450.1806	2379.3	1590.2
814.1168	452.3514	2358.4	1565.05
814.2607	454.5216	2370.7	1570.6
814.4046	456.6913	2363.6	1570.7
814.5485	458.8603	2361.65	1568.85
814.6924	461.0288	2369.25	1576.9
814.8363	463.1967	2351.7	1557.2
814.9802	465.3639	2356.2	1559.75
815.1241	467.5306	2351.35	1555.2
815.2681	469.6967	2326.8	1531.35
815.412	471.8622	2339	1542.2
815.556	474.0271	2332.3	1537.9
815.7	476.1914	2319.4	1520.95
815.844	478.3551	2319.95	1522.15
815.988	480.5182	2318.2	1519.5
816.132	482.6807	2321	1521.7
816.276	484.8426	2328.45	1528.95
816.4201	487.0039	2352.65	1553.7
816.5641	489.1647	2384.25	1583
816.7082	491.3248	2390.8	1590.65
816.8522	493.4843	2419.25	1618.6
816.9963	495.6432	2419.75	1618.95
817.1404	497.8015	2387.7	1582.85
817.2845	499.9592	2362.5	1560.95
817.4286	502.1163	2326.65	1523
817.5727	504.2728	2298.25	1493.25
817.7168	506.4287	2291.2	1486.25
817.861	508.5839	2262.55	1458.4
818.0051	510.7386	2257.15	1453
818.1493	512.8927	2284.15	1469.7
818.2935	515.0461	2270.4	1463.55
818.4377	517.199	2267.65	1460.05
818.5818	519.3512	2294.5	1489
818.726	521.5029	2340.75	1524
818.8703	523.6539	2367.65	1559.35
819.0145	525.8043	2382.8	1570.85
819.1587	527.9541	2346.3	1534.7
819.303	530.1033	2296	1486.75
819.4472	532.2519	2280.15	1466.4
819.5915	534.3999	2250.85	1436.25
819.7357	536.5472	2233.8	1420.4
819.88	538.694	2239.35	1424.4
820.0243	540.8401	2244.25	1428.05
820.1686	542.9856	2263.8	1445.55
820.3129	545.1305	2266	1448.8
820.4572	547.2748	2275.75	1458.4
820.6016	549.4185	2283.25	1463.1
820.7459	551.5615	2282.05	1464.7
820.8902	553.704	2275.85	1456.7
821.0346	555.8458	2286.9	1469.2
821.1789	557.987	2297.8	1478.15
821.3233	560.1276	2325.05	1502
821.4677	562.2675	2361	1543.7
821.6121	564.4069	2404.65	1586.8
821.7565	566.5456	2410.15	1593.6
821.9009	568.6837	2400.1	1582.4
822.0453	570.8212	2348.05	1529.7
822.1897	572.958	2315.6	1496.3
822.3342	575.0942	2282.05	1464.7
822.4786	577.2299	2259.75	1439.6
822.6231	579.3648	2231.1	1408.85
822.7675	581.4992	2220.7	1401
822.912	583.6329	2225.35	1405.2
823.0565	585.766	2235.35	1416.7
823.201	587.8985	2248	1427.1
823.3454	590.0304	2285.85	1452.7
823.4899	592.1616	2296.5	1469.85
823.6345	594.2922	2284	1461.55
823.779	596.4222	2277.8	1454.25
823.9235	598.5515	2231.35	1404.9
824.068	600.6802	2194.55	1368.8
824.2126	602.8083	2168.2	1341.05
824.3571	604.9358	2154.9	1327.3
824.5017	607.0626	2148.25	1322.1
824.6462	609.1888	2157.1	1327.5
824.7908	611.3144	2169.7	1342.5
824.9354	613.4393	2180.7	1353.4
825.08	615.5636	2220.7	1391.8
825.2246	617.6873	2249.9	1421.3
825.3692	619.8103	2266.15	1437.3
825.5138	621.9327	2266.95	1435.95
825.6584	624.0544	2240.5	1413.1
825.803	626.1756	2200.15	1371.85
825.9477	628.2961	2166.3	1337.15
826.0923	630.4159	2157.5	1326.7
826.237	632.5351	2151.3	1321.5
826.3816	634.6537	2156.85	1325.2
826.5263	636.7716	2134.55	1299.1
826.6709	638.8889	2141.95	1308.55
826.8156	641.0056	2149.7	1315.65
826.9603	643.1216	2137.2	1301.7
827.105	645.237	2156.95	1320.25
827.2497	647.3518	2134.05	1300.1
827.3944	649.4659	2119.4	1285.05
827.5391	651.5793	2105	1270.45
827.6838	653.6922	2091.2	1255.6
827.8285	655.8043	2092.9	1257.6
827.9733	657.9159	2081.9	1245.85
828.118	660.0268	2071.75	1234.5
828.2627	662.137	2076.45	1240
828.4075	664.2466	2077.6	1237.2
828.5522	666.3556	2066.45	1228.75
828.697	668.4639	2065.45	1224.6
828.8418	670.5716	2058.2	1219
828.9865	672.6786	2057	1217.85
829.1313	674.785	2048.5	1208.45
829.2761	676.8907	2057.7	1217.9
829.4209	678.9958	2041.55	1203.45
829.5657	681.1002	2051.95	1210.25
829.7105	683.204	2047.05	1203.5
829.8553	685.3072	2040	1197.15
830.0001	687.4097	2032.55	1189.45
830.1449	689.5115	2043.1	1197
830.2898	691.6127	2037.3	1196
830.4346	693.7132	2037.5	1194.35
830.5794	695.8131	2032.8	1183.65
830.7243	697.9123	2040.9	1196.05
830.8691	700.0109	2038.3	1195.1
831.014	702.1089	2044.05	1199.2
831.1588	704.2061	2042.3	1200.55
831.3037	706.3028	2070.55	1222.7
831.4486	708.3987	2066.7	1221.45
831.5935	710.4941	2081.15	1235.35
831.7383	712.5887	2073.3	1228.45
831.8832	714.6827	2080.75	1234.2
832.0281	716.7761	2072.35	1227.1
832.173	718.8688	2073.2	1228.95
832.3179	720.9608	2069.1	1218.3
832.4628	723.0522	2088.5	1237.25
832.6077	725.1429	2099.45	1252.55
832.7527	727.233	2107.85	1260.45
832.8976	729.3224	2163.6	1314.3
833.0425	731.4112	2177.6	1328.15
833.1874	733.4993	2198.1	1345.65
833.3324	735.5867	2166.4	1315.45
833.4773	737.6735	2115.3	1263.55
833.6222	739.7596	2082.65	1233.8
833.7672	741.845	2084.3	1234
833.9122	743.9298	2072.3	1218.2
834.0571	746.014	2093.7	1244.65
834.2021	748.0974	2095.45	1240.4
834.347	750.1802	2097.15	1246.85
834.492	752.2624	2093.6	1244.25
834.637	754.3439	2077.1	1226.4
834.782	756.4247	2065.6	1206
834.9269	758.5048	2043.55	1189.8
835.0719	760.5843	2047.6	1196
835.2169	762.6631	2070.7	1216.1
835.3619	764.7413	2105.35	1252
835.5069	766.8188	2142.7	1287.55
835.6519	768.8956	2195.4	1341.6
835.7969	770.9718	2219.95	1368.25
835.9419	773.0473	2210.2	1358.05
836.0869	775.1221	2197.15	1345.15
836.232	777.1962	2182.65	1326.65
836.377	779.2697	2216.2	1360
836.522	781.3426	2283.7	1420.55
836.667	783.4147	2308.9	1452.05
836.8121	785.4862	2302.4	1449.6
836.9571	787.557	2241.8	1387.25
837.1021	789.6271	2167.85	1311.3
837.2472	791.6966	2092.75	1236.3
837.3922	793.7654	2032.8	1176.5
837.5373	795.8335	2000.55	1145.05
837.6823	797.901	1985.3	1127.8
837.8274	799.9678	1968.75	1111
837.9724	802.0339	1976.65	1123.45
838.1175	804.0993	1982.55	1116.7
838.2626	806.1641	1967.8	1110.9
838.4076	808.2282	1955.85	1100.95
838.5527	810.2916	1944.55	1083.4
838.6978	812.3544	1933	1077.85
838.8428	814.4164	1923.2	1069.45
838.9879	816.4778	1939.95	1082.05
839.133	818.5385	1941.9	1084
839.2781	820.5986	1943	1086.15
839.4232	822.658	1989.3	1131.8
839.5682	824.7166	2030.1	1172.05
839.7133	826.7747	2069.8	1211.3
839.8584	828.832	2124.3	1264.9
840.0035	830.8886	2151.05	1292.45
840.1486	832.9446	2175.35	1315.4
840.2937	834.9999	2148.3	1293.6
840.4388	837.0545	2105.9	1243.25
840.5839	839.1085	2052.7	1195.45
840.729	841.1618	2013.15	1149.2
840.8741	843.2143	1986.45	1126.6
841.0192	845.2662	1955.3	1095.25
841.1643	847.3175	1948.15	1090.5
841.3095	849.368	1936.2	1076.1
841.4546	851.4179	1943.95	1084.7
841.5997	853.467	1927.55	1067.75
841.7448	855.5155	1932.3	1073.7
841.8899	857.5633	1928.7	1068.45
842.0351	859.6105	1926.45	1066.45
842.1802	861.6569	1911.8	1051.6
842.3253	863.7027	1903.05	1043.25
842.4704	865.7478	1899.1	1039.15
842.6156	867.7922	1889.15	1026.1
842.7607	869.8359	1892.15	1031.05
842.9058	871.8789	1878.8	1015.75
843.0509	873.9212	1922.8	1026.9
843.1961	875.9629	1887.35	1025
843.3412	878.0039	1898.05	1033.55
843.4863	880.0441	1907.6	1044.7
843.6315	882.0837	1912.85	1049.55
843.7766	884.1226	1931.85	1068.65
843.9218	886.1609	1941.4	1080.25
844.0669	888.1984	1964.45	1103.1
844.212	890.2352	1985.75	1123.5
844.3572	892.2714	2002	1136
844.5023	894.3069	1993.2	1128.05
844.6475	896.3416	1957.55	1093.4
844.7926	898.3757	1924.25	1060.6
844.9377	900.4091	1904.1	1038.95
845.0829	902.4418	1919.75	1051.6
845.228	904.4739	1925.25	1060.15
845.3732	906.5052	1924.75	1059.4
845.5183	908.5358	1919.9	1055.15
845.6635	910.5658	1912.3	1047.35
845.8086	912.595	1879.45	1013.05
845.9538	914.6236	1869.55	1005.1
846.0989	916.6515	1847.5	984.95
846.2441	918.6786	1833.4	968.25
846.3892	920.7051	1827.4	960.6
846.5344	922.7309	1820.75	956
846.6795	924.756	1819.2	953.4
846.8246	926.7804	1833.3	966.2
846.9698	928.8041	1831.7	963.25
847.1149	930.8272	1843.4	978.15
847.2601	932.8495	1846.95	978.35
847.4052	934.8711	1841.6	973.15
847.5504	936.892	1850.6	981.65
847.6955	938.9123	1853.25	985.3
847.8407	940.9318	1866.7	998.8
847.9858	942.9506	1872.6	1004.8
848.131	944.9688	1876.4	1008.75
848.2761	946.9862	1857.05	990.4
848.4213	949.003	1832.1	963.55
848.5664	951.019	1812.95	944.95
848.7115	953.0344	1802.1	933.5
848.8567	955.0491	1798.4	928.45
849.0018	957.063	1797.65	929.05
849.147	959.0763	1792.3	924.55
849.2921	961.0888	1784.6	911.95
849.4373	963.1007	1790.65	923.2
849.5824	965.1119	1776.55	909.35
849.7275	967.1223	1773.05	904.85
849.8727	969.1321	1770.5	902.9
850.0178	971.1412	1764.65	897.2
850.1629	973.1495	1764.4	897.25
850.3081	975.1572	1791.4	880.3
850.4532	977.1641	1766.65	897.45
850.5983	979.1704	1752.25	882.75
850.7435	981.1759	1753.2	881.8
850.8886	983.1808	1756.85	885.2
851.0337	985.1849	1747.65	867.85
851.1788	987.1884	1749.35	876.6
851.324	989.1911	1751.45	881.2
851.4691	991.1932	1745.2	872.5
851.6142	993.1945	1746.15	877.65
851.7593	995.1951	1739.1	868.8
851.9045	997.1951	1744.5	867.25
852.0496	999.1943	1736.15	869.55
852.1947	1001.1928	1734.3	862.1
852.3398	1003.1906	1739	869.65
852.4849	1005.1877	1754.95	883.35
852.63	1007.1841	1756	886.35
852.7751	1009.1798	1763.65	893.05
852.9202	1011.1748	1757.15	885.8
853.0653	1013.1691	1748.55	877.5
853.2104	1015.1627	1724.9	854.15
853.3555	1017.1556	1705.25	834.1
853.5006	1019.1477	1687	815.55
853.6457	1021.1392	1679.35	810.3
853.7908	1023.1299	1673.8	803
853.9359	1025.12	1675	802.3
854.081	1027.1093	1671.3	801.1
854.2261	1029.0979	1685.7	815.7
854.3712	1031.0859	1693.45	824.6
854.5163	1033.0731	1696.1	821.65
854.6613	1035.0596	1687.45	816.4
854.8064	1037.0454	1685.8	812.85
854.9515	1039.0304	1671.25	798.75
855.0965	1041.0148	1661.15	789.05
855.2416	1042.9985	1646.3	774.2
855.3867	1044.9814	1639.3	767.25
855.5317	1046.9636	1635.75	760
855.6768	1048.9452	1641.45	771.65
855.8219	1050.926	1653	782.1
855.9669	1052.9061	1646.9	775
856.112	1054.8855	1656.4	781.85
856.257	1056.8642	1658.85	785.35
856.4021	1058.8421	1658.4	780.95
856.5471	1060.8194	1652.65	779.95
856.6921	1062.7959	1645.65	772.4
856.8372	1064.7717	1643.1	768
856.9822	1066.7469	1649.9	774.9
857.1272	1068.7213	1644.2	768.1
857.2723	1070.695	1654.75	781.45
857.4173	1072.6679	1665.3	791.1
857.5623	1074.6402	1667.05	793.85
857.7073	1076.6117	1680.05	801.55
857.8523	1078.5826	1667.25	793.35
857.9973	1080.5527	1641.45	765.15
858.1423	1082.5221	1625.1	751.25
858.2873	1084.4908	1599.4	725.2
858.4323	1086.4587	1593.85	716.7
858.5773	1088.426	1586.65	710.55
858.7223	1090.3925	1580	700.5
858.8673	1092.3584	1581.1	707
859.0123	1094.3235	1582.75	708.55
859.1573	1096.2879	1601.2	724.6
859.3022	1098.2515	1609.8	735.65
859.4472	1100.2145	1618.65	742.75
859.5922	1102.1767	1638.95	761.4
859.7371	1104.1382	1653.45	777.35
859.8821	1106.099	1688.5	810.35
860.027	1108.0591	1713.1	839.6
860.172	1110.0185	1736.1	858.85
860.3169	1111.9771	1758.3	883.95
860.4619	1113.9351	1782.75	907.15
860.6068	1115.8923	1824.15	947.7
860.7517	1117.8488	1841.3	964.65
860.8967	1119.8045	1805.25	930.4
861.0416	1121.7596	1752.5	875.45
861.1865	1123.7139	1683.75	809.05
861.3314	1125.6675	1655.9	780.25
861.4763	1127.6204	1649.5	773.2
861.6212	1129.5726	1665.9	786.85
861.7661	1131.524	1663.3	787.9
861.911	1133.4748	1634.25	757.35
862.0559	1135.4248	1602.15	723.85
862.2008	1137.3741	1571.45	696.05
862.3457	1139.3226	1555.5	679
862.4905	1141.2705	1550.1	673.75
862.6354	1143.2176	1556.55	672.9
862.7803	1145.164	1563.5	685.4
862.9251	1147.1097	1564.05	688.85
863.07	1149.0546	1549.5	670.35
863.2148	1150.9989	1535.5	659.1
863.3597	1152.9424	1523.85	645.95
863.5045	1154.8852	1505.45	628.45
863.6493	1156.8272	1500.65	624.45
863.7942	1158.7686	1513.55	630.35
863.939	1160.7092	1501.6	624.75
864.0838	1162.6491	1508.9	628.8
864.2286	1164.5883	1511.2	635.65
864.3734	1166.5267	1518.7	639.55
864.5182	1168.4644	1531.5	652.95
864.663	1170.4014	1549.55	668.55
864.8078	1172.3377	1566.6	689.8
864.9526	1174.2732	1597.15	719.55
865.0974	1176.2081	1645.75	768.1
865.2421	1178.1421	1719.8	838.95
865.3869	1180.0755	1766.5	889.8
865.5317	1182.0082	1809.4	931.8
865.6764	1183.9401	1794.2	915
865.8212	1185.8713	1731.15	852.95
865.9659	1187.8017	1661.35	783.6
866.1106	1189.7315	1603.5	724.75
866.2554	1191.6605	1586.75	681.8
866.4001	1193.5888	1534.05	656.45
866.5448	1195.5163	1519.3	640
866.6895	1197.4432	1501.45	623.9
866.8342	1199.3693	1495.85	618.4
866.9789	1201.2947	1494.8	610.1
867.1236	1203.2193	1478.05	600.65
867.2683	1205.1432	1471	591.55
867.413	1207.0664	1479.25	602.05
867.5576	1208.9889	1479.85	598.45
867.7023	1210.9106	1476.1	596.1
867.847	1212.8316	1473.9	598.2
867.9916	1214.7519	1483.15	594.75
868.1363	1216.6715	1485.45	609.95
868.2809	1218.5903	1486	606.65
868.4255	1220.5084	1494.45	615.75
868.5701	1222.4257	1510.6	632.3
868.7148	1224.3424	1509.75	630.6
868.8594	1226.2583	1526.3	640.35
869.004	1228.1735	1536.8	657.25
869.1486	1230.0879	1551	670.1
869.2932	1232.0016	1569.4	689.55
869.4377	1233.9146	1589.85	707.65
869.5823	1235.8269	1600.15	720.4
869.7269	1237.7384	1595.55	715.3
869.8715	1239.6492	1590.25	711.65
870.016	1241.5592	1604.1	723.95
870.1606	1243.4686	1634.8	756.2
870.3051	1245.3772	1667.5	789.45
870.4496	1247.285	1718.85	838.6
870.5941	1249.1922	1759	880.8
870.7387	1251.0986	1807.35	929.1
870.8832	1253.0042	1839.75	959.15
