Software Version:	3.9.2.0
Unit SN:	10000200
Spectrometer SN:	6960
Date:	3/14/2024 12:59:45 PM
Data Line Index:	25
Spectral Points:	2048
Integration time (ms):	125
Averages:	20
Delay (ms):	30000
Sequence Number:	1
Processing:	dark subtract
Laser Power (mW):	300
Laser Current (mA):	823
Laser Diode Temp (C):	25.1
Laser Case Temp (C):	27.9
System Temp (C):	27.9
Spectrometer Temp (C):	25.8
CCD Temp (C):	0
Secondary Temp (C):	20.008
Heatsink Temp (C):	23.808
CCDPCB Temp (C):	37.585
SecondaryPCB Temp (C):	34.973

Wavelength	RamanShift	Raw Counts	Dark Subtracted
787.061	30.1047	418.75	5.8
787.2016	32.3739	418.45	7.65
787.3422	34.6426	420.15	6.55
787.4828	36.9109	419	5.65
787.6235	39.1787	425.05	7.2
787.7642	41.4461	432.9	11.3
787.9049	43.7131	435.4	9.4
788.0456	45.9796	440.5	12.25
788.1863	48.2456	444.6	11.15
788.3271	50.5112	448.45	11.6
788.4679	52.7764	450.35	10.8
788.6087	55.0411	455.1	16.9
788.7496	57.3054	463	17.05
788.8904	59.5692	463.55	15.95
789.0313	61.8326	469.1	15.9
789.1722	64.0955	476.45	18.95
789.3132	66.3579	483.1	19.15
789.4541	68.6199	487.15	23.15
789.5951	70.8815	494.9	25
789.7361	73.1426	512.55	40.95
789.8771	75.4032	547.45	71.3
790.0181	77.6634	615.3	135.1
790.1592	79.9231	775.15	289.15
790.3003	82.1824	1126.55	633.65
790.4414	84.4412	1702.4	1198.4
790.5825	86.6995	2476.6	1959
790.7237	88.9574	3225.2	2696.55
790.8648	91.2148	3764.7	3225.85
791.006	93.4717	4048.6	3504.1
791.1472	95.7282	4118.8	3568.7
791.2885	97.9842	4135.85	3581.6
791.4297	100.2398	4122.2	3567.2
791.571	102.4949	4086.85	3529.45
791.7123	104.7495	4069.7	3508.65
791.8536	107.0036	4028.05	3468.5
791.9949	109.2573	3991.65	3433.15
792.1363	111.5105	3902.4	3340.35
792.2777	113.7632	3853.75	3289.35
792.4191	116.0154	3803.4	3229.8
792.5605	118.2672	3732.05	3164.15
792.7019	120.5185	3645.8	3077.1
792.8434	122.7693	3588.55	3019.4
792.9849	125.0197	3543.05	2969.4
793.1264	127.2696	3474.4	2898.7
793.2679	129.519	3464.5	2885.65
793.4094	131.7679	3440.2	2859.5
793.551	134.0163	3434.1	2848.1
793.6926	136.2642	3428.05	2836.8
793.8342	138.5117	3426	2831.9
793.9758	140.7587	3390.35	2795
794.1175	143.0052	3366.35	2766.5
794.2591	145.2512	3338.45	2742.9
794.4008	147.4967	3303.85	2706.45
794.5425	149.7417	3264	2661.7
794.6842	151.9863	3238.35	2635.7
794.826	154.2304	3239.05	2631.7
794.9677	156.4739	3227.25	2611.35
795.1095	158.717	3244.7	2633.5
795.2513	160.9596	3234.35	2616.8
795.3931	163.2017	3250.85	2632.2
795.535	165.4433	3269.7	2650.4
795.6768	167.6844	3253.7	2630.2
795.8187	169.925	3226.9	2603.85
795.9606	172.1651	3193.25	2564.25
796.1025	174.4047	3159.85	2527.15
796.2445	176.6439	3132.75	2497.55
796.3864	178.8825	3130.25	2492.75
796.5284	181.1206	3109.7	2466.65
796.6704	183.3582	3094.55	2448.35
796.8124	185.5954	3075.95	2428.75
796.9544	187.832	3082.8	2431.2
797.0965	190.0681	3083.4	2430.15
797.2386	192.3037	3076.1	2421
797.3806	194.5388	3083.6	2426.4
797.5228	196.7734	3080.95	2422.1
797.6649	199.0075	3109.6	2445.05
797.807	201.2411	3112.7	2443.4
797.9492	203.4742	3129.15	2461.25
798.0914	205.7068	3150.3	2480.9
798.2336	207.9389	3158.4	2490
798.3758	210.1704	3160.8	2488.6
798.518	212.4015	3161.75	2487.35
798.6603	214.632	3166.15	2491.6
798.8025	216.862	3167.35	2495.95
798.9448	219.0915	3159.5	2496.2
799.0871	221.3205	3157.4	2497.65
799.2294	223.549	3156.5	2503.45
799.3718	225.777	3143.65	2489.05
799.5141	228.0044	3151.5	2495.85
799.6565	230.2314	3134.45	2480.3
799.7989	232.4578	3112.4	2456.05
799.9413	234.6837	3102.3	2440.7
800.0837	236.909	3097.7	2434.95
800.2262	239.1339	3109.25	2425.25
800.3687	241.3582	3083.7	2409.85
800.5111	243.582	3105.5	2408.15
800.6536	245.8053	3113.05	2421.55
800.7961	248.0281	3095.15	2406.9
800.9387	250.2503	3109.6	2415.5
801.0812	252.472	3116.95	2420.4
801.2238	254.6932	3122.85	2423.7
801.3664	256.9139	3104.5	2402.2
801.509	259.134	3127.3	2423.45
801.6516	261.3536	3141.8	2439.55
801.7942	263.5727	3160.2	2453.2
801.9369	265.7912	3185.8	2484.15
802.0795	268.0092	3225.1	2518.65
802.2222	270.2267	3245.7	2538.4
802.3649	272.4436	3275.35	2564.65
802.5076	274.6601	3289.4	2574
802.6504	276.8759	3297.25	2584.2
802.7931	279.0913	3313.85	2604.05
802.9359	281.3061	3319.5	2606.5
803.0787	283.5204	3329.55	2614.75
803.2215	285.7341	3336.8	2617.55
803.3643	287.9473	3363.55	2641.3
803.5071	290.16	3355.1	2625.6
803.6499	292.3721	3311.05	2590.25
803.7928	294.5837	3305.35	2582.9
803.9357	296.7947	3271.6	2550.65
804.0786	299.0052	3271.9	2548.7
804.2215	301.2152	3248.45	2522.75
804.3644	303.4246	3232.15	2511.25
804.5074	305.6334	3205.75	2483
804.6503	307.8418	3186.85	2461.2
804.7933	310.0495	3181.2	2455
804.9363	312.2568	3143.9	2416.55
805.0793	314.4635	3101.5	2372
805.2223	316.6696	3064.8	2333.2
805.3653	318.8752	3036.2	2297.5
805.5084	321.0802	3020.55	2291.85
805.6514	323.2847	3012.3	2280.8
805.7945	325.4887	3003.9	2271.2
805.9376	327.692	3009.85	2274.6
806.0807	329.8949	3059.55	2323.95
806.2238	332.0972	3050.95	2315.2
806.367	334.2989	3059.25	2318.3
806.5101	336.5001	3063.6	2322.7
806.6533	338.7007	3048.25	2305.65
806.7965	340.9008	3025.85	2282.55
806.9397	343.1003	2971.45	2224.65
807.0829	345.2992	2937	2190.25
807.2261	347.4976	2903.5	2155.05
807.3693	349.6955	2879.75	2126.75
807.5126	351.8927	2878.35	2125.75
807.6559	354.0895	2857.1	2094.2
807.7991	356.2856	2851.1	2097.85
807.9424	358.4812	2829.35	2076.4
808.0857	360.6763	2829.8	2073.8
808.2291	362.8707	2829.35	2074.1
808.3724	365.0646	2821.8	2065.35
808.5158	367.258	2805.8	2046.9
808.6591	369.4508	2828.7	2065.7
808.8025	371.643	2843.95	2082.55
808.9459	373.8346	2865.25	2102.35
809.0893	376.0257	2885.3	2115.5
809.2327	378.2162	2896.2	2126.7
809.3762	380.4062	2909.65	2138.85
809.5196	382.5956	2876.25	2103.55
809.6631	384.7844	2840.8	2068.55
809.8066	386.9726	2813.4	2037.25
809.9501	389.1603	2783.65	2007.95
810.0936	391.3474	2799.5	1991.4
810.2371	393.5339	2777	2000.1
810.3806	395.7199	2762.3	1992.9
810.5241	397.9052	2775.8	2009.3
810.6677	400.09	2801.3	2038.1
810.8113	402.2743	2827.55	2064.65
810.9548	404.4579	2837.45	2074.45
811.0984	406.641	2868.75	2103.15
811.2421	408.8235	2897.25	2127.25
811.3857	411.0054	2943.65	2179
811.5293	413.1868	2995.2	2224.5
811.673	415.3675	3052.95	2282.05
811.8166	417.5477	3073.65	2300.2
811.9603	419.7273	3006.7	2231.2
812.104	421.9064	2921.95	2138.35
812.2477	424.0848	2865.95	2086.9
812.3914	426.2627	2811.65	2030.4
812.5351	428.4399	2770.7	1987.95
812.6788	430.6166	2729.45	1943.65
812.8226	432.7928	2685.3	1894
812.9663	434.9683	2657	1867.95
813.1101	437.1432	2636.2	1845.65
813.2539	439.3176	2614.1	1824.35
813.3977	441.4914	2605.3	1813.95
813.5415	443.6645	2595.35	1801.2
813.6853	445.8371	2589.25	1795.5
813.8291	448.0091	2591.2	1798.55
813.973	450.1806	2589.3	1794
814.1168	452.3514	2576.6	1779.75
814.2607	454.5216	2593.6	1788.85
814.4046	456.6913	2568.35	1771.85
814.5485	458.8603	2568.4	1773.9
814.6924	461.0288	2570.8	1775.55
814.8363	463.1967	2560.7	1761.75
814.9802	465.3639	2561.4	1762.55
815.1241	467.5306	2556.15	1758.8
815.2681	469.6967	2535.35	1735.2
815.412	471.8622	2534.25	1734.2
815.556	474.0271	2522	1722.85
815.7	476.1914	2521.65	1719.5
815.844	478.3551	2508.3	1707.6
815.988	480.5182	2512.6	1708.65
816.132	482.6807	2507.4	1703.4
816.276	484.8426	2529.85	1726.8
816.4201	487.0039	2556.35	1752.95
816.5641	489.1647	2580.2	1774.95
816.7082	491.3248	2609.25	1806.95
816.8522	493.4843	2621.75	1816.6
816.9963	495.6432	2613.8	1808.35
817.1404	497.8015	2590.4	1782.2
817.2845	499.9592	2560.05	1753.25
817.4286	502.1163	2517.65	1712.6
817.5727	504.2728	2485.1	1676.9
817.7168	506.4287	2482.65	1675
817.861	508.5839	2457.9	1650.65
818.0051	510.7386	2459.15	1648.4
818.1493	512.8927	2463.25	1645.65
818.2935	515.0461	2459.5	1652.65
818.4377	517.199	2463.2	1654
818.5818	519.3512	2494.75	1683.55
818.726	521.5029	2535.9	1718.6
818.8703	523.6539	2569.5	1756.1
819.0145	525.8043	2575.2	1759.8
819.1587	527.9541	2529.1	1713
819.303	530.1033	2487.6	1672.9
819.4472	532.2519	2451	1634.9
819.5915	534.3999	2439.3	1620.9
819.7357	536.5472	2426.45	1611.55
819.88	538.694	2434.9	1620.2
820.0243	540.8401	2433.1	1615.65
820.1686	542.9856	2453.4	1633.9
820.3129	545.1305	2451.75	1631.6
820.4572	547.2748	2458.05	1638.2
820.6016	549.4185	2460.05	1638.25
820.7459	551.5615	2457.7	1637.3
820.8902	553.704	2462.9	1640.75
821.0346	555.8458	2471.75	1650.15
821.1789	557.987	2486.15	1665.8
821.3233	560.1276	2503.45	1681.7
821.4677	562.2675	2539.9	1718.65
821.6121	564.4069	2583.25	1761.9
821.7565	566.5456	2595.5	1773.7
821.9009	568.6837	2584.2	1761.25
822.0453	570.8212	2547.85	1723.95
822.1897	572.958	2504.1	1679.9
822.3342	575.0942	2471.05	1649.4
822.4786	577.2299	2441.1	1616.45
822.6231	579.3648	2418.55	1595.6
822.7675	581.4992	2399.5	1575.45
822.912	583.6329	2379.2	1557.35
823.0565	585.766	2407.6	1587.25
823.201	587.8985	2430	1607.55
823.3454	590.0304	2456.4	1621.65
823.4899	592.1616	2484.05	1658.35
823.6345	594.2922	2465.5	1639.9
823.779	596.4222	2450.9	1624.65
823.9235	598.5515	2400.6	1573.35
824.068	600.6802	2359.75	1532.15
824.2126	602.8083	2338.75	1512.5
824.3571	604.9358	2326.3	1496.2
824.5017	607.0626	2323.45	1495.15
824.6462	609.1888	2331.15	1499.65
824.7908	611.3144	2346.25	1516.55
824.9354	613.4393	2364.7	1534.55
825.08	615.5636	2395.15	1562.75
825.2246	617.6873	2435.95	1604.85
825.3692	619.8103	2449.8	1616.65
825.5138	621.9327	2440.5	1606.15
825.6584	624.0544	2418.8	1587.2
825.803	626.1756	2389.65	1558.65
825.9477	628.2961	2354	1522.85
826.0923	630.4159	2335.2	1501.55
826.237	632.5351	2322.15	1487.25
826.3816	634.6537	2307.45	1474.9
826.5263	636.7716	2310.5	1474.2
826.6709	638.8889	2300.7	1465.4
826.8156	641.0056	2297.75	1462.35
826.9603	643.1216	2322.6	1484.7
827.105	645.237	2305.15	1465.9
827.2497	647.3518	2288.1	1450.35
827.3944	649.4659	2283.6	1447.9
827.5391	651.5793	2265.25	1426.7
827.6838	653.6922	2237.4	1400.3
827.8285	655.8043	2247.5	1409.35
827.9733	657.9159	2239.15	1399.95
828.118	660.0268	2222	1380.5
828.2627	662.137	2217.95	1378.55
828.4075	664.2466	2231	1390.1
828.5522	666.3556	2223.2	1384.25
828.697	668.4639	2217.45	1372.8
828.8418	670.5716	2210.65	1371.55
828.9865	672.6786	2207.75	1366.35
829.1313	674.785	2201.15	1357.7
829.2761	676.8907	2190.15	1350.7
829.4209	678.9958	2190.1	1349.2
829.5657	681.1002	2190.3	1348.65
829.7105	683.204	2189.8	1345.2
829.8553	685.3072	2199.95	1354.45
830.0001	687.4097	2184.25	1340.8
830.1449	689.5115	2186.05	1339.15
830.2898	691.6127	2181.85	1339.45
830.4346	693.7132	2180.3	1333.45
830.5794	695.8131	2187.8	1327
830.7243	697.9123	2174.85	1330.6
830.8691	700.0109	2186.35	1339.9
831.014	702.1089	2184.5	1339.5
831.1588	704.2061	2193.3	1348.65
831.3037	706.3028	2205.5	1355.85
831.4486	708.3987	2216.45	1369.65
831.5935	710.4941	2220.6	1375.5
831.7383	712.5887	2231.2	1384.25
831.8832	714.6827	2225.25	1372.4
832.0281	716.7761	2211.6	1363.45
832.173	718.8688	2221.7	1374.7
832.3179	720.9608	2221.75	1371.5
832.4628	723.0522	2228.4	1377.7
832.6077	725.1429	2248.15	1400.5
832.7527	727.233	2270.1	1421.15
832.8976	729.3224	2305.35	1456.15
833.0425	731.4112	2346.4	1495.65
833.1874	733.4993	2351.15	1498.7
833.3324	735.5867	2311.95	1461.8
833.4773	737.6735	2271.9	1420
833.6222	739.7596	2231.7	1377.95
833.7672	741.845	2212.2	1361.7
833.9122	743.9298	2213.1	1359.75
834.0571	746.014	2228.35	1380
834.2021	748.0974	2233.4	1379.6
834.347	750.1802	2232.35	1380.1
834.492	752.2624	2232.45	1382.05
834.637	754.3439	2206.7	1353.4
834.782	756.4247	2210.6	1349.55
834.9269	758.5048	2199.55	1348.4
835.0719	760.5843	2201.3	1348.05
835.2169	762.6631	2213.05	1360.1
835.3619	764.7413	2241.65	1388.6
835.5069	766.8188	2301.2	1447.75
835.6519	768.8956	2338.15	1482.7
835.7969	770.9718	2377.85	1524.3
835.9419	773.0473	2376.35	1522.2
836.0869	775.1221	2356.3	1499.9
836.232	777.1962	2354.55	1499.85
836.377	779.2697	2384.3	1527.45
836.522	781.3426	2431.85	1566.95
836.667	783.4147	2478	1622.55
836.8121	785.4862	2461.1	1604.3
836.9571	787.557	2402.65	1548
837.1021	789.6271	2318.75	1460.4
837.2472	791.6966	2248.95	1393.7
837.3922	793.7654	2177.1	1319.7
837.5373	795.8335	2148.4	1288.25
837.6823	797.901	2115.15	1260.35
837.8274	799.9678	2103.35	1244.75
837.9724	802.0339	2103.1	1247.45
838.1175	804.0993	2114	1246.2
838.2626	806.1641	2105.6	1247.25
838.4076	808.2282	2092.75	1235
838.5527	810.2916	2070.5	1210.85
838.6978	812.3544	2067.05	1211.3
838.8428	814.4164	2059.5	1205.3
838.9879	816.4778	2068.15	1208.95
839.133	818.5385	2070.25	1211
839.2781	820.5986	2084.7	1227.2
839.4232	822.658	2126.05	1266
839.5682	824.7166	2162.75	1304.05
839.7133	826.7747	2217.6	1358.8
839.8584	828.832	2278.55	1420.7
840.0035	830.8886	2307.15	1447.7
840.1486	832.9446	2313.5	1452.35
840.2937	834.9999	2297.05	1438.35
840.4388	837.0545	2254.3	1389.8
840.5839	839.1085	2198.2	1338.8
840.729	841.1618	2147.75	1284.95
840.8741	843.2143	2105.2	1246.55
841.0192	845.2662	2078.9	1220.15
841.1643	847.3175	2069.5	1208.95
841.3095	849.368	2063.2	1201
841.4546	851.4179	2045.95	1186.5
841.5997	853.467	2050.75	1190.2
841.7448	855.5155	2061.3	1201.3
841.8899	857.5633	2057.5	1196.85
842.0351	859.6105	2051.45	1191.85
842.1802	861.6569	2045.25	1185.2
842.3253	863.7027	2028.65	1167.6
842.4704	865.7478	2028.3	1166.95
842.6156	867.7922	2015.55	1154.4
842.7607	869.8359	2006.6	1144.5
842.9058	871.8789	1999.75	1136.7
843.0509	873.9212	2044.8	1147.55
843.1961	875.9629	2007.75	1146.9
843.3412	878.0039	2009.55	1144.95
843.4863	880.0441	2026.05	1164.45
843.6315	882.0837	2032.1	1168.8
843.7766	884.1226	2049.75	1184.25
843.9218	886.1609	2069.55	1206.75
844.0669	888.1984	2103.7	1243.5
844.212	890.2352	2125.1	1262.85
844.3572	892.2714	2135.25	1267.2
844.5023	894.3069	2114.5	1250.25
844.6475	896.3416	2078.7	1214.3
844.7926	898.3757	2044.95	1181.3
844.9377	900.4091	2039.55	1174.15
845.0829	902.4418	2041	1172.75
845.228	904.4739	2056.65	1188.8
845.3732	906.5052	2053.95	1188.7
845.5183	908.5358	2054.1	1190.9
845.6635	910.5658	2026.65	1158.9
845.8086	912.595	2015.35	1150.55
845.9538	914.6236	1991.25	1126.65
846.0989	916.6515	1965.55	1101.2
846.2441	918.6786	1955.7	1090.6
846.3892	920.7051	1943.4	1075.1
846.5344	922.7309	1934.15	1070.5
846.6795	924.756	1930.85	1064.8
846.8246	926.7804	1942.95	1074.95
846.9698	928.8041	1947.8	1078
847.1149	930.8272	1952.05	1084.85
847.2601	932.8495	1957.6	1090.95
847.4052	934.8711	1970.5	1101.8
847.5504	936.892	1955.8	1088.45
847.6955	938.9123	1972.4	1102.8
847.8407	940.9318	1986.05	1117.8
847.9858	942.9506	1998.8	1130.8
848.131	944.9688	1985.1	1116.85
848.2761	946.9862	1966.9	1097.55
848.4213	949.003	1937.8	1070.55
848.5664	951.019	1929.05	1059.55
848.7115	953.0344	1914.3	1047.2
848.8567	955.0491	1899.4	1030.5
849.0018	957.063	1906.6	1037.15
849.147	959.0763	1901.5	1035.6
849.2921	961.0888	1901.45	1030.45
849.4373	963.1007	1894.45	1025.85
849.5824	965.1119	1896.9	1026.7
849.7275	967.1223	1877.3	1008.6
849.8727	969.1321	1873.9	1004.8
850.0178	971.1412	1874.6	1006.7
850.1629	973.1495	1865.6	998.85
850.3081	975.1572	1895.35	994.2
850.4532	977.1641	1869.85	1000.65
850.5983	979.1704	1864.45	995.05
850.7435	981.1759	1861	989.85
850.8886	983.1808	1860.5	988.25
851.0337	985.1849	1858.95	978.8
851.1788	987.1884	1841.1	969.1
851.324	989.1911	1849.8	979.05
851.4691	991.1932	1850.55	978.65
851.6142	993.1945	1852.45	982.3
851.7593	995.1951	1845.5	975.3
851.9045	997.1951	1845.75	971.4
852.0496	999.1943	1841.4	970.85
852.1947	1001.1928	1829.75	957.2
852.3398	1003.1906	1839.7	970.05
852.4849	1005.1877	1857.45	983.95
852.63	1007.1841	1870	996.9
852.7751	1009.1798	1873.5	1001.9
852.9202	1011.1748	1863.8	994.2
853.0653	1013.1691	1844.7	971.75
853.2104	1015.1627	1826.4	952.8
853.3555	1017.1556	1798.25	926.6
853.5006	1019.1477	1800.45	926.45
853.6457	1021.1392	1770.25	899.25
853.7908	1023.1299	1765.3	892.55
853.9359	1025.12	1769.55	897.6
854.081	1027.1093	1769.55	900.8
854.2261	1029.0979	1777.6	908.45
854.3712	1031.0859	1784.6	911.95
854.5163	1033.0731	1796.2	921.5
854.6613	1035.0596	1798.7	926.85
854.8064	1037.0454	1777.5	906
854.9515	1039.0304	1771.8	897.1
855.0965	1041.0148	1764.65	892.6
855.2416	1042.9985	1744.35	871.45
855.3867	1044.9814	1734.5	863.9
855.5317	1046.9636	1733.95	859.4
855.6768	1048.9452	1738.9	866.75
855.8219	1050.926	1744.9	872.5
855.9669	1052.9061	1751.85	880.5
856.112	1054.8855	1737.65	865.65
856.257	1056.8642	1752.85	879.25
856.4021	1058.8421	1746.7	869.7
856.5471	1060.8194	1745.7	872.85
856.6921	1062.7959	1735.1	861.6
856.8372	1064.7717	1727.35	854.35
856.9822	1066.7469	1743.9	868.25
857.1272	1068.7213	1740.5	863.25
857.2723	1070.695	1748.85	877
857.4173	1072.6679	1752.2	878.4
857.5623	1074.6402	1766.3	891.9
857.7073	1076.6117	1768.95	889.15
857.8523	1078.5826	1753.95	879.75
857.9973	1080.5527	1735.7	859.05
858.1423	1082.5221	1706.6	834.15
858.2873	1084.4908	1696.45	824.8
858.4323	1086.4587	1681.7	807.3
858.5773	1088.426	1679.7	804.75
858.7223	1090.3925	1677.4	797.55
858.8673	1092.3584	1678.15	804.45
859.0123	1094.3235	1675.25	802.55
859.1573	1096.2879	1691.9	816.55
859.3022	1098.2515	1702.65	827.45
859.4472	1100.2145	1716.95	840.75
859.5922	1102.1767	1729.3	851.8
859.7371	1104.1382	1763.7	887.95
859.8821	1106.099	1798.6	919.35
860.027	1108.0591	1818.65	943.95
860.172	1110.0185	1836.65	960.3
860.3169	1111.9771	1865.25	990.8
860.4619	1113.9351	1891.25	1017.45
860.6068	1115.8923	1921.65	1046.9
860.7517	1117.8488	1932.85	1055.05
860.8967	1119.8045	1902.35	1028.55
861.0416	1121.7596	1849.1	973.6
861.1865	1123.7139	1780.65	905.15
861.3314	1125.6675	1745.8	870.05
861.4763	1127.6204	1739.85	864.05
861.6212	1129.5726	1755.6	877.8
861.7661	1131.524	1759.15	883.6
861.911	1133.4748	1718.75	843.2
862.0559	1135.4248	1687.4	810.45
862.2008	1137.3741	1655.1	781.45
862.3457	1139.3226	1642.45	765.9
862.4905	1141.2705	1639.85	764.95
862.6354	1143.2176	1641.3	758.6
862.7803	1145.164	1649.55	771.55
862.9251	1147.1097	1643.85	768.75
863.07	1149.0546	1627.7	748.7
863.2148	1150.9989	1608.5	732.7
863.3597	1152.9424	1603.55	726.85
863.5045	1154.8852	1596.8	719.75
863.6493	1156.8272	1581.2	703.3
863.7942	1158.7686	1596	714.55
863.939	1160.7092	1580.25	704.25
864.0838	1162.6491	1582.1	703.5
864.2286	1164.5883	1588.1	714.05
864.3734	1166.5267	1600.65	723.2
864.5182	1168.4644	1613.65	737.2
864.663	1170.4014	1631	748.9
864.8078	1172.3377	1650.6	774.7
864.9526	1174.2732	1682.85	806.15
865.0974	1176.2081	1735.7	859.65
865.2421	1178.1421	1812.2	931.1
865.3869	1180.0755	1875.9	1001.25
865.5317	1182.0082	1914.75	1037.3
865.6764	1183.9401	1899.65	1021.35
865.8212	1185.8713	1832.55	954.45
865.9659	1187.8017	1753.65	873.45
866.1106	1189.7315	1693.85	816.35
866.2554	1191.6605	1681.75	777.35
866.4001	1193.5888	1621.4	745.35
866.5448	1195.5163	1601.25	724.75
866.6895	1197.4432	1577.85	700.8
866.8342	1199.3693	1568.7	693.15
866.9789	1201.2947	1562.6	677.6
867.1236	1203.2193	1553.85	676.65
867.2683	1205.1432	1552.9	675.55
867.413	1207.0664	1549.45	672.95
867.5576	1208.9889	1549.15	667.55
867.7023	1210.9106	1545	667.9
867.847	1212.8316	1548	671.7
867.9916	1214.7519	1562.85	672.35
868.1363	1216.6715	1557.15	678.95
868.2809	1218.5903	1558.3	681.35
868.4255	1220.5084	1576.7	697.9
868.5701	1222.4257	1573.85	696.05
868.7148	1224.3424	1587.2	708
868.8594	1226.2583	1598.5	717.1
869.004	1228.1735	1617.3	738.1
869.1486	1230.0879	1636.65	757.1
869.2932	1232.0016	1662.85	784.7
869.4377	1233.9146	1670.25	791.05
869.5823	1235.8269	1691.55	813.4
869.7269	1237.7384	1688.8	810.45
869.8715	1239.6492	1689.6	811.2
870.016	1241.5592	1708.9	827.35
870.1606	1243.4686	1724.65	846.6
870.3051	1245.3772	1764.7	885.7
870.4496	1247.285	1818.25	937.95
870.5941	1249.1922	1878.7	998.75
