Software Version:	3.9.2.0
Unit SN:	10000200
Spectrometer SN:	6960
Date:	3/14/2024 1:12:30 PM
Data Line Index:	25
Spectral Points:	2048
Integration time (ms):	125
Averages:	20
Delay (ms):	30000
Sequence Number:	1
Processing:	dark subtract
Laser Power (mW):	305
Laser Current (mA):	825
Laser Diode Temp (C):	25.1
Laser Case Temp (C):	28.1
System Temp (C):	28.2
Spectrometer Temp (C):	26.1
CCD Temp (C):	0.004
Secondary Temp (C):	20.01
Heatsink Temp (C):	24.1
CCDPCB Temp (C):	37.641
SecondaryPCB Temp (C):	35.34

Wavelength	RamanShift	Raw Counts	Dark Subtracted
787.061	30.1047	441.7	29.4
787.2016	32.3739	441.65	32.95
787.3422	34.6426	445.9	35
787.4828	36.9109	450.85	38.3
787.6235	39.1787	455.8	39.2
787.7642	41.4461	463.05	41.4
787.9049	43.7131	472	46.65
788.0456	45.9796	475.3	46.4
788.1863	48.2456	482.85	48.15
788.3271	50.5112	488.85	51.4
788.4679	52.7764	495.35	57.95
788.6087	55.0411	502.15	59.4
788.7496	57.3054	510.9	63.75
788.8904	59.5692	519.45	71.05
789.0313	61.8326	528.8	76
789.1722	64.0955	534.6	78.1
789.3132	66.3579	551.75	88.3
789.4541	68.6199	559.4	93.35
789.5951	70.8815	579.1	111.25
789.7361	73.1426	633.35	162.05
789.8771	75.4032	761.3	285
790.0181	77.6634	1073.05	591.15
790.1592	79.9231	1811.6	1323.55
790.3003	82.1824	3381.15	2888.75
790.4414	84.4412	6186.15	5677.9
790.5825	86.6995	10017.1	9495.7
790.7237	88.9574	13828.2	13289.55
790.8648	91.2148	16496.75	15951.1
791.006	93.4717	17762.05	17211.6
791.1472	95.7282	17991.8	17433.35
791.2885	97.9842	17862.15	17302.95
791.4297	100.2398	17451.5	16888.25
791.571	102.4949	16976.65	16412.45
791.7123	104.7495	16461.95	15890.5
791.8536	107.0036	15899	15327.5
791.9949	109.2573	15420.55	14850.95
792.1363	111.5105	14947.25	14373.4
792.2777	113.7632	14547.15	13973.4
792.4191	116.0154	14220	13635.9
792.5605	118.2672	13977.6	13399.5
792.7019	120.5185	13701.35	13122.3
792.8434	122.7693	13515.75	12933.3
792.9849	125.0197	13330.95	12748.75
793.1264	127.2696	13172.6	12586.25
793.2679	129.519	13092.35	12503.15
793.4094	131.7679	12912.65	12322.6
793.551	134.0163	12754.75	12160
793.6926	136.2642	12559.3	11960
793.8342	138.5117	12355.45	11750.7
793.9758	140.7587	12129.25	11526.65
794.1175	143.0052	11931.15	11323.8
794.2591	145.2512	11736.35	11127.05
794.4008	147.4967	11547.05	10938.9
794.5425	149.7417	11391.8	10780.25
794.6842	151.9863	11294	10680.35
794.826	154.2304	11214.7	10599.25
794.9677	156.4739	11118.85	10495.6
795.1095	158.717	11086.65	10466.05
795.2513	160.9596	10987.85	10361.85
795.3931	163.2017	10844.65	10215.15
795.535	165.4433	10685.8	10056.85
795.6768	167.6844	10523.6	9890.05
795.8187	169.925	10334.3	9697.6
795.9606	172.1651	10115.15	9476.2
796.1025	174.4047	9957.45	9314.95
796.2445	176.6439	9796.85	9151.8
796.3864	178.8825	9658.85	9014.9
796.5284	181.1206	9564	8911.15
796.6704	183.3582	9470	8817
796.8124	185.5954	9424.7	8770.35
796.9544	187.832	9386.15	8727.2
797.0965	190.0681	9352.95	8691.7
797.2386	192.3037	9364.2	8698
797.3806	194.5388	9343.2	8676.85
797.5228	196.7734	9366.3	8696.55
797.6649	199.0075	9424.4	8749.4
797.807	201.2411	9487.35	8810.55
797.9492	203.4742	9519.45	8844.7
798.0914	205.7068	9613.45	8936.7
798.2336	207.9389	9669.2	8990.9
798.3758	210.1704	9780.25	9101.25
798.518	212.4015	9823.2	9141.55
798.6603	214.632	9905.75	9221.15
798.8025	216.862	9964.1	9285.15
798.9448	219.0915	10005.65	9335.4
799.0871	221.3205	10047.2	9380.15
799.2294	223.549	10095.6	9435.7
799.3718	225.777	10158	9497.55
799.5141	228.0044	10193.25	9527.15
799.6565	230.2314	10246.2	9585
799.7989	232.4578	10320.35	9658.85
799.9413	234.6837	10362.05	9690.15
800.0837	236.909	10404.35	9730.25
800.2262	239.1339	10404.6	9707.25
800.3687	241.3582	10346.3	9664.9
800.5111	243.582	10303.55	9598.45
800.6536	245.8053	10260.95	9561.6
800.7961	248.0281	10214.35	9520.7
800.9387	250.2503	10222.85	9524.2
801.0812	252.472	10229.85	9523.9
801.2238	254.6932	10299.9	9595.3
801.3664	256.9139	10319.95	9606.75
801.509	259.134	10427.4	9713.25
801.6516	261.3536	10579.15	9865.9
801.7942	263.5727	10760.25	10046.95
801.9369	265.7912	10906.1	10193.1
802.0795	268.0092	11054.3	10341
802.2222	270.2267	11177.9	10464.2
802.3649	272.4436	11282.6	10565.3
802.5076	274.6601	11301.85	10576.3
802.6504	276.8759	11254.35	10537.85
802.7931	279.0913	11221.35	10502.65
802.9359	281.3061	11154.9	10432.1
803.0787	283.5204	11137.05	10413.25
803.2215	285.7341	11151.9	10423.8
803.3643	287.9473	11148.6	10418.25
803.5071	290.16	11138.45	10404.35
803.6499	292.3721	11171.7	10445.3
803.7928	294.5837	11289.1	10560
803.9357	296.7947	11382.75	10653.25
804.0786	299.0052	11469.7	10739.85
804.2215	301.2152	11434.35	10701.9
804.3644	303.4246	11365.15	10635.05
804.5074	305.6334	11170.5	10437.45
804.6503	307.8418	10946.7	10214.15
804.7933	310.0495	10691.1	9956.4
804.9363	312.2568	10458.85	9725.3
805.0793	314.4635	10235.05	9496.75
805.2223	316.6696	10008.75	9271.2
805.3653	318.8752	9876.05	9128.4
805.5084	321.0802	9792.45	9057
805.6514	323.2847	9782.8	9044.8
805.7945	325.4887	9815.65	9074.95
805.9376	327.692	9817.5	9077.7
806.0807	329.8949	9828.85	9087.15
806.2238	332.0972	9739	8994.75
806.367	334.2989	9635.25	8887.15
806.5101	336.5001	9475.8	8730.15
806.6533	338.7007	9337.2	8591.25
806.7965	340.9008	9239.8	8491.75
806.9397	343.1003	9119.75	8365.9
807.0829	345.2992	9049.4	8298.2
807.2261	347.4976	8988.55	8234.45
807.3693	349.6955	8918.25	8157.65
807.5126	351.8927	8880.85	8121.05
807.6559	354.0895	8831.4	8062.15
807.7991	356.2856	8802.15	8042.95
807.9424	358.4812	8758.3	7999.5
808.0857	360.6763	8758.05	7998.15
808.2291	362.8707	8753.7	7992.05
808.3724	365.0646	8774.65	8011.7
808.5158	367.258	8777.8	8014.75
808.6591	369.4508	8817.55	8049.35
808.8025	371.643	8900.5	8129.95
808.9459	373.8346	8925.1	8152.4
809.0893	376.0257	8993.95	8218.15
809.2327	378.2162	9006.65	8229.5
809.3762	380.4062	9009.55	8229.55
809.5196	382.5956	8939.3	8161.8
809.6631	384.7844	8871.75	8094.25
809.8066	386.9726	8748.35	7967.65
809.9501	389.1603	8710.85	7927.25
810.0936	391.3474	8679.65	7865.1
810.2371	393.5339	8649.45	7866.7
810.3806	395.7199	8606.9	7831.4
810.5241	397.9052	8645.2	7870.95
810.6677	400.09	8692.5	7917.65
810.8113	402.2743	8778.25	8008.45
810.9548	404.4579	8871.85	8101.7
811.0984	406.641	8988.15	8215.2
811.2421	408.8235	9084.35	8312.05
811.3857	411.0054	9194	8418.6
811.5293	413.1868	9313.55	8537.65
811.673	415.3675	9338.4	8560.1
811.8166	417.5477	9363.6	8584.4
811.9603	419.7273	9284.75	8503.7
812.104	421.9064	9208.3	8418.95
812.2477	424.0848	9119.2	8334.2
812.3914	426.2627	9030.75	8244
812.5351	428.4399	8900.55	8111.7
812.6788	430.6166	8692.95	7899.45
812.8226	432.7928	8478.15	7684.05
812.9663	434.9683	8316.95	7521.55
813.1101	437.1432	8189.2	7393.45
813.2539	439.3176	8093.75	7298.95
813.3977	441.4914	7995.45	7199.25
813.5415	443.6645	7977.85	7179.55
813.6853	445.8371	7939.35	7137.45
813.8291	448.0091	7924.8	7127.9
813.973	450.1806	7903.45	7104.9
814.1168	452.3514	7876.35	7073.85
814.2607	454.5216	7888.1	7077.7
814.4046	456.6913	7873.3	7070
814.5485	458.8603	7911.55	7108
814.6924	461.0288	7919.6	7115.75
814.8363	463.1967	7898.8	7097.9
814.9802	465.3639	7921.2	7117.3
815.1241	467.5306	7907	7104.05
815.2681	469.6967	7881	7074.5
815.412	471.8622	7876.45	7072.7
815.556	474.0271	7892.9	7089.3
815.7	476.1914	7925.85	7117.45
815.844	478.3551	7905.8	7099.1
815.988	480.5182	7927.65	7119.35
816.132	482.6807	7968.85	7160.45
816.276	484.8426	8093.85	7286.4
816.4201	487.0039	8269	7458.8
816.5641	489.1647	8487.4	7678.5
816.7082	491.3248	8670.9	7862.3
816.8522	493.4843	8746.4	7938.45
816.9963	495.6432	8720.2	7911
817.1404	497.8015	8618.1	7804.65
817.2845	499.9592	8523.6	7713.5
817.4286	502.1163	8391.35	7578.65
817.5727	504.2728	8205.15	7391.25
817.7168	506.4287	8047.1	7232.3
817.861	508.5839	7858.1	7041.2
818.0051	510.7386	7752.4	6940.55
818.1493	512.8927	7709.2	6887.25
818.2935	515.0461	7697.1	6880.1
818.4377	517.199	7740.2	6923.95
818.5818	519.3512	7820.65	7006.35
818.726	521.5029	7987.8	7166.95
818.8703	523.6539	8158.8	7341.75
819.0145	525.8043	8208.7	7389.85
819.1587	527.9541	8173.95	7351.15
819.303	530.1033	8040.6	7222.4
819.4472	532.2519	7925.6	7104.85
819.5915	534.3999	7863.75	7041.4
819.7357	536.5472	7902.55	7081.35
819.88	538.694	7982.15	7159.5
820.0243	540.8401	8137.45	7315.75
820.1686	542.9856	8249.8	7426.25
820.3129	545.1305	8267	7443.8
820.4572	547.2748	8250.85	7425.8
820.6016	549.4185	8163.3	7335.65
820.7459	551.5615	8054.6	7225.9
820.8902	553.704	8062.75	7236.3
821.0346	555.8458	8093.55	7268.9
821.1789	557.987	8198.1	7372.65
821.3233	560.1276	8316	7486.6
821.4677	562.2675	8523.8	7697
821.6121	564.4069	8810.25	7987
821.7565	566.5456	9084.6	8258.4
821.9009	568.6837	9160.3	8332.9
822.0453	570.8212	8932.6	8106.35
822.1897	572.958	8554.6	7725.9
822.3342	575.0942	8152.4	7324.25
822.4786	577.2299	7888.65	7059.95
822.6231	579.3648	7773.2	6946.95
822.7675	581.4992	7734.85	6908.55
822.912	583.6329	7792.05	6962.25
823.0565	585.766	7860.95	7035
823.201	587.8985	7944.85	7120.25
823.3454	590.0304	8014.4	7162.6
823.4899	592.1616	7990.45	7159.65
823.6345	594.2922	7911.45	7080.25
823.779	596.4222	7809.85	6979
823.9235	598.5515	7645.15	6812.35
824.068	600.6802	7534.15	6701.8
824.2126	602.8083	7442.25	6609.15
824.3571	604.9358	7429.7	6597.85
824.5017	607.0626	7424.05	6591.25
824.6462	609.1888	7479.85	6647.05
824.7908	611.3144	7557.75	6722.4
824.9354	613.4393	7635.85	6800.65
825.08	615.5636	7732.25	6897.8
825.2246	617.6873	7760.15	6927.9
825.3692	619.8103	7730.9	6894.2
825.5138	621.9327	7614.85	6778.65
825.6584	624.0544	7476.7	6640.7
825.803	626.1756	7383.15	6546.45
825.9477	628.2961	7282.6	6446.35
826.0923	630.4159	7216.1	6378.4
826.237	632.5351	7186.15	6348.6
826.3816	634.6537	7176.2	6339.3
826.5263	636.7716	7148.4	6309.65
826.6709	638.8889	7177	6337.6
826.8156	641.0056	7180.35	6339.95
826.9603	643.1216	7159.55	6318.65
827.105	645.237	7153.2	6309.85
827.2497	647.3518	7095.85	6253.25
827.3944	649.4659	7063.5	6220.45
827.5391	651.5793	6999.1	6157.5
827.6838	653.6922	7002.7	6163.45
827.8285	655.8043	6978.8	6136.7
827.9733	657.9159	6967.9	6127.15
828.118	660.0268	6952.3	6108.4
828.2627	662.137	6932.2	6089.35
828.4075	664.2466	6938.15	6094.5
828.5522	666.3556	6940.3	6098.7
828.697	668.4639	6919.85	6073.95
828.8418	670.5716	6883.95	6040.55
828.9865	672.6786	6855.95	6011.3
829.1313	674.785	6807.9	5961.35
829.2761	676.8907	6782.7	5938.2
829.4209	678.9958	6782.8	5937.8
829.5657	681.1002	6788.85	5942.75
829.7105	683.204	6745.85	5894.1
829.8553	685.3072	6747.85	5901.5
830.0001	687.4097	6731.2	5886.15
830.1449	689.5115	6710	5860.5
830.2898	691.6127	6717.2	5869.85
830.4346	693.7132	6696.75	5847.7
830.5794	695.8131	6706.15	5843.55
830.7243	697.9123	6703.75	5854.25
830.8691	700.0109	6735.55	5885.75
831.014	702.1089	6743.25	5895.95
831.1588	704.2061	6759.5	5912.65
831.3037	706.3028	6805.2	5955.2
831.4486	708.3987	6842.4	5992.6
831.5935	710.4941	6864.15	6014.55
831.7383	712.5887	6882.75	6032.5
831.8832	714.6827	6928.5	6072.85
832.0281	716.7761	6983.6	6133.1
832.173	718.8688	7058.3	6205.6
832.3179	720.9608	7141.85	6288.85
832.4628	723.0522	7221.65	6367.75
832.6077	725.1429	7238.15	6386.85
832.7527	727.233	7294.95	6442.15
832.8976	729.3224	7368.5	6518.4
833.0425	731.4112	7345.8	6492.65
833.1874	733.4993	7248.25	6390.85
833.3324	735.5867	7106.7	6251.8
833.4773	737.6735	6940.4	6085.45
833.6222	739.7596	6815	5961.75
833.7672	741.845	6750.65	5896
833.9122	743.9298	6695.3	5839.55
834.0571	746.014	6659.2	5804.35
834.2021	748.0974	6649.2	5793.8
834.347	750.1802	6640.85	5787.3
834.492	752.2624	6681.1	5826.55
834.637	754.3439	6659.65	5802.1
834.782	756.4247	6716.1	5848.7
834.9269	758.5048	6803.75	5950.05
835.0719	760.5843	6949.35	6092.6
835.2169	762.6631	7155.25	6299.95
835.3619	764.7413	7473.95	6618.05
835.5069	766.8188	7886.25	7026.5
835.6519	768.8956	8238.05	7379
835.7969	770.9718	8475.2	7620
835.9419	773.0473	8454.85	7599.15
836.0869	775.1221	8307.45	7450.5
836.232	777.1962	8155.8	7298.55
836.377	779.2697	8129.95	7272
836.522	781.3426	8220.35	7355.8
836.667	783.4147	8280.85	7420.3
836.8121	785.4862	8313.4	7457.7
836.9571	787.557	8195.8	7337.65
837.1021	789.6271	7884.7	7027.35
837.2472	791.6966	7486.55	6625.9
837.3922	793.7654	7139.3	6278.95
837.5373	795.8335	6851.25	5991.75
837.6823	797.901	6693.3	5834.15
837.8274	799.9678	6593.7	5733
837.9724	802.0339	6525.35	5666.55
838.1175	804.0993	6526.35	5658
838.2626	806.1641	6455.3	5596.05
838.4076	808.2282	6420.2	5562.2
838.5527	810.2916	6357.35	5495.55
838.6978	812.3544	6320.05	5459.4
838.8428	814.4164	6288.3	5429.8
838.9879	816.4778	6320.6	5458.65
839.133	818.5385	6321.05	5457.25
839.2781	820.5986	6402	5542.55
839.4232	822.658	6537.55	5674.15
839.5682	824.7166	6748.6	5889.9
839.7133	826.7747	7070.7	6212.3
839.8584	828.832	7373.6	6511.75
840.0035	830.8886	7606.35	6743.65
840.1486	832.9446	7720.85	6859.1
840.2937	834.9999	7655.85	6795.4
840.4388	837.0545	7462.35	6597.9
840.5839	839.1085	7211.7	6348.85
840.729	841.1618	7010.9	6144.9
840.8741	843.2143	6842.65	5981
841.0192	845.2662	6729.4	5867.15
841.1643	847.3175	6638.4	5776.65
841.3095	849.368	6576.85	5716.55
841.4546	851.4179	6531.1	5668.8
841.5997	853.467	6460.3	5597.7
841.7448	855.5155	6420.05	5556.55
841.8899	857.5633	6370.8	5507.45
842.0351	859.6105	6315.2	5452.25
842.1802	861.6569	6284.5	5421.95
842.3253	863.7027	6232.2	5367
842.4704	865.7478	6184.15	5320.7
842.6156	867.7922	6156.15	5292.4
842.7607	869.8359	6147.2	5282.9
842.9058	871.8789	6154.05	5290.45
843.0509	873.9212	6207.6	5309.85
843.1961	875.9629	6219.85	5354
843.3412	878.0039	6284	5416.55
843.4863	880.0441	6349.55	5484.65
843.6315	882.0837	6372.7	5505.05
843.7766	884.1226	6421.6	5554
843.9218	886.1609	6462.7	5597.9
844.0669	888.1984	6533.3	5667
844.212	890.2352	6600.6	5738.4
844.3572	892.2714	6628.05	5760.2
844.5023	894.3069	6579.05	5713.5
844.6475	896.3416	6481.7	5616.25
844.7926	898.3757	6386.2	5518.3
844.9377	900.4091	6306.95	5440.85
845.0829	902.4418	6281.9	5410.8
845.228	904.4739	6306.45	5439.1
845.3732	906.5052	6353.8	5487.2
845.5183	908.5358	6317.6	5451.15
845.6635	910.5658	6252.95	5386.5
845.8086	912.595	6124.9	5259.5
845.9538	914.6236	5981.25	5116.8
846.0989	916.6515	5909.6	5043.75
846.2441	918.6786	5851.6	4984.15
846.3892	920.7051	5852.75	4983.7
846.5344	922.7309	5840.05	4975.3
846.6795	924.756	5853.15	4985.15
846.8246	926.7804	5889.2	5017.25
846.9698	928.8041	5874.3	5005.9
847.1149	930.8272	5939.55	5070.1
847.2601	932.8495	5930.85	5062
847.4052	934.8711	5908.6	5038.2
847.5504	936.892	5906.1	5038.7
847.6955	938.9123	5884.15	5014.6
847.8407	940.9318	5899.4	5028.85
847.9858	942.9506	5919.2	5048.75
848.131	944.9688	5897.2	5026.5
848.2761	946.9862	5808.25	4938.2
848.4213	949.003	5716.3	4846.75
848.5664	951.019	5648.35	4777.05
848.7115	953.0344	5601.2	4732.4
848.8567	955.0491	5593.7	4723
849.0018	957.063	5617.55	4747.35
849.147	959.0763	5647.95	4775.1
849.2921	961.0888	5651.9	4777.7
849.4373	963.1007	5671.55	4800.35
849.5824	965.1119	5696.7	4827.05
849.7275	967.1223	5695.2	4825.2
849.8727	969.1321	5678.5	4807.9
850.0178	971.1412	5659.15	4788.35
850.1629	973.1495	5644.8	4777.1
850.3081	975.1572	5679.75	4776.95
850.4532	977.1641	5657.3	4788.55
850.5983	979.1704	5641.8	4772.05
850.7435	981.1759	5617.05	4742.9
850.8886	983.1808	5600.5	4728.5
851.0337	985.1849	5626.9	4744.65
851.1788	987.1884	5640	4765.15
851.324	989.1911	5709.2	4834.7
851.4691	991.1932	5732.05	4858.85
851.6142	993.1945	5737.45	4866.9
851.7593	995.1951	5711.25	4836.15
851.9045	997.1951	5697.5	4818.85
852.0496	999.1943	5677.45	4809.75
852.1947	1001.1928	5686.85	4814.85
852.3398	1003.1906	5719.35	4848.55
852.4849	1005.1877	5812.45	4939.25
852.63	1007.1841	5855.2	4980.2
852.7751	1009.1798	5851.25	4976.75
852.9202	1011.1748	5821.65	4947.65
853.0653	1013.1691	5743.4	4868.4
853.2104	1015.1627	5609.2	4736.95
853.3555	1017.1556	5474.3	4601.6
853.5006	1019.1477	5412	4538.6
853.6457	1021.1392	5339	4467.05
853.7908	1023.1299	5326.55	4456.05
853.9359	1025.12	5330.75	4456.65
854.081	1027.1093	5358.7	4488.4
854.2261	1029.0979	5434.45	4563.2
854.3712	1031.0859	5499.55	4628.15
854.5163	1033.0731	5507.95	4633.1
854.6613	1035.0596	5468.5	4597
854.8064	1037.0454	5394.1	4521.6
854.9515	1039.0304	5338.15	4465.5
855.0965	1041.0148	5279.3	4406.9
855.2416	1042.9985	5216.5	4341.25
855.3867	1044.9814	5182.75	4310.8
855.5317	1046.9636	5150.1	4274.1
855.6768	1048.9452	5144.7	4271
855.8219	1050.926	5164	4292.85
855.9669	1052.9061	5185.85	4311.95
856.112	1054.8855	5214.55	4342.35
856.257	1056.8642	5223.9	4351.9
856.4021	1058.8421	5227.3	4348.45
856.5471	1060.8194	5261.6	4387.75
856.6921	1062.7959	5280.55	4405.95
856.8372	1064.7717	5308.05	4434.1
856.9822	1066.7469	5352.7	4476.75
857.1272	1068.7213	5396.35	4518.35
857.2723	1070.695	5428.9	4554.8
857.4173	1072.6679	5449.8	4574.55
857.5623	1074.6402	5478	4603.7
857.7073	1076.6117	5481.95	4603.25
857.8523	1078.5826	5396.6	4520.05
857.9973	1080.5527	5303.45	4424.6
858.1423	1082.5221	5235.65	4358.9
858.2873	1084.4908	5197.85	4324.4
858.4323	1086.4587	5203.55	4329.35
858.5773	1088.426	5216.1	4341.65
858.7223	1090.3925	5219.35	4338.05
858.8673	1092.3584	5234.2	4360.55
859.0123	1094.3235	5252.75	4378.05
859.1573	1096.2879	5306.15	4430.25
859.3022	1098.2515	5364.95	4489.05
859.4472	1100.2145	5465.2	4590.05
859.5922	1102.1767	5574.25	4697.35
859.7371	1104.1382	5726.75	4851.1
859.8821	1106.099	5880.45	5001.95
860.027	1108.0591	6006.25	5130.8
860.172	1110.0185	6103.35	5225.3
860.3169	1111.9771	6161.75	5285.8
860.4619	1113.9351	6157.65	5279.45
860.6068	1115.8923	6097.55	5222.3
860.7517	1117.8488	6018.4	5139.5
860.8967	1119.8045	5883.5	5010.1
861.0416	1121.7596	5766.5	4889.65
861.1865	1123.7139	5680.25	4804.35
861.3314	1125.6675	5631.75	4757.8
861.4763	1127.6204	5628.1	4751.1
861.6212	1129.5726	5632.75	4755.15
861.7661	1131.524	5592.85	4715.5
861.911	1133.4748	5515.05	4638.6
862.0559	1135.4248	5383.8	4506.05
862.2008	1137.3741	5282.15	4405.2
862.3457	1139.3226	5190.05	4311.3
862.4905	1141.2705	5174.15	4297.4
862.6354	1143.2176	5123.4	4241.75
862.7803	1145.164	5107.5	4230.7
862.9251	1147.1097	5068.7	4190.3
863.07	1149.0546	5008.9	4132.5
863.2148	1150.9989	4933.35	4056.65
863.3597	1152.9424	4867.1	3990.8
863.5045	1154.8852	4795.65	3919.15
863.6493	1156.8272	4777.75	3900.55
863.7942	1158.7686	4790.85	3904.4
863.939	1160.7092	4798.85	3919.65
864.0838	1162.6491	4821.2	3942.5
864.2286	1164.5883	4886	4009.15
864.3734	1166.5267	4940.95	4063.7
864.5182	1168.4644	5060.6	4183.45
864.663	1170.4014	5155.75	4272.2
864.8078	1172.3377	5297.7	4423.55
864.9526	1174.2732	5476.15	4599.4
865.0974	1176.2081	5753.35	4876.7
865.2421	1178.1421	6051.8	5171.2
865.3869	1180.0755	6376.85	5500.45
865.5317	1182.0082	6598.15	5720.55
865.6764	1183.9401	6674.15	5796.95
865.8212	1185.8713	6565.2	5687.45
865.9659	1187.8017	6348.9	5470.8
866.1106	1189.7315	6116.35	5239.35
866.2554	1191.6605	5879.75	4975.95
866.4001	1193.5888	5652.15	4775.25
866.5448	1195.5163	5561.5	4684.85
866.6895	1197.4432	5471.75	4594.4
866.8342	1199.3693	5447	4569.9
866.9789	1201.2947	5429.8	4544
867.1236	1203.2193	5391.1	4514.1
867.2683	1205.1432	5391.1	4511.55
867.413	1207.0664	5380.45	4502.2
867.5576	1208.9889	5360.1	4479.55
867.7023	1210.9106	5336.8	4459.8
867.847	1212.8316	5349.05	4472.75
867.9916	1214.7519	5388.05	4502.9
868.1363	1216.6715	5415.25	4539.1
868.2809	1218.5903	5441.2	4563.6
868.4255	1220.5084	5495.15	4617
868.5701	1222.4257	5559.65	4681.25
868.7148	1224.3424	5594.05	4715.3
868.8594	1226.2583	5689.9	4808.3
869.004	1228.1735	5786.8	4904.25
869.1486	1230.0879	5898.8	5019.2
869.2932	1232.0016	6004.6	5126.95
869.4377	1233.9146	6110	5230.1
