Software Version:	3.9.2.0
Unit SN:	10000200
Spectrometer SN:	6960
Date:	3/14/2024 1:28:27 PM
Data Line Index:	25
Spectral Points:	2048
Integration time (ms):	125
Averages:	20
Delay (ms):	30000
Sequence Number:	1
Processing:	dark subtract
Laser Power (mW):	300
Laser Current (mA):	825
Laser Diode Temp (C):	25
Laser Case Temp (C):	28.5
System Temp (C):	28.5
Spectrometer Temp (C):	26.2
CCD Temp (C):	0.002
Secondary Temp (C):	20.008
Heatsink Temp (C):	24.377
CCDPCB Temp (C):	37.752
SecondaryPCB Temp (C):	35.595

Wavelength	RamanShift	Raw Counts	Dark Subtracted
787.061	30.1047	463.9	51.25
787.2016	32.3739	469.2	59.7
787.3422	34.6426	472.85	60.85
787.4828	36.9109	479.6	65.05
787.6235	39.1787	493.3	75.5
787.7642	41.4461	500.65	77.25
787.9049	43.7131	509.4	83.75
788.0456	45.9796	519	90.9
788.1863	48.2456	529.6	97.65
788.3271	50.5112	542	106.85
788.4679	52.7764	547.95	110.45
788.6087	55.0411	560.9	118.6
788.7496	57.3054	572.8	125.5
788.8904	59.5692	583.1	133.45
789.0313	61.8326	600.95	147.45
789.1722	64.0955	612.65	154.3
789.3132	66.3579	630.45	166.8
789.4541	68.6199	650.5	184.65
789.5951	70.8815	689.15	222.2
789.7361	73.1426	779.45	306.5
789.8771	75.4032	999.15	521.6
790.0181	77.6634	1555.4	1071.2
790.1592	79.9231	2848.1	2358.25
790.3003	82.1824	5711.05	5210.65
790.4414	84.4412	10959.55	10438.65
790.5825	86.6995	18279.85	17733.05
790.7237	88.9574	25518.9	24952.15
790.8648	91.2148	30521.7	29934.8
791.006	93.4717	32929.55	32325.15
791.1472	95.7282	33375.55	32769.95
791.2885	97.9842	33254.7	32648.7
791.4297	100.2398	32551.3	31940.95
791.571	102.4949	31808.15	31197.65
791.7123	104.7495	30885.85	30269.1
791.8536	107.0036	30019.1	29401.65
791.9949	109.2573	29225.1	28610
792.1363	111.5105	28493.75	27877.55
792.2777	113.7632	27822.4	27203.5
792.4191	116.0154	27321.1	26690.2
792.5605	118.2672	26984.5	26359.4
792.7019	120.5185	26619.3	25993
792.8434	122.7693	26339.25	25713.9
792.9849	125.0197	26094.6	25461.95
793.1264	127.2696	25858.3	25226.6
793.2679	129.519	25709.7	25071.1
793.4094	131.7679	25406.65	24767.2
793.551	134.0163	25195.1	24550
793.6926	136.2642	24851.6	24204.35
793.8342	138.5117	24506.65	23855.15
793.9758	140.7587	24148.05	23500.5
794.1175	143.0052	23856.25	23204.4
794.2591	145.2512	23496.35	22846.45
794.4008	147.4967	23180.45	22528.8
794.5425	149.7417	22957.05	22302.5
794.6842	151.9863	22798.15	22143.5
794.826	154.2304	22695.65	22034
794.9677	156.4739	22513.75	21844.25
795.1095	158.717	22400	21734.05
795.2513	160.9596	22222.3	21552.4
795.3931	163.2017	21938.45	21267.1
795.535	165.4433	21671.5	20998.7
795.6768	167.6844	21387.05	20709.4
795.8187	169.925	21090.7	20412.6
795.9606	172.1651	20713.4	20028.7
796.1025	174.4047	20436.85	19751.55
796.2445	176.6439	20192.2	19505.65
796.3864	178.8825	19966.05	19275.75
796.5284	181.1206	19819.55	19128.55
796.6704	183.3582	19705.5	19008.9
796.8124	185.5954	19610.7	18914.5
796.9544	187.832	19512.15	18808.4
797.0965	190.0681	19494.1	18789.25
797.2386	192.3037	19505.75	18803.25
797.3806	194.5388	19479.05	18769.85
797.5228	196.7734	19509.45	18794.35
797.6649	199.0075	19587.25	18869.9
797.807	201.2411	19714.25	18996.6
797.9492	203.4742	19772	19052
798.0914	205.7068	19956.35	19240.15
798.2336	207.9389	20028.35	19310.45
798.3758	210.1704	20156.55	19436.15
798.518	212.4015	20288.3	19561.85
798.6603	214.632	20456.35	19732.15
798.8025	216.862	20582.25	19865.1
798.9448	219.0915	20635.75	19924.45
799.0871	221.3205	20743.6	20034.85
799.2294	223.549	20843.15	20140
799.3718	225.777	20949.75	20246.6
799.5141	228.0044	21061.7	20355.5
799.6565	230.2314	21220.05	20519.75
799.7989	232.4578	21303.1	20600.95
799.9413	234.6837	21391.6	20680.95
800.0837	236.909	21517.15	20806.7
800.2262	239.1339	21485	20749.7
800.3687	241.3582	21426.65	20705.7
800.5111	243.582	21272.45	20527.35
800.6536	245.8053	21207.9	20467.45
800.7961	248.0281	21168.75	20430.65
800.9387	250.2503	21118.45	20376.35
801.0812	252.472	21164	20423.2
801.2238	254.6932	21281.9	20535.15
801.3664	256.9139	21381.15	20635.25
801.509	259.134	21563.85	20810.85
801.6516	261.3536	21738	20987.6
801.7942	263.5727	22008.15	21253.5
801.9369	265.7912	22245.25	21493.1
802.0795	268.0092	22527.7	21777.95
802.2222	270.2267	22655.65	21905.75
802.3649	272.4436	22794	22038
802.5076	274.6601	22842.2	22076.75
802.6504	276.8759	22704.05	21948.8
802.7931	279.0913	22611.3	21855.25
802.9359	281.3061	22498.15	21737.1
803.0787	283.5204	22432.5	21672.4
803.2215	285.7341	22403.05	21637.75
803.3643	287.9473	22459.25	21684
803.5071	290.16	22484.2	21711
803.6499	292.3721	22582.55	21813.55
803.7928	294.5837	22807.25	22041.55
803.9357	296.7947	22970.25	22205.55
804.0786	299.0052	23139.6	22373.6
804.2215	301.2152	23089.3	22319
804.3644	303.4246	22936.05	22168.4
804.5074	305.6334	22564.85	21798.65
804.6503	307.8418	22121.35	21351.65
804.7933	310.0495	21697.45	20926.75
804.9363	312.2568	21292.15	20520.85
805.0793	314.4635	20844.65	20072.75
805.2223	316.6696	20576.6	19803.8
805.3653	318.8752	20354.7	19575.1
805.5084	321.0802	20268.95	19493.8
805.6514	323.2847	20230.9	19454.4
805.7945	325.4887	20280.35	19505.6
805.9376	327.692	20255.05	19480.4
806.0807	329.8949	20246.75	19468.95
806.2238	332.0972	20054.2	19271.65
806.367	334.2989	19821.6	19040.75
806.5101	336.5001	19568.85	18786.2
806.6533	338.7007	19354.15	18570.7
806.7965	340.9008	19215.3	18431
806.9397	343.1003	19036.55	18247.75
807.0829	345.2992	18892.1	18106.2
807.2261	347.4976	18806.9	18017.25
807.3693	349.6955	18696.05	17903.35
807.5126	351.8927	18699.9	17908.5
807.6559	354.0895	18583.95	17779.85
807.7991	356.2856	18567.2	17773.2
807.9424	358.4812	18484	17691.75
808.0857	360.6763	18513.9	17720.3
808.2291	362.8707	18461	17663.55
808.3724	365.0646	18497.3	17699.6
808.5158	367.258	18514.65	17716.75
808.6591	369.4508	18547.95	17747.45
808.8025	371.643	18691.25	17889.35
808.9459	373.8346	18722.8	17916.8
809.0893	376.0257	18791.8	17985.3
809.2327	378.2162	18778.35	17972.15
809.3762	380.4062	18747.4	17935.45
809.5196	382.5956	18644.05	17832.9
809.6631	384.7844	18543.6	17732.9
809.8066	386.9726	18343.3	17525.2
809.9501	389.1603	18278.95	17462.05
810.0936	391.3474	18216.3	17367.95
810.2371	393.5339	18154	17339.2
810.3806	395.7199	18076.7	17269.8
810.5241	397.9052	18106	17303.9
810.6677	400.09	18162	17357.7
810.8113	402.2743	18297.8	17494.45
810.9548	404.4579	18412.9	17610.75
811.0984	406.641	18627.45	17825.4
811.2421	408.8235	18791.3	17989.8
811.3857	411.0054	18927.45	18125
811.5293	413.1868	19112.4	18305.3
811.673	415.3675	19157.75	18350.8
811.8166	417.5477	19168.2	18358.95
811.9603	419.7273	19090.45	18282.5
812.104	421.9064	18982.25	18163.05
812.2477	424.0848	18915.55	18099.75
812.3914	426.2627	18743.6	17928
812.5351	428.4399	18493.15	17671.4
812.6788	430.6166	18127.4	17301.9
812.8226	432.7928	17830.75	17005.3
812.9663	434.9683	17511.95	16688.8
813.1101	437.1432	17235.8	16408.7
813.2539	439.3176	17045.95	16222.65
813.3977	441.4914	16929.85	16105.25
813.5415	443.6645	16909.9	16080.25
813.6853	445.8371	16822.5	15995.65
813.8291	448.0091	16737.05	15909.05
813.973	450.1806	16692.7	15868.8
814.1168	452.3514	16658.4	15829.85
814.2607	454.5216	16693.7	15857.1
814.4046	456.6913	16612.2	15780
814.5485	458.8603	16656.35	15828.1
814.6924	461.0288	16708.55	15878.95
814.8363	463.1967	16679.2	15847.8
814.9802	465.3639	16698.3	15867.85
815.1241	467.5306	16669.1	15837.75
815.2681	469.6967	16677.85	15847.05
815.412	471.8622	16679.9	15848
815.556	474.0271	16723.9	15895.4
815.7	476.1914	16717.9	15883.35
815.844	478.3551	16742.15	15906.25
815.988	480.5182	16783.35	15948.85
816.132	482.6807	16829.7	15992.75
816.276	484.8426	17038.65	16205.3
816.4201	487.0039	17335.05	16500.7
816.5641	489.1647	17675.55	16839.2
816.7082	491.3248	18035.65	17201.6
816.8522	493.4843	18103.05	17268.75
816.9963	495.6432	18032.95	17199.6
817.1404	497.8015	17879	17039
817.2845	499.9592	17786.8	16948.15
817.4286	502.1163	17522.7	16686.15
817.5727	504.2728	17236.6	16398.4
817.7168	506.4287	16945.4	16104.65
817.861	508.5839	16617.15	15778.15
818.0051	510.7386	16419.25	15582.45
818.1493	512.8927	16330.3	15483
818.2935	515.0461	16296.2	15457.25
818.4377	517.199	16321.95	15481.15
818.5818	519.3512	16480	15640.6
818.726	521.5029	16709.5	15861.25
818.8703	523.6539	16965.7	16121.25
819.0145	525.8043	17051.3	16208.75
819.1587	527.9541	16984.3	16140.1
819.303	530.1033	16783.2	15938.9
819.4472	532.2519	16624.9	15781.65
819.5915	534.3999	16523.95	15674.25
819.7357	536.5472	16616	15768.55
819.88	538.694	16779.5	15933.9
820.0243	540.8401	17084.75	16235.4
820.1686	542.9856	17265.55	16419.8
820.3129	545.1305	17304.25	16454.1
820.4572	547.2748	17203.4	16355.3
820.6016	549.4185	17022.95	16174.8
820.7459	551.5615	16843.35	15994.65
820.8902	553.704	16831.45	15985.7
821.0346	555.8458	16836.8	15987.85
821.1789	557.987	17015.55	16166.85
821.3233	560.1276	17216.7	16367.65
821.4677	562.2675	17560.25	16713.4
821.6121	564.4069	18060.4	17208.6
821.7565	566.5456	18475.45	17626.35
821.9009	568.6837	18591.15	17743.65
822.0453	570.8212	18221.1	17372.35
822.1897	572.958	17521.95	16674.85
822.3342	575.0942	16886.8	16039.55
822.4786	577.2299	16443.9	15595.15
822.6231	579.3648	16249.05	15402.4
822.7675	581.4992	16158.15	15308.6
822.912	583.6329	16243.2	15394.65
823.0565	585.766	16376.4	15527.3
823.201	587.8985	16499	15645.6
823.3454	590.0304	16530.3	15653.3
823.4899	592.1616	16477.25	15624.9
823.6345	594.2922	16331.45	15480.6
823.779	596.4222	16134	15280.6
823.9235	598.5515	15919	15065.85
824.068	600.6802	15740.65	14890.55
824.2126	602.8083	15519.85	14665.75
824.3571	604.9358	15516.25	14664.45
824.5017	607.0626	15518.3	14664.45
824.6462	609.1888	15578.7	14724.75
824.7908	611.3144	15709.65	14856.1
824.9354	613.4393	15821	14966.85
825.08	615.5636	15931.95	15076.4
825.2246	617.6873	15930.7	15077.1
825.3692	619.8103	15857.25	15000.55
825.5138	621.9327	15697	14839.95
825.6584	624.0544	15436.55	14577.95
825.803	626.1756	15264.3	14408.75
825.9477	628.2961	15117.3	14259.8
826.0923	630.4159	15012.3	14155.1
826.237	632.5351	14982.25	14127.05
826.3816	634.6537	14919.05	14061.35
826.5263	636.7716	14905.5	14045.15
826.6709	638.8889	14939.85	14083.9
826.8156	641.0056	14958.25	14097.4
826.9603	643.1216	14925	14065.4
827.105	645.237	14891.05	14028.65
827.2497	647.3518	14763.4	13904.85
827.3944	649.4659	14702.3	13843.9
827.5391	651.5793	14610.1	13751
827.6838	653.6922	14593	13735.2
827.8285	655.8043	14575.9	13717.4
827.9733	657.9159	14560.65	13701.7
828.118	660.0268	14521.65	13661.3
828.2627	662.137	14506.55	13642.15
828.4075	664.2466	14484.3	13621.95
828.5522	666.3556	14482.35	13620.4
828.697	668.4639	14431.9	13567.2
828.8418	670.5716	14433.2	13571.8
828.9865	672.6786	14361.45	13498.35
829.1313	674.785	14264.35	13403.35
829.2761	676.8907	14235.9	13373.6
829.4209	678.9958	14251.7	13391.85
829.5657	681.1002	14169.45	13302.2
829.7105	683.204	14170.2	13304.1
829.8553	685.3072	14155.15	13291
830.0001	687.4097	14109.25	13245.95
830.1449	689.5115	14082.3	13213
830.2898	691.6127	14092.65	13230.2
830.4346	693.7132	14024.55	13158.5
830.5794	695.8131	14021.45	13140.15
830.7243	697.9123	14034.8	13166.4
830.8691	700.0109	14058.15	13193.1
831.014	702.1089	14087.15	13221.45
831.1588	704.2061	14117.3	13250.5
831.3037	706.3028	14152.6	13284.5
831.4486	708.3987	14183.8	13319.45
831.5935	710.4941	14168.2	13302.4
831.7383	712.5887	14252.1	13384.4
831.8832	714.6827	14318.4	13444.8
832.0281	716.7761	14459.5	13594.05
832.173	718.8688	14620.65	13753.3
832.3179	720.9608	14717.25	13845.3
832.4628	723.0522	14891.75	14018.9
832.6077	725.1429	14910.45	14039.55
832.7527	727.233	14938.45	14070.4
832.8976	729.3224	15000.45	14130.4
833.0425	731.4112	14908	14038.35
833.1874	733.4993	14753.3	13880.25
833.3324	735.5867	14494.65	13624.65
833.4773	737.6735	14265.65	13392.4
833.6222	739.7596	14059.45	13187.05
833.7672	741.845	13918.3	13043.75
833.9122	743.9298	13809.1	12936
834.0571	746.014	13736.05	12867.85
834.2021	748.0974	13725.15	12855.25
834.347	750.1802	13690.35	12821.7
834.492	752.2624	13718.05	12850
834.637	754.3439	13743.85	12870.9
834.782	756.4247	13847.3	12965.7
834.9269	758.5048	13980.85	13109.65
835.0719	760.5843	14260.45	13388.6
835.2169	762.6631	14631.25	13758.35
835.3619	764.7413	15138.5	14269.95
835.5069	766.8188	15858.2	14984.05
835.6519	768.8956	16403.25	15529.65
835.7969	770.9718	16822.85	15951.85
835.9419	773.0473	16735.7	15862.55
836.0869	775.1221	16490.7	15618.65
836.232	777.1962	16191.6	15320.05
836.377	779.2697	16112.95	15240.05
836.522	781.3426	16120.3	15238.4
836.667	783.4147	16240.75	15366.5
836.8121	785.4862	16316.2	15443.4
836.9571	787.557	16136.45	15262.25
837.1021	789.6271	15618.25	14743.9
837.2472	791.6966	15001.6	14127.15
837.3922	793.7654	14384.85	13511.7
837.5373	795.8335	13956.1	13083.2
837.6823	797.901	13637.35	12763.05
837.8274	799.9678	13456.5	12580.4
837.9724	802.0339	13348.9	12475.2
838.1175	804.0993	13302.15	12419.45
838.2626	806.1641	13235.85	12360.35
838.4076	808.2282	13159	12285.15
838.5527	810.2916	13066.25	12190
838.6978	812.3544	12988	12113.7
838.8428	814.4164	12921.95	12050.7
838.9879	816.4778	12967.7	12093.25
839.133	818.5385	12948	12075.15
839.2781	820.5986	13103.35	12229.2
839.4232	822.658	13326.9	12451
839.5682	824.7166	13621.85	12749
839.7133	826.7747	14126.65	13250.3
839.8584	828.832	14634.7	13759.05
840.0035	830.8886	14988.7	14113.4
840.1486	832.9446	15172.35	14297.1
840.2937	834.9999	15034.55	14160.35
840.4388	837.0545	14767.25	13889
840.5839	839.1085	14385.35	13510.15
840.729	841.1618	14065.4	13183.6
840.8741	843.2143	13808.9	12935.85
841.0192	845.2662	13578.8	12702.85
841.1643	847.3175	13458.5	12581.75
841.3095	849.368	13322.25	12445.5
841.4546	851.4179	13210.95	12336.25
841.5997	853.467	13087.45	12211.85
841.7448	855.5155	13017.65	12143.35
841.8899	857.5633	12924.3	12050.25
842.0351	859.6105	12823.95	11947.35
842.1802	861.6569	12729	11852.35
842.3253	863.7027	12662	11783.75
842.4704	865.7478	12594.4	11717.25
842.6156	867.7922	12536.35	11659.5
842.7607	869.8359	12507.5	11631.4
842.9058	871.8789	12546.75	11668.15
843.0509	873.9212	12623.75	11709.7
843.1961	875.9629	12679.45	11801.8
843.3412	878.0039	12766.4	11886.9
843.4863	880.0441	12867.25	11989.15
843.6315	882.0837	12890.15	12011.4
843.7766	884.1226	12948.95	12070.95
843.9218	886.1609	12965.8	12088.6
844.0669	888.1984	13029.55	12152.25
844.212	890.2352	13142.75	12268.25
844.3572	892.2714	13149.3	12268.5
844.5023	894.3069	13107.5	12229.15
844.6475	896.3416	12960	12080.1
844.7926	898.3757	12803.95	11926.6
844.9377	900.4091	12681.6	11802
845.0829	902.4418	12666.9	11782.3
845.228	904.4739	12679.9	11797.95
845.3732	906.5052	12715.15	11838.05
845.5183	908.5358	12696.3	11819.95
845.6635	910.5658	12559	11675.95
845.8086	912.595	12334.45	11454
845.9538	914.6236	12120.2	11241.85
846.0989	916.6515	11968.2	11092.1
846.2441	918.6786	11841.3	10958.45
846.3892	920.7051	11839.55	10958.6
846.5344	922.7309	11867.5	10986.6
846.6795	924.756	11887.85	11009.2
846.8246	926.7804	11965.2	11085.15
846.9698	928.8041	11916.95	11032.45
847.1149	930.8272	11965.8	11086.1
847.2601	932.8495	11929.05	11049.5
847.4052	934.8711	11926.15	11046.2
847.5504	936.892	11856.4	10976.95
847.6955	938.9123	11812.35	10930.5
847.8407	940.9318	11850.05	10971.8
847.9858	942.9506	11822.25	10942.7
848.131	944.9688	11749.05	10867.85
848.2761	946.9862	11648.05	10769.9
848.4213	949.003	11495.5	10614.8
848.5664	951.019	11389.95	10509.75
848.7115	953.0344	11339.85	10459.55
848.8567	955.0491	11309.25	10431.65
849.0018	957.063	11320.9	10439.7
849.147	959.0763	11404.75	10525.85
849.2921	961.0888	11442	10557.6
849.4373	963.1007	11461.95	10580.8
849.5824	965.1119	11450.75	10568
849.7275	967.1223	11454.5	10571.65
849.8727	969.1321	11431.35	10548.25
850.0178	971.1412	11395.9	10514.85
850.1629	973.1495	11358	10479.1
850.3081	975.1572	11410.8	10495.35
850.4532	977.1641	11383.45	10503.85
850.5983	979.1704	11328.1	10445.9
850.7435	981.1759	11301.6	10417.15
850.8886	983.1808	11304	10418.6
851.0337	985.1849	11325.95	10434.35
851.1788	987.1884	11355.85	10471.95
851.324	989.1911	11462.85	10579.2
851.4691	991.1932	11528	10643.45
851.6142	993.1945	11519.65	10639.7
851.7593	995.1951	11486.5	10604.2
851.9045	997.1951	11483.3	10595.8
852.0496	999.1943	11408.35	10526.7
852.1947	1001.1928	11376.95	10494.9
852.3398	1003.1906	11399.85	10519.55
852.4849	1005.1877	11514.3	10628.8
852.63	1007.1841	11601.45	10720.25
852.7751	1009.1798	11589.6	10708.65
852.9202	1011.1748	11520.8	10640.8
853.0653	1013.1691	11365.15	10484.25
853.2104	1015.1627	11144.95	10261.3
853.3555	1017.1556	10925.9	10045.05
853.5006	1019.1477	10799.9	9915.1
853.6457	1021.1392	10664.9	9784.55
853.7908	1023.1299	10632.7	9750.5
853.9359	1025.12	10656.65	9772.15
854.081	1027.1093	10684.6	9803.75
854.2261	1029.0979	10789.3	9907
854.3712	1031.0859	10874.1	9993.8
854.5163	1033.0731	10918.5	10034.25
854.6613	1035.0596	10843.1	9962.6
854.8064	1037.0454	10705	9824.1
854.9515	1039.0304	10610.6	9729.45
855.0965	1041.0148	10479.4	9596.65
855.2416	1042.9985	10368.2	9485.9
855.3867	1044.9814	10312.6	9431.9
855.5317	1046.9636	10252.7	9367.25
855.6768	1048.9452	10216.25	9335.1
855.8219	1050.926	10241.75	9359.7
855.9669	1052.9061	10273.35	9393.7
856.112	1054.8855	10297.85	9414.8
856.257	1056.8642	10316.05	9434.15
856.4021	1058.8421	10349.5	9464.15
856.5471	1060.8194	10372	9489.25
856.6921	1062.7959	10399.3	9519.8
856.8372	1064.7717	10467.3	9583.85
856.9822	1066.7469	10507.4	9623.9
857.1272	1068.7213	10623.25	9739.35
857.2723	1070.695	10681.8	9800.45
857.4173	1072.6679	10683.5	9801.65
857.5623	1074.6402	10692.45	9810.8
857.7073	1076.6117	10664.8	9777.3
857.8523	1078.5826	10565.9	9683.9
857.9973	1080.5527	10400	9513.75
858.1423	1082.5221	10315.75	9433.05
858.2873	1084.4908	10274.6	9392.7
858.4323	1086.4587	10273.85	9390.25
858.5773	1088.426	10339.95	9456.7
858.7223	1090.3925	10342.4	9454.8
858.8673	1092.3584	10358.8	9477
859.0123	1094.3235	10354.85	9474.25
859.1573	1096.2879	10410.15	9525.9
859.3022	1098.2515	10525.15	9643.3
859.4472	1100.2145	10678.3	9797
859.5922	1102.1767	10845.55	9960.95
859.7371	1104.1382	11082.3	10196.35
859.8821	1106.099	11313.45	10432.05
860.027	1108.0591	11529.7	10645.6
860.172	1110.0185	11693.5	10807.95
860.3169	1111.9771	11764.3	10883.1
860.4619	1113.9351	11671.4	10788.1
860.6068	1115.8923	11565.9	10680.5
860.7517	1117.8488	11384.95	10500.1
860.8967	1119.8045	11202.75	10320.05
861.0416	1121.7596	11048.95	10166.4
861.1865	1123.7139	10890.45	10007.75
861.3314	1125.6675	10830.65	9949.8
861.4763	1127.6204	10855.45	9972.85
861.6212	1129.5726	10797.65	9915.1
861.7661	1131.524	10727	9847.55
861.911	1133.4748	10582.6	9699.55
862.0559	1135.4248	10389.3	9505.75
862.2008	1137.3741	10234.15	9353
862.3457	1139.3226	10098.5	9215.6
862.4905	1141.2705	10035.45	9152.6
862.6354	1143.2176	9970.55	9080.05
862.7803	1145.164	9904.6	9017.05
862.9251	1147.1097	9848.2	8964
863.07	1149.0546	9738.05	8853.7
863.2148	1150.9989	9636.1	8750.15
863.3597	1152.9424	9526.3	8641.75
863.5045	1154.8852	9426.65	8541.75
863.6493	1156.8272	9390.5	8508.4
863.7942	1158.7686	9406.6	8517.65
863.939	1160.7092	9412	8528.6
864.0838	1162.6491	9426.3	8539
864.2286	1164.5883	9531.5	8649.45
864.3734	1166.5267	9634.4	8749.05
864.5182	1168.4644	9793.4	8909.3
864.663	1170.4014	9981.65	9094.85
864.8078	1172.3377	10225.9	9342.75
864.9526	1174.2732	10544.85	9660.8
865.0974	1176.2081	10952	10068.65
865.2421	1178.1421	11433.5	10547.65
865.3869	1180.0755	11934.45	11050.45
865.5317	1182.0082	12315.15	11433.6
865.6764	1183.9401	12475.15	11589.5
865.8212	1185.8713	12349.35	11464.5
865.9659	1187.8017	12004.65	11121.9
866.1106	1189.7315	11616.1	10732.7
