Software Version:	3.9.2.0
Unit SN:	10000200
Spectrometer SN:	6960
Date:	3/6/2024 10:08:06 AM
Data Line Index:	25
Spectral Points:	2048
Integration time (ms):	125
Averages:	20
Delay (ms):	30
Sequence Number:	1
Processing:	dark subtract
Laser Power (mW):	300
Laser Current (mA):	824
Laser Diode Temp (C):	25
Laser Case Temp (C):	24.9
System Temp (C):	24.6
Spectrometer Temp (C):	22.3
CCD Temp (C):	-0.005
Secondary Temp (C):	20.006
Heatsink Temp (C):	18.457
CCDPCB Temp (C):	31.905
SecondaryPCB Temp (C):	26.258

Wavelength	RamanShift	Raw Counts	Dark Subtracted
787.061	30.1047	845.8	434.8
787.2016	32.3739	862.2	454.65
787.3422	34.6426	889.9	482
787.4828	36.9109	920	511.2
787.6235	39.1787	957.05	543.45
787.7642	41.4461	999.5	580.4
787.9049	43.7131	1034.6	613.85
788.0456	45.9796	1071.6	647.75
788.1863	48.2456	1111.1	682.85
788.3271	50.5112	1155.95	723.75
788.4679	52.7764	1198.15	764.15
788.6087	55.0411	1249.85	811
788.7496	57.3054	1303.05	859.2
788.8904	59.5692	1353.8	908.35
789.0313	61.8326	1414.05	966.8
789.1722	64.0955	1481.7	1030.7
789.3132	66.3579	1560.15	1105.55
789.4541	68.6199	1661.9	1202.55
789.5951	70.8815	1832.4	1367.7
789.7361	73.1426	2204.1	1735.85
789.8771	75.4032	3132.55	2662.1
790.0181	77.6634	5513.4	5037.55
790.1592	79.9231	11546	11063.95
790.3003	82.1824	31271.8	30776
790.4414	84.4412	57718.65	57203.85
790.5825	86.6995	61920.1	61380.3
790.7237	88.9574	63501.3	62941.5
790.8648	91.2148	64321.2	63742
791.006	93.4717	64576	63988.85
791.1472	95.7282	64701.6	64113.15
791.2885	97.9842	64773.15	64180.55
791.4297	100.2398	64752.3	64155.85
791.571	102.4949	64775.45	64176.1
791.7123	104.7495	64794.05	64189.65
791.8536	107.0036	64751.8	64145.7
791.9949	109.2573	64816.65	64211.9
792.1363	111.5105	64774.55	64167
792.2777	113.7632	64805.45	64198.45
792.4191	116.0154	64821.05	64198.1
792.5605	118.2672	64848.25	64234.2
792.7019	120.5185	64846.4	64233.3
792.8434	122.7693	64844.85	64229.15
792.9849	125.0197	64800.95	64181.1
793.1264	127.2696	64878.45	64250.3
793.2679	129.519	64878.8	64249
793.4094	131.7679	64909.7	64276.9
793.551	134.0163	64821.1	64184.7
793.6926	136.2642	64858.5	64220.75
793.8342	138.5117	64911.55	64271.6
793.9758	140.7587	64888	64246.7
794.1175	143.0052	64887.15	64243.6
794.2591	145.2512	64854.45	64207
794.4008	147.4967	64903.25	64254.75
794.5425	149.7417	64878.15	64227.85
794.6842	151.9863	64887.7	64235.7
794.826	154.2304	64845.65	64186.05
794.9677	156.4739	64885.55	64222
795.1095	158.717	64898.95	64234.95
795.2513	160.9596	64879.7	64209.9
795.3931	163.2017	64842.9	64172.4
795.535	165.4433	64887.1	64213.95
795.6768	167.6844	64866.95	64192.65
795.8187	169.925	64890.55	64214.05
795.9606	172.1651	64878.15	64200.4
796.1025	174.4047	64871.3	64188.35
796.2445	176.6439	64876.2	64193.45
796.3864	178.8825	64876.15	64191.55
796.5284	181.1206	64893.85	64204.25
796.6704	183.3582	64889.8	64196.7
796.8124	185.5954	64864.7	64164.95
796.9544	187.832	64885.8	64183.6
797.0965	190.0681	64864.5	64159
797.2386	192.3037	64898.9	64190.5
797.3806	194.5388	64938.2	64226.4
797.5228	196.7734	64838.55	64123.35
797.6649	199.0075	64923.2	64209.2
797.807	201.2411	64889.3	64173.9
797.9492	203.4742	64937.7	64221.2
798.0914	205.7068	64928.25	64204.9
798.2336	207.9389	64924.8	64204.2
798.3758	210.1704	64913.6	64196
798.518	212.4015	64946	64240.1
798.6603	214.632	64893.6	64192.3
798.8025	216.862	64947.45	64249.25
798.9448	219.0915	64936.85	64234.25
799.0871	221.3205	64919.9	64214.45
799.2294	223.549	64964.75	64263.9
799.3718	225.777	64955.85	64252.15
799.5141	228.0044	64973.35	64267.55
799.6565	230.2314	64961.7	64253.35
799.7989	232.4578	64959.15	64244.05
799.9413	234.6837	64957.65	64238.9
800.0837	236.909	65031.65	64311.15
800.2262	239.1339	64935.2	64188
800.3687	241.3582	64981.7	64244.15
800.5111	243.582	64985.6	64218.95
800.6536	245.8053	64979.05	64233.4
800.7961	248.0281	64981.45	64235.45
800.9387	250.2503	64993.35	64244.55
801.0812	252.472	64969	64214.95
801.2238	254.6932	64986.8	64235.35
801.3664	256.9139	64973.8	64221.2
801.509	259.134	65034	64279.05
801.6516	261.3536	64948.9	64195.7
801.7942	263.5727	65007.55	64251.05
801.9369	265.7912	64979.5	64224.75
802.0795	268.0092	64992.85	64238.7
802.2222	270.2267	64990.8	64232.9
802.3649	272.4436	64962	64204.15
802.5076	274.6601	64996.95	64229.95
802.6504	276.8759	65009.3	64246.45
802.7931	279.0913	64993.65	64231
802.9359	281.3061	64991.75	64227.4
803.0787	283.5204	64998.75	64229.3
803.2215	285.7341	64991.9	64218.8
803.3643	287.9473	65035.4	64251.95
803.5071	290.16	64996.95	64225.4
803.6499	292.3721	65029.75	64260.3
803.7928	294.5837	64982.85	64214.85
803.9357	296.7947	64961.4	64189
804.0786	299.0052	65009	64237.65
804.2215	301.2152	64988.7	64214.45
804.3644	303.4246	65029.55	64254.9
804.5074	305.6334	65015.1	64244.2
804.6503	307.8418	64971.9	64198.85
804.7933	310.0495	64994.55	64214.55
804.9363	312.2568	64983.95	64205.5
805.0793	314.4635	64984.95	64201.15
805.2223	316.6696	65006.2	64224.45
805.3653	318.8752	65011.6	64220.65
805.5084	321.0802	64946.45	64163
805.6514	323.2847	64970	64183.75
805.7945	325.4887	64975.75	64190.7
805.9376	327.692	64951.3	64159.75
806.0807	329.8949	64969.4	64181.05
806.2238	332.0972	64958.7	64165.25
806.367	334.2989	64968.8	64176
806.5101	336.5001	64997.8	64201.95
806.6533	338.7007	64945.95	64152.5
806.7965	340.9008	64973.7	64178.35
806.9397	343.1003	64980.95	64180.05
807.0829	345.2992	64991.1	64192
807.2261	347.4976	64961.4	64161.35
807.3693	349.6955	64967.35	64160.3
807.5126	351.8927	64945.95	64140.1
807.6559	354.0895	64982.85	64168.2
807.7991	356.2856	64976.65	64170.8
807.9424	358.4812	65001.9	64192.3
808.0857	360.6763	64962.85	64151.15
808.2291	362.8707	64973.85	64163.45
808.3724	365.0646	64968.85	64151.85
808.5158	367.258	64968.05	64153.2
808.6591	369.4508	64953.15	64133.85
808.8025	371.643	64972	64153.15
808.9459	373.8346	64967.3	64146.05
809.0893	376.0257	64960	64133.95
809.2327	378.2162	64961.85	64137.6
809.3762	380.4062	64936.45	64112.4
809.5196	382.5956	64955.75	64129.15
809.6631	384.7844	64955.65	64137.85
809.8066	386.9726	64966.25	64149.35
809.9501	389.1603	64970.6	64156.65
810.0936	391.3474	64932.8	64074.9
810.2371	393.5339	64968.15	64147.05
810.3806	395.7199	64922	64108.85
810.5241	397.9052	64922.25	64108.95
810.6677	400.09	64946.35	64130.65
810.8113	402.2743	64947.1	64128.55
810.9548	404.4579	64934.15	64118.6
811.0984	406.641	64916.5	64097.45
811.2421	408.8235	64946.2	64125.05
811.3857	411.0054	64941.25	64119.05
811.5293	413.1868	64942.55	64114.3
811.673	415.3675	64945.25	64117.15
811.8166	417.5477	64941.55	64109.65
811.9603	419.7273	64936.45	64105.4
812.104	421.9064	64929.45	64091.8
812.2477	424.0848	64948.65	64114.95
812.3914	426.2627	64956.15	64124.1
812.5351	428.4399	64914.8	64079.75
812.6788	430.6166	64906.8	64068.6
812.8226	432.7928	64925.75	64085.7
812.9663	434.9683	64906.55	64070.45
813.1101	437.1432	64911.9	64070.95
813.2539	439.3176	64928.1	64091.7
813.3977	441.4914	64884.7	64046.1
813.5415	443.6645	64882.55	64045.65
813.6853	445.8371	64894.2	64056.05
813.8291	448.0091	64877.05	64038
813.973	450.1806	64869.2	64030.5
814.1168	452.3514	64865.55	64025.8
814.2607	454.5216	64853.5	64002.45
814.4046	456.6913	64850.25	64006.6
814.5485	458.8603	64854.05	64009.45
814.6924	461.0288	64844.5	64006.2
814.8363	463.1967	64855.4	64021.1
814.9802	465.3639	64859.25	64017.75
815.1241	467.5306	64833.45	63989.8
815.2681	469.6967	64838.1	63997.25
815.412	471.8622	64831.8	63993.25
815.556	474.0271	64832.75	63990.7
815.7	476.1914	64843.5	63994.6
815.844	478.3551	64845.35	64003.05
815.988	480.5182	64863.25	64022.25
816.132	482.6807	64838.6	63997.6
816.276	484.8426	64840.1	64004.75
816.4201	487.0039	64852.7	64010.5
816.5641	489.1647	64849.1	64004.2
816.7082	491.3248	64834.45	63983.2
816.8522	493.4843	64854.9	64009.7
816.9963	495.6432	64869.1	64023.75
817.1404	497.8015	64846.2	63994.8
817.2845	499.9592	64849.45	63999.15
817.4286	502.1163	64853.95	64000.15
817.5727	504.2728	64847.1	63995.2
817.7168	506.4287	64852.9	64006.35
817.861	508.5839	64839.95	63992.9
818.0051	510.7386	64833.1	63979.9
818.1493	512.8927	64852	63995.45
818.2935	515.0461	64848.65	63995.1
818.4377	517.199	64842.85	63988.45
818.5818	519.3512	64844.8	63991.15
818.726	521.5029	64830.95	63968.65
818.8703	523.6539	64825.55	63969.95
819.0145	525.8043	64802.1	63945
819.1587	527.9541	64832.1	63969.9
819.303	530.1033	64826.45	63968.1
819.4472	532.2519	64816	63959.35
819.5915	534.3999	64832.3	63969.1
819.7357	536.5472	64830.85	63970.95
819.88	538.694	64813.95	63958.45
820.0243	540.8401	64833	63971.5
820.1686	542.9856	64828.9	63963.35
820.3129	545.1305	64832.4	63960.95
820.4572	547.2748	64819.05	63950.4
820.6016	549.4185	64832.35	63961.75
820.7459	551.5615	64822.2	63951.85
820.8902	553.704	64823.3	63954.2
821.0346	555.8458	64817.65	63949.05
821.1789	557.987	64820.5	63954.4
821.3233	560.1276	64820.3	63951.25
821.4677	562.2675	64817.05	63950.75
821.6121	564.4069	64807.95	63944.9
821.7565	566.5456	64823.95	63957.75
821.9009	568.6837	64811.2	63944.3
822.0453	570.8212	64818.4	63953.3
822.1897	572.958	64785.15	63919.1
822.3342	575.0942	64803.3	63937.95
822.4786	577.2299	64775	63908.4
822.6231	579.3648	64782.5	63922.15
822.7675	581.4992	64768.65	63911.8
822.912	583.6329	64767	63910.35
823.0565	585.766	64761.5	63902.6
823.201	587.8985	64758.65	63899.6
823.3454	590.0304	64747.25	63857.85
823.4899	592.1616	64747.75	63880.9
823.6345	594.2922	64746.4	63874.85
823.779	596.4222	64735.4	63861
823.9235	598.5515	64733.4	63858.85
824.068	600.6802	64742.45	63866.25
824.2126	602.8083	64715.15	63844.8
824.3571	604.9358	64703.6	63827.9
824.5017	607.0626	64713.5	63839.3
824.6462	609.1888	64700.55	63822.15
824.7908	611.3144	64716.65	63840.2
824.9354	613.4393	64709.05	63833.1
825.08	615.5636	64690.75	63808.7
825.2246	617.6873	64708.55	63831.2
825.3692	619.8103	64690.3	63813.9
825.5138	621.9327	64681.2	63802.15
825.6584	624.0544	64693.7	63820.3
825.803	626.1756	64682.2	63807.85
825.9477	628.2961	64685.45	63808
826.0923	630.4159	64672.45	63793.3
826.237	632.5351	64671.65	63792.2
826.3816	634.6537	64684.05	63802.8
826.5263	636.7716	64650.1	63767.2
826.6709	638.8889	64670.2	63785.05
826.8156	641.0056	64676.65	63789.95
826.9603	643.1216	64672.2	63788.25
827.105	645.237	64693.15	63809.4
827.2497	647.3518	64673.35	63790
827.3944	649.4659	64663.85	63785.15
827.5391	651.5793	64657.1	63780.15
827.6838	653.6922	64656.05	63776.75
827.8285	655.8043	64608.45	63728.8
827.9733	657.9159	64668.55	63787.5
828.118	660.0268	64557.5	63674.4
828.2627	662.137	64648.1	63766.45
828.4075	664.2466	64646.5	63755.75
828.5522	666.3556	64616	63727.8
828.697	668.4639	64635.35	63749.35
828.8418	670.5716	64608.45	63727.95
828.9865	672.6786	64629	63743.55
829.1313	674.785	64581.7	63692.1
829.2761	676.8907	64581.8	63694.9
829.4209	678.9958	64615.65	63734.65
829.5657	681.1002	64599.65	63715.55
829.7105	683.204	64532.4	63642.1
829.8553	685.3072	64507.15	63621.35
830.0001	687.4097	64559.85	63670.95
830.1449	689.5115	64530.05	63639.65
830.2898	691.6127	64591.35	63703.25
830.4346	693.7132	64523.8	63640.15
830.5794	695.8131	64529.7	63621.35
830.7243	697.9123	64552.25	63662.5
830.8691	700.0109	64559.4	63666.85
831.014	702.1089	64485.1	63594.35
831.1588	704.2061	64500.65	63612
831.3037	706.3028	64506.9	63613.75
831.4486	708.3987	64527.75	63639
831.5935	710.4941	64504.2	63614.9
831.7383	712.5887	64519.1	63628.8
831.8832	714.6827	64472.15	63576.2
832.0281	716.7761	64499.75	63611.6
832.173	718.8688	64501.05	63607.8
832.3179	720.9608	64442.8	63546.75
832.4628	723.0522	64451.45	63552.7
832.6077	725.1429	64427.85	63529.95
832.7527	727.233	64529.4	63635.65
832.8976	729.3224	64377.85	63484.7
833.0425	731.4112	64422.6	63528.95
833.1874	733.4993	64430.85	63535.7
833.3324	735.5867	64423.35	63528.9
833.4773	737.6735	64387	63490.1
833.6222	739.7596	64359.7	63464.4
833.7672	741.845	64355.65	63461.85
833.9122	743.9298	64417.25	63520
834.0571	746.014	64356.25	63459.05
834.2021	748.0974	64299.55	63399.05
834.347	750.1802	64364.45	63465.9
834.492	752.2624	64298.5	63399.55
834.637	754.3439	64285.3	63385.3
834.782	756.4247	64306.8	63397.7
834.9269	758.5048	64261.25	63362.4
835.0719	760.5843	64257.8	63359.9
835.2169	762.6631	64253.1	63352.55
835.3619	764.7413	64227.85	63328.15
835.5069	766.8188	64238	63336.9
835.6519	768.8956	64246	63344.2
835.7969	770.9718	64234.45	63334.15
835.9419	773.0473	64209.35	63308.95
836.0869	775.1221	64176.4	63279.55
836.232	777.1962	64178.05	63277
836.377	779.2697	64125.25	63223.8
836.522	781.3426	64139.6	63218.5
836.667	783.4147	64135.75	63233.65
836.8121	785.4862	64116.85	63214.2
836.9571	787.557	64083.35	63181.45
837.1021	789.6271	64135.15	63236.3
837.2472	791.6966	64108.85	63205
837.3922	793.7654	64060.5	63160.3
837.5373	795.8335	64065.55	63165.5
837.6823	797.901	64076.35	63175.35
837.8274	799.9678	64053.9	63148.9
837.9724	802.0339	64035.15	63132.55
838.1175	804.0993	64029.05	63117.9
838.2626	806.1641	63999.75	63095.95
838.4076	808.2282	64006.7	63106.5
838.5527	810.2916	63995.25	63092.2
838.6978	812.3544	64007.2	63107.4
838.8428	814.4164	63968.15	63066.7
838.9879	816.4778	63969.5	63062.8
839.133	818.5385	63979.05	63071.7
839.2781	820.5986	63950.85	63045.7
839.4232	822.658	63958.15	63050.4
839.5682	824.7166	63939.6	63037.45
839.7133	826.7747	63938.1	63037.95
839.8584	828.832	63933.8	63027.4
840.0035	830.8886	63935.6	63028
840.1486	832.9446	63924.95	63018.4
840.2937	834.9999	63872.9	62968.75
840.4388	837.0545	63891.1	62982.2
840.5839	839.1085	63884.15	62977.95
840.729	841.1618	63886.55	62978.05
840.8741	843.2143	63830.75	62924.15
841.0192	845.2662	63816.75	62910.7
841.1643	847.3175	63844.65	62938.8
841.3095	849.368	63814.95	62912.05
841.4546	851.4179	63836.8	62928.7
841.5997	853.467	63793	62889.7
841.7448	855.5155	63782.5	62876.9
841.8899	857.5633	63757.65	62852.95
842.0351	859.6105	63731.65	62825.1
842.1802	861.6569	63767.8	62862.1
842.3253	863.7027	63736.55	62828.75
842.4704	865.7478	63730.9	62820.35
842.6156	867.7922	63734.6	62826.8
842.7607	869.8359	63725.4	62819.1
842.9058	871.8789	63691.75	62782.8
843.0509	873.9212	63715.75	62773.65
843.1961	875.9629	63695.55	62785.2
843.3412	878.0039	63691.65	62783.6
843.4863	880.0441	63669	62761.1
843.6315	882.0837	63658.15	62748.6
843.7766	884.1226	63662.5	62753.45
843.9218	886.1609	63666.3	62759.45
844.0669	888.1984	63648.2	62742.4
844.212	890.2352	63663.15	62754.35
844.3572	892.2714	63632.5	62720.55
844.5023	894.3069	63630.65	62722.9
844.6475	896.3416	63608.5	62697.85
844.7926	898.3757	63608.45	62697.75
844.9377	900.4091	63595.45	62684.45
845.0829	902.4418	63603.75	62691.9
845.228	904.4739	63573.25	62661.5
845.3732	906.5052	63568.2	62656.3
845.5183	908.5358	63553.6	62641.2
845.6635	910.5658	63552.85	62640.05
845.8086	912.595	63533.35	62622.15
845.9538	914.6236	63516.45	62605.15
846.0989	916.6515	63517.1	62607.25
846.2441	918.6786	63486.65	62570.65
846.3892	920.7051	63488.95	62569.75
846.5344	922.7309	63490.8	62577.55
846.6795	924.756	63475.25	62565.95
846.8246	926.7804	63470.3	62555.85
846.9698	928.8041	63429.4	62516.4
847.1149	930.8272	63429.95	62518.1
847.2601	932.8495	63409.3	62495.6
847.4052	934.8711	63393.55	62478.65
847.5504	936.892	63360.75	62447.4
847.6955	938.9123	63371.6	62457.85
847.8407	940.9318	63345.65	62432.5
847.9858	942.9506	63337.55	62425.55
848.131	944.9688	63338.55	62423.5
848.2761	946.9862	63303.1	62392.6
848.4213	949.003	63305.3	62391.5
848.5664	951.019	63275.9	62364.2
848.7115	953.0344	63260.85	62347.25
848.8567	955.0491	63246.85	62334.65
849.0018	957.063	63259.55	62348.3
849.147	959.0763	63255.85	62343.7
849.2921	961.0888	63232.9	62318.4
849.4373	963.1007	63230.15	62319.75
849.5824	965.1119	63217.2	62310.4
849.7275	967.1223	63205.9	62301.15
849.8727	969.1321	63206.8	62302.2
850.0178	971.1412	63189.7	62280.25
850.1629	973.1495	63179.85	62269.65
850.3081	975.1572	63181	62230.65
850.4532	977.1641	63168.3	62254.8
850.5983	979.1704	63143.1	62233.25
850.7435	981.1759	63125.35	62213.55
850.8886	983.1808	63132.45	62218.65
851.0337	985.1849	63103.45	62177.55
851.1788	987.1884	63116.25	62202.2
851.324	989.1911	63105.05	62189.3
851.4691	991.1932	63096.8	62181.75
851.6142	993.1945	63077.95	62167.45
851.7593	995.1951	63058.25	62144.85
851.9045	997.1951	63031.65	62110.6
852.0496	999.1943	63028.15	62116.3
852.1947	1001.1928	63004.7	62093.8
852.3398	1003.1906	62994.65	62083.55
852.4849	1005.1877	62978.6	62062.9
852.63	1007.1841	62958.3	62045.2
852.7751	1009.1798	62955.2	62043.5
852.9202	1011.1748	62930	62016.3
853.0653	1013.1691	62917.5	62003.1
853.2104	1015.1627	62869.35	61954.4
853.3555	1017.1556	62878.2	61966.9
853.5006	1019.1477	62867.45	61952.15
853.6457	1021.1392	62844.2	61935.1
853.7908	1023.1299	62777.55	61871.45
853.9359	1025.12	62802.85	61898.25
854.081	1027.1093	62771.3	61873.65
854.2261	1029.0979	62755.2	61858.4
854.3712	1031.0859	62742.5	61840.15
854.5163	1033.0731	62654.05	61747.3
854.6613	1035.0596	62699.3	61792
854.8064	1037.0454	62650.1	61735.6
854.9515	1039.0304	62632.1	61723
855.0965	1041.0148	62522.45	61610.55
855.2416	1042.9985	62533.6	61621.3
855.3867	1044.9814	62593.85	61684.55
855.5317	1046.9636	62498.9	61584.9
855.6768	1048.9452	62498.75	61589.95
855.8219	1050.926	62486.05	61574.55
855.9669	1052.9061	62472.75	61559.95
856.112	1054.8855	62455.05	61542.1
856.257	1056.8642	62439.65	61525.25
856.4021	1058.8421	62401.45	61483.55
856.5471	1060.8194	62400.05	61486.8
856.6921	1062.7959	62321.9	61409.6
856.8372	1064.7717	62388.75	61473
856.9822	1066.7469	62369.35	61456.9
857.1272	1068.7213	62357.45	61440.55
857.2723	1070.695	62319.05	61406.25
857.4173	1072.6679	62277.65	61366.05
857.5623	1074.6402	62291.05	61377.35
857.7073	1076.6117	62245.5	61326.3
857.8523	1078.5826	62253.9	61341.5
857.9973	1080.5527	62279.9	61363.6
858.1423	1082.5221	62216.5	61301.6
858.2873	1084.4908	62210.3	61298.7
858.4323	1086.4587	62196.85	61280.15
858.5773	1088.426	62179.8	61263.85
858.7223	1090.3925	62153.7	61235.75
858.8673	1092.3584	62144.25	61234.95
859.0123	1094.3235	62077.4	61164.75
859.1573	1096.2879	62083.3	61169.25
859.3022	1098.2515	62097.4	61182.65
859.4472	1100.2145	62059.75	61148.55
859.5922	1102.1767	62059.45	61145.55
859.7371	1104.1382	62045.05	61134.15
859.8821	1106.099	62028.55	61113.65
860.027	1108.0591	62029.05	61116.5
860.172	1110.0185	61971.3	61058.4
860.3169	1111.9771	62013.85	61102.25
860.4619	1113.9351	61959.95	61049.4
860.6068	1115.8923	61915.1	61004.5
860.7517	1117.8488	61899.55	60983.25
860.8967	1119.8045	61847.75	60936.05
861.0416	1121.7596	61867	60953.5
861.1865	1123.7139	61853.95	60943.9
861.3314	1125.6675	61843.45	60931.1
861.4763	1127.6204	61836.75	60924.75
861.6212	1129.5726	61801.4	60891.35
861.7661	1131.524	61796.8	60887.35
861.911	1133.4748	61784.85	60873
862.0559	1135.4248	61732.15	60822.7
862.2008	1137.3741	61730.8	60821.55
862.3457	1139.3226	61719.55	60805.85
862.4905	1141.2705	61713.35	60800.7
862.6354	1143.2176	61699.7	60780.7
862.7803	1145.164	61666.35	60750.4
862.9251	1147.1097	61666.55	60754.9
863.07	1149.0546	61659.4	60745.6
863.2148	1150.9989	61662.1	60749.6
863.3597	1152.9424	61623.9	60714.35
863.5045	1154.8852	61611.5	60696.15
863.6493	1156.8272	61590.5	60677.1
863.7942	1158.7686	61609.65	60689.5
863.939	1160.7092	61569.45	60654.15
864.0838	1162.6491	61540.65	60626.8
864.2286	1164.5883	61548.65	60641.3
864.3734	1166.5267	61511.55	60597.55
864.5182	1168.4644	61552.1	60640.1
864.663	1170.4014	61535.45	60618.6
864.8078	1172.3377	61542.05	60634.45
864.9526	1174.2732	61541.75	60630.3
865.0974	1176.2081	61524.85	60614.1
865.2421	1178.1421	61511.35	60595
865.3869	1180.0755	61520.7	60609.9
865.5317	1182.0082	61498.8	60588.3
