Software Version:	3.9.2.0
Unit SN:	10000200
Spectrometer SN:	6960
Date:	3/6/2024 9:57:27 AM
Data Line Index:	25
Spectral Points:	2048
Integration time (ms):	125
Averages:	20
Delay (ms):	30
Sequence Number:	1
Processing:	dark subtract
Laser Power (mW):	305
Laser Current (mA):	825
Laser Diode Temp (C):	25.1
Laser Case Temp (C):	24.5
System Temp (C):	24.4
Spectrometer Temp (C):	21.9
CCD Temp (C):	-0.023
Secondary Temp (C):	20
Heatsink Temp (C):	18.232
CCDPCB Temp (C):	31.472
SecondaryPCB Temp (C):	26.303

Wavelength	RamanShift	Raw Counts	Dark Subtracted
787.061	30.1047	700.35	290.85
787.2016	32.3739	712	304.65
787.3422	34.6426	727.75	319.8
787.4828	36.9109	750.25	340.5
787.6235	39.1787	774.6	361.6
787.7642	41.4461	799.75	383.15
787.9049	43.7131	827.2	406.85
788.0456	45.9796	853.75	431.4
788.1863	48.2456	882.05	454.75
788.3271	50.5112	916.7	485.4
788.4679	52.7764	941.25	508.85
788.6087	55.0411	975.95	537.95
788.7496	57.3054	1016.4	574.1
788.8904	59.5692	1052.3	608.05
789.0313	61.8326	1086.2	637.5
789.1722	64.0955	1132.9	682.75
789.3132	66.3579	1193.45	735.3
789.4541	68.6199	1264	804.7
789.5951	70.8815	1388.95	924.6
789.7361	73.1426	1646.65	1178.45
789.8771	75.4032	2307.05	1833.95
790.0181	77.6634	3999.4	3523
790.1592	79.9231	8204.1	7724.8
790.3003	82.1824	18487.4	17999.65
790.4414	84.4412	42097.85	41595.9
790.5825	86.6995	55573.8	55052.95
790.7237	88.9574	59816.85	59281.05
790.8648	91.2148	61634	61088.7
791.006	93.4717	62222.9	61666.85
791.1472	95.7282	62442.6	61882
791.2885	97.9842	62532.1	61973.55
791.4297	100.2398	62565.25	62003.2
791.571	102.4949	62538.1	61973.2
791.7123	104.7495	62567.4	62000.25
791.8536	107.0036	62501.6	61930.9
791.9949	109.2573	62591.4	62023.35
792.1363	111.5105	62529.8	61958.95
792.2777	113.7632	62578.4	62005.1
792.4191	116.0154	62580.25	61995.95
792.5605	118.2672	62624.15	62045
792.7019	120.5185	62642.25	62063.45
792.8434	122.7693	62646.35	62062.2
792.9849	125.0197	62590.65	62004
793.1264	127.2696	62723.85	62132.8
793.2679	129.519	62712.05	62118.05
793.4094	131.7679	62768.75	62173.3
793.551	134.0163	62622.7	62024.45
793.6926	136.2642	62679.65	62075.7
793.8342	138.5117	62790.9	62179.15
793.9758	140.7587	62751.4	62144.45
794.1175	143.0052	62747.85	62139.3
794.2591	145.2512	62672.65	62061.4
794.4008	147.4967	62768.8	62155.55
794.5425	149.7417	62734.75	62120
794.6842	151.9863	62738.3	62117.35
794.826	154.2304	62666.75	62047.45
794.9677	156.4739	62749.3	62120.9
795.1095	158.717	62790.65	62164.75
795.2513	160.9596	62744.75	62111.55
795.3931	163.2017	62668.3	62032.8
795.535	165.4433	62768.6	62131.1
795.6768	167.6844	62727.7	62091.45
795.8187	169.925	62760.4	62119.85
795.9606	172.1651	62733.5	62090.25
796.1025	174.4047	62722.9	62073.5
796.2445	176.6439	62729.65	62078.65
796.3864	178.8825	62727.8	62075.85
796.5284	181.1206	62772.4	62118.85
796.6704	183.3582	62774.9	62115.55
796.8124	185.5954	62749.7	62083.35
796.9544	187.832	62756.95	62089.9
797.0965	190.0681	62713.35	62042
797.2386	192.3037	62811.6	62139.2
797.3806	194.5388	62884.05	62207.3
797.5228	196.7734	62675.45	61997.7
797.6649	199.0075	62856.4	62176.3
797.807	201.2411	62805.3	62124.2
797.9492	203.4742	62913.15	62233.15
798.0914	205.7068	62912.4	62226.05
798.2336	207.9389	62903.25	62215.95
798.3758	210.1704	62898.4	62213.65
798.518	212.4015	62959.6	62284.95
798.6603	214.632	62866	62197.6
798.8025	216.862	62976.4	62313.9
798.9448	219.0915	62942.45	62275.6
799.0871	221.3205	62916.85	62248.7
799.2294	223.549	63015.05	62348
799.3718	225.777	62981.85	62315.95
799.5141	228.0044	63029.9	62356.6
799.6565	230.2314	63018.35	62343.5
799.7989	232.4578	63016.65	62337.45
799.9413	234.6837	63011.25	62323.9
800.0837	236.909	63183.4	62493.4
800.2262	239.1339	62972.1	62260.85
800.3687	241.3582	63057.15	62359.95
800.5111	243.582	63061.2	62332.5
800.6536	245.8053	63082.75	62369.15
800.7961	248.0281	63091.1	62379.15
800.9387	250.2503	63134.45	62416.9
801.0812	252.472	63068.65	62349.15
801.2238	254.6932	63101.45	62384
801.3664	256.9139	63075.1	62358.7
801.509	259.134	63222.5	62500.55
801.6516	261.3536	63036.35	62317.65
801.7942	263.5727	63156.65	62433.75
801.9369	265.7912	63090.9	62370.1
802.0795	268.0092	63114.6	62391.55
802.2222	270.2267	63120.5	62397.95
802.3649	272.4436	63059.8	62334.25
802.5076	274.6601	63124.5	62390.2
802.6504	276.8759	63168.85	62436.6
802.7931	279.0913	63139.95	62408.95
802.9359	281.3061	63148.9	62416.35
803.0787	283.5204	63176.75	62441.7
803.2215	285.7341	63161.8	62420.7
803.3643	287.9473	63239.2	62490.4
803.5071	290.16	63167.55	62422.1
803.6499	292.3721	63223.1	62483.8
803.7928	294.5837	63159.8	62417.8
803.9357	296.7947	63112.05	62375.3
804.0786	299.0052	63210.75	62470
804.2215	301.2152	63147.25	62404.55
804.3644	303.4246	63257.95	62520.4
804.5074	305.6334	63226.4	62489.6
804.6503	307.8418	63119.65	62376.25
804.7933	310.0495	63144.6	62399
804.9363	312.2568	63140.8	62392
805.0793	314.4635	63133.3	62384.7
805.2223	316.6696	63153.75	62403.85
805.3653	318.8752	63200.25	62440.95
805.5084	321.0802	63056.3	62299.5
805.6514	323.2847	63119.05	62363.5
805.7945	325.4887	63127.6	62370.15
805.9376	327.692	63064.65	62307.4
806.0807	329.8949	63125.2	62368.85
806.2238	332.0972	63079.45	62320.2
806.367	334.2989	63116.25	62350.8
806.5101	336.5001	63186.45	62423.5
806.6533	338.7007	63068.4	62306.15
806.7965	340.9008	63113.4	62348.4
806.9397	343.1003	63109	62342.95
807.0829	345.2992	63157	62388.7
807.2261	347.4976	63102.3	62332.55
807.3693	349.6955	63108.85	62334.15
807.5126	351.8927	63059.65	62286
807.6559	354.0895	63122.95	62335.45
807.7991	356.2856	63107.45	62331.3
807.9424	358.4812	63165.65	62391.4
808.0857	360.6763	63076.65	62300.15
808.2291	362.8707	63135.55	62355.65
808.3724	365.0646	63103.25	62318.75
808.5158	367.258	63100.95	62315.5
808.6591	369.4508	63055.25	62268.05
808.8025	371.643	63133.55	62345.75
808.9459	373.8346	63104.7	62315.1
809.0893	376.0257	63085.1	62290.25
809.2327	378.2162	63084.95	62294.95
809.3762	380.4062	63027	62235.05
809.5196	382.5956	63061.4	62270.7
809.6631	384.7844	63082.1	62294.45
809.8066	386.9726	63084.15	62299.85
809.9501	389.1603	63081.65	62297.85
810.0936	391.3474	63018.1	62202.5
810.2371	393.5339	63085	62297.7
810.3806	395.7199	62978.1	62192.6
810.5241	397.9052	63004.4	62219.65
810.6677	400.09	63017.7	62228.25
810.8113	402.2743	63058.9	62271.7
810.9548	404.4579	63009.85	62222.05
811.0984	406.641	63006	62214.8
811.2421	408.8235	63052.15	62258.6
811.3857	411.0054	63032.25	62239.4
811.5293	413.1868	63038.8	62241.15
811.673	415.3675	63020.05	62217.7
811.8166	417.5477	63041.15	62240.6
811.9603	419.7273	63013.65	62209.3
812.104	421.9064	62999.5	62190.9
812.2477	424.0848	63017.25	62210.6
812.3914	426.2627	63021.05	62216.85
812.5351	428.4399	62957.85	62152.7
812.6788	430.6166	62899.45	62090.6
812.8226	432.7928	62966.55	62156.6
812.9663	434.9683	62910	62096.9
813.1101	437.1432	62926.2	62114.3
813.2539	439.3176	62982.55	62173.15
813.3977	441.4914	62867.8	62059.85
813.5415	443.6645	62893.75	62082.3
813.6853	445.8371	62864.5	62055.5
813.8291	448.0091	62834	62020.05
813.973	450.1806	62800.7	61986.3
814.1168	452.3514	62798.7	61984.55
814.2607	454.5216	62785.3	61965.2
814.4046	456.6913	62808.6	61989.45
814.5485	458.8603	62815.6	62001.55
814.6924	461.0288	62749.85	61936.95
814.8363	463.1967	62792.05	61978.75
814.9802	465.3639	62806.15	61991.9
815.1241	467.5306	62712.15	61894.15
815.2681	469.6967	62747.75	61930.55
815.412	471.8622	62731.7	61916.05
815.556	474.0271	62723.4	61909.45
815.7	476.1914	62734.5	61914.3
815.844	478.3551	62739.95	61920.3
815.988	480.5182	62787.35	61968.05
816.132	482.6807	62710.05	61893.9
816.276	484.8426	62749.35	61934.15
816.4201	487.0039	62800.7	61983.95
816.5641	489.1647	62799.3	61977.9
816.7082	491.3248	62710.05	61890.5
816.8522	493.4843	62800.4	61983.05
816.9963	495.6432	62795.6	61973.35
817.1404	497.8015	62713.85	61886.15
817.2845	499.9592	62749.35	61920.85
817.4286	502.1163	62757.25	61926.6
817.5727	504.2728	62743.9	61917.65
817.7168	506.4287	62756.85	61933.9
817.861	508.5839	62702.55	61880.35
818.0051	510.7386	62727.5	61900.5
818.1493	512.8927	62735.15	61907.1
818.2935	515.0461	62720.3	61890.4
818.4377	517.199	62758.55	61927.4
818.5818	519.3512	62737.3	61906.05
818.726	521.5029	62708.4	61870.25
818.8703	523.6539	62727.9	61893.8
819.0145	525.8043	62674.35	61841
819.1587	527.9541	62714.3	61878.75
819.303	530.1033	62697	61859.35
819.4472	532.2519	62670.5	61833.45
819.5915	534.3999	62698.55	61859.05
819.7357	536.5472	62705.9	61872.45
819.88	538.694	62649.45	61817.85
820.0243	540.8401	62706.85	61869.2
820.1686	542.9856	62694.2	61852.55
820.3129	545.1305	62695.1	61850.1
820.4572	547.2748	62676.75	61832.1
820.6016	549.4185	62695.6	61849.7
820.7459	551.5615	62697	61853.4
820.8902	553.704	62693.95	61849.25
821.0346	555.8458	62662.6	61821.35
821.1789	557.987	62656.1	61816
821.3233	560.1276	62650.55	61808.6
821.4677	562.2675	62646.3	61804.45
821.6121	564.4069	62646.4	61805.1
821.7565	566.5456	62666.9	61824.25
821.9009	568.6837	62633.05	61791.35
822.0453	570.8212	62640.1	61802.6
822.1897	572.958	62587.6	61742.75
822.3342	575.0942	62612.7	61772.1
822.4786	577.2299	62573.1	61731.6
822.6231	579.3648	62556.3	61719.85
822.7675	581.4992	62524.4	61689.5
822.912	583.6329	62496.55	61661.3
823.0565	585.766	62502.5	61665.95
823.201	587.8985	62508.65	61669.5
823.3454	590.0304	62458.45	61604.4
823.4899	592.1616	62483.65	61636.75
823.6345	594.2922	62448.3	61596.6
823.779	596.4222	62430.95	61581.8
823.9235	598.5515	62425.7	61573
824.068	600.6802	62420.1	61568.8
824.2126	602.8083	62387.5	61537.6
824.3571	604.9358	62399.9	61548.3
824.5017	607.0626	62396.25	61544.65
824.6462	609.1888	62363.5	61507.95
824.7908	611.3144	62378.1	61519.4
824.9354	613.4393	62349.8	61493.2
825.08	615.5636	62330	61472.75
825.2246	617.6873	62336.6	61483.7
825.3692	619.8103	62337.2	61480.65
825.5138	621.9327	62305.8	61449.25
825.6584	624.0544	62306.75	61452.4
825.803	626.1756	62305.35	61452.85
825.9477	628.2961	62309.05	61450.5
826.0923	630.4159	62295.7	61439.45
826.237	632.5351	62280.15	61420
826.3816	634.6537	62277.1	61419.55
826.5263	636.7716	62272	61413.15
826.6709	638.8889	62300.4	61440.75
826.8156	641.0056	62285.6	61424.7
826.9603	643.1216	62262.35	61399.75
827.105	645.237	62274.35	61412.5
827.2497	647.3518	62260.25	61401.2
827.3944	649.4659	62257.35	61403
827.5391	651.5793	62260.45	61403.25
827.6838	653.6922	62251.4	61393.3
827.8285	655.8043	62232.35	61375.35
827.9733	657.9159	62255.5	61396.65
828.118	660.0268	62197.65	61336.15
828.2627	662.137	62192.4	61328.25
828.4075	664.2466	62190.2	61323.8
828.5522	666.3556	62183.5	61319.8
828.697	668.4639	62185.75	61322.05
828.8418	670.5716	62192.4	61329.85
828.9865	672.6786	62182	61321.2
829.1313	674.785	62168.55	61301.05
829.2761	676.8907	62163.35	61299.9
829.4209	678.9958	62139.5	61278
829.5657	681.1002	62123.65	61258.95
829.7105	683.204	62120.8	61248.1
829.8553	685.3072	62112.35	61243.8
830.0001	687.4097	62094.05	61226.9
830.1449	689.5115	62074	61204.05
830.2898	691.6127	62100.9	61235.9
830.4346	693.7132	62049.35	61183.5
830.5794	695.8131	62061.75	61176.25
830.7243	697.9123	62062.5	61195.1
830.8691	700.0109	62060.35	61188.8
831.014	702.1089	62056.45	61186.55
831.1588	704.2061	62028.4	61161.7
831.3037	706.3028	62041.2	61167.8
831.4486	708.3987	62036.5	61166.3
831.5935	710.4941	62037.35	61167.05
831.7383	712.5887	62036.45	61165.2
831.8832	714.6827	62022.7	61148.85
832.0281	716.7761	62012.1	61142.15
832.173	718.8688	61999.5	61129.15
832.3179	720.9608	62010.25	61136.15
832.4628	723.0522	62015.1	61136.15
832.6077	725.1429	61978.95	61106
832.7527	727.233	62002.8	61127.45
832.8976	729.3224	61983.5	61111.15
833.0425	731.4112	61964.7	61086.9
833.1874	733.4993	61941.9	61063.55
833.3324	735.5867	61934.6	61058.1
833.4773	737.6735	61929.4	61054.75
833.6222	739.7596	61902.55	61026.2
833.7672	741.845	61893.7	61014.6
833.9122	743.9298	61884.8	61008.2
834.0571	746.014	61870.3	60996.1
834.2021	748.0974	61855.95	60977.5
834.347	750.1802	61821.6	60943.8
834.492	752.2624	61811.15	60933.8
834.637	754.3439	61801.25	60920.65
834.782	756.4247	61776.65	60891.6
834.9269	758.5048	61751.9	60873.55
835.0719	760.5843	61750.5	60867.8
835.2169	762.6631	61738.25	60858.65
835.3619	764.7413	61738.65	60859.3
835.5069	766.8188	61715.3	60833.95
835.6519	768.8956	61729.4	60849
835.7969	770.9718	61749.65	60869.5
835.9419	773.0473	61702.25	60822.5
836.0869	775.1221	61620.75	60741.15
836.232	777.1962	61626.6	60745.95
836.377	779.2697	61554.55	60673.8
836.522	781.3426	61594.45	60689.65
836.667	783.4147	61589.45	60707.85
836.8121	785.4862	61569.8	60689.1
836.9571	787.557	61472.75	60588.2
837.1021	789.6271	61569.15	60686.6
837.2472	791.6966	61480.9	60600.45
837.3922	793.7654	61355.4	60474.9
837.5373	795.8335	61387.1	60506
837.6823	797.901	61415.95	60533.6
837.8274	799.9678	61352.5	60467.05
837.9724	802.0339	61297.15	60410.85
838.1175	804.0993	61316.55	60421.2
838.2626	806.1641	61258.9	60374.05
838.4076	808.2282	61232.8	60345.5
838.5527	810.2916	61187.05	60299.8
838.6978	812.3544	61280.9	60399.25
838.8428	814.4164	61161.9	60281.6
838.9879	816.4778	61184.2	60295.8
839.133	818.5385	61160.8	60275.7
839.2781	820.5986	61150.7	60265
839.4232	822.658	61152.45	60264.65
839.5682	824.7166	61165.9	60283.55
839.7133	826.7747	61100.25	60213.45
839.8584	828.832	61103.45	60215.85
840.0035	830.8886	61165.45	60277.45
840.1486	832.9446	61161.95	60275.4
840.2937	834.9999	60950	60063.3
840.4388	837.0545	61010.6	60119.3
840.5839	839.1085	61065.25	60177.9
840.729	841.1618	61022.15	60132.6
840.8741	843.2143	60904.3	60014.75
841.0192	845.2662	60884.8	59994.85
841.1643	847.3175	60910.7	60021.65
841.3095	849.368	60784	59894.35
841.4546	851.4179	60892.45	60003.9
841.5997	853.467	60782.15	59894.05
841.7448	855.5155	60817.6	59930.65
841.8899	857.5633	60726.45	59837.4
842.0351	859.6105	60698.75	59811
842.1802	861.6569	60770.5	59877.95
842.3253	863.7027	60634.3	59742
842.4704	865.7478	60670.3	59779.45
842.6156	867.7922	60615	59724.15
842.7607	869.8359	60672.7	59782.8
842.9058	871.8789	60563.35	59674
843.0509	873.9212	60610.8	59692.85
843.1961	875.9629	60599.5	59709.9
843.3412	878.0039	60586.25	59695.15
843.4863	880.0441	60525.8	59636.5
843.6315	882.0837	60566.35	59677.35
843.7766	884.1226	60542	59651.1
843.9218	886.1609	60534.2	59644
844.0669	888.1984	60491.1	59600.95
844.212	890.2352	60591.05	59701.6
844.3572	892.2714	60466.7	59573.35
844.5023	894.3069	60495.3	59601.5
844.6475	896.3416	60452.35	59560.4
844.7926	898.3757	60425.3	59531.15
844.9377	900.4091	60313.25	59420.55
845.0829	902.4418	60399.8	59501.9
845.228	904.4739	60346	59449.95
845.3732	906.5052	60352.65	59460.75
845.5183	908.5358	60317.35	59424.95
845.6635	910.5658	60281	59386.45
845.8086	912.595	60260.25	59365.85
845.9538	914.6236	60181.85	59290.1
846.0989	916.6515	60301.3	59408.45
846.2441	918.6786	60150.65	59256.55
846.3892	920.7051	60167	59270.8
846.5344	922.7309	60140.15	59247.55
846.6795	924.756	60164.2	59266.75
846.8246	926.7804	60083.3	59185.3
846.9698	928.8041	59995.7	59097.25
847.1149	930.8272	60025.75	59127.35
847.2601	932.8495	59990.9	59096.55
847.4052	934.8711	59953.55	59058.8
847.5504	936.892	59878.85	58981.7
847.6955	938.9123	59914.75	59019.45
847.8407	940.9318	59846.45	58953.1
847.9858	942.9506	59810.65	58917.85
848.131	944.9688	59806.4	58911.55
848.2761	946.9862	59714.6	58817.7
848.4213	949.003	59724.7	58832.65
848.5664	951.019	59641.3	58744.15
848.7115	953.0344	59673.85	58778.75
848.8567	955.0491	59645.75	58749.6
849.0018	957.063	59642.55	58745.75
849.147	959.0763	59636.1	58741.1
849.2921	961.0888	59600.7	58701.6
849.4373	963.1007	59616.1	58720.6
849.5824	965.1119	59599.85	58707
849.7275	967.1223	59553.4	58662.1
849.8727	969.1321	59581.55	58692.15
850.0178	971.1412	59523.7	58628.6
850.1629	973.1495	59477.2	58583.25
850.3081	975.1572	59501.2	58567.45
850.4532	977.1641	59476.25	58578.65
850.5983	979.1704	59428.85	58533.55
850.7435	981.1759	59397.35	58497.6
850.8886	983.1808	59389.3	58490.95
851.0337	985.1849	59354.55	58446
851.1788	987.1884	59339.75	58441.95
851.324	989.1911	59338.6	58441.35
851.4691	991.1932	59282.25	58386.05
851.6142	993.1945	59267.3	58371.2
851.7593	995.1951	59229.75	58332.9
851.9045	997.1951	59219.5	58315.75
852.0496	999.1943	59150.7	58252.45
852.1947	1001.1928	59114	58213.9
852.3398	1003.1906	59076.45	58177.15
852.4849	1005.1877	59043.4	58143.5
852.63	1007.1841	59025.7	58129.35
852.7751	1009.1798	58995.15	58096.6
852.9202	1011.1748	58974.95	58078.65
853.0653	1013.1691	58924.2	58026.8
853.2104	1015.1627	58764.45	57868.65
853.3555	1017.1556	58796.95	57901.95
853.5006	1019.1477	58782.1	57885.05
853.6457	1021.1392	58720.7	57827.35
853.7908	1023.1299	58590.6	57695.2
853.9359	1025.12	58629.15	57737.75
854.081	1027.1093	58529.55	57642.5
854.2261	1029.0979	58494.65	57610.1
854.3712	1031.0859	58453.2	57565.65
854.5163	1033.0731	58345.25	57452.75
854.6613	1035.0596	58395.7	57503.95
854.8064	1037.0454	58338.75	57442.4
854.9515	1039.0304	58276.15	57379.25
855.0965	1041.0148	58066.9	57169.1
855.2416	1042.9985	58089.75	57193.05
855.3867	1044.9814	58221.2	57325.9
855.5317	1046.9636	58008.7	57110.7
855.6768	1048.9452	58029.8	57135.55
855.8219	1050.926	57964.55	57068.35
855.9669	1052.9061	57943.7	57046.5
856.112	1054.8855	57936.35	57037.25
856.257	1056.8642	57864.2	56962.75
856.4021	1058.8421	57768.4	56867.6
856.5471	1060.8194	57778.45	56878.25
856.6921	1062.7959	57658.3	56758.8
856.8372	1064.7717	57798.55	56897.85
856.9822	1066.7469	57722.6	56824.4
857.1272	1068.7213	57689.9	56790
857.2723	1070.695	57604.7	56705.95
857.4173	1072.6679	57486.7	56588.8
857.5623	1074.6402	57569.45	56671.1
857.7073	1076.6117	57430.95	56527.05
857.8523	1078.5826	57440.65	56537.85
857.9973	1080.5527	57411.95	56510.1
858.1423	1082.5221	57273.4	56371.85
858.2873	1084.4908	57321.1	56423.15
858.4323	1086.4587	57258.75	56360
858.5773	1088.426	57220.2	56321.05
858.7223	1090.3925	57188.15	56284.15
858.8673	1092.3584	57186.7	56287.25
859.0123	1094.3235	56989.7	56089.95
859.1573	1096.2879	56999.75	56100.4
859.3022	1098.2515	57075.3	56177.85
859.4472	1100.2145	56949.35	56051.95
859.5922	1102.1767	56904.3	56002.45
859.7371	1104.1382	56979	56080.9
859.8821	1106.099	56886.75	55986.25
860.027	1108.0591	56832.85	55933.85
860.172	1110.0185	56531.45	55630.35
860.3169	1111.9771	56863.95	55964.8
860.4619	1113.9351	56699.9	55802.05
860.6068	1115.8923	56550.6	55652.1
860.7517	1117.8488	56411.9	55511.25
860.8967	1119.8045	56250.85	55353.25
861.0416	1121.7596	56392.15	55491.75
861.1865	1123.7139	56257.75	55361.2
861.3314	1125.6675	56260.3	55361.65
861.4763	1127.6204	56172.15	55275.95
861.6212	1129.5726	55964.15	55064.75
861.7661	1131.524	56128.05	55228.75
861.911	1133.4748	56107.8	55206.8
862.0559	1135.4248	55892.15	54991.7
862.2008	1137.3741	55859.75	54962.35
862.3457	1139.3226	55801.55	54901.2
862.4905	1141.2705	55783.65	54883.25
862.6354	1143.2176	55766.15	54862.2
862.7803	1145.164	55527	54629.05
862.9251	1147.1097	55645.8	54747.95
863.07	1149.0546	55635.95	54736.9
863.2148	1150.9989	55621	54722.4
863.3597	1152.9424	55414.55	54514.85
863.5045	1154.8852	55614.3	54714.7
863.6493	1156.8272	55344.5	54442.45
863.7942	1158.7686	55565.9	54659.25
863.939	1160.7092	55217.55	54314.2
864.0838	1162.6491	55228.45	54324.35
864.2286	1164.5883	55310.5	54411.1
864.3734	1166.5267	55157.25	54254.1
864.5182	1168.4644	55256.95	54357.25
864.663	1170.4014	55178.95	54275.25
864.8078	1172.3377	55265.55	54369.6
864.9526	1174.2732	55354.7	54456.95
865.0974	1176.2081	55208.55	54311.25
865.2421	1178.1421	55156.55	54255.3
865.3869	1180.0755	55382.4	54483.9
865.5317	1182.0082	55254.75	54356.15
