Software Version:	3.9.2.0
Unit SN:	10000200
Spectrometer SN:	6960
Date:	3/6/2024 9:37:46 AM
Data Line Index:	25
Spectral Points:	2048
Integration time (ms):	125
Averages:	20
Delay (ms):	30
Sequence Number:	1
Processing:	dark subtract
Laser Power (mW):	295
Laser Current (mA):	824
Laser Diode Temp (C):	25
Laser Case Temp (C):	23.9
System Temp (C):	23.7
Spectrometer Temp (C):	21.4
CCD Temp (C):	-0.019
Secondary Temp (C):	20
Heatsink Temp (C):	17.172
CCDPCB Temp (C):	30.76
SecondaryPCB Temp (C):	25.78

Wavelength	RamanShift	Raw Counts	Dark Subtracted
787.061	30.1047	509.3	102.05
787.2016	32.3739	511.9	106.55
787.3422	34.6426	517.45	112.9
787.4828	36.9109	524.25	115.7
787.6235	39.1787	534.5	123.8
787.7642	41.4461	548.1	132.25
787.9049	43.7131	558.95	138.85
788.0456	45.9796	568.6	147.25
788.1863	48.2456	584.8	157.9
788.3271	50.5112	589.4	158.55
788.4679	52.7764	605.15	171.05
788.6087	55.0411	615.25	177.25
788.7496	57.3054	637.25	195.55
788.8904	59.5692	651.65	208.15
789.0313	61.8326	665.85	221.45
789.1722	64.0955	683.25	235.55
789.3132	66.3579	705.8	251.55
789.4541	68.6199	734	276.8
789.5951	70.8815	786.35	324.1
789.7361	73.1426	882.35	417.55
789.8771	75.4032	1132.7	663.7
790.0181	77.6634	1770.6	1298.6
790.1592	79.9231	3294.85	2821.05
790.3003	82.1824	6595.4	6117.45
790.4414	84.4412	12423.9	11937
790.5825	86.6995	20290.6	19795.3
790.7237	88.9574	27865.3	27364.15
790.8648	91.2148	33327.95	32823.55
791.006	93.4717	36060.95	35554.25
791.1472	95.7282	37276.5	36768.25
791.2885	97.9842	37843.95	37333.55
791.4297	100.2398	38122.65	37609.55
791.571	102.4949	38091.6	37574.8
791.7123	104.7495	38299.6	37780.1
791.8536	107.0036	38135.75	37613.3
791.9949	109.2573	38405.95	37884.95
792.1363	111.5105	38203.8	37679.95
792.2777	113.7632	38388.8	37863.1
792.4191	116.0154	38428.15	37891.5
792.5605	118.2672	38661.6	38131.25
792.7019	120.5185	38644.1	38114.3
792.8434	122.7693	38698.05	38165.5
792.9849	125.0197	38673.75	38134.7
793.1264	127.2696	38965.95	38423.65
793.2679	129.519	39133.35	38587.5
793.4094	131.7679	39329.2	38782.6
793.551	134.0163	38959.95	38408.95
793.6926	136.2642	39203.1	38649.25
793.8342	138.5117	39522.65	38963.7
793.9758	140.7587	39503.8	38945.1
794.1175	143.0052	39585.45	39023.4
794.2591	145.2512	39319.05	38756.6
794.4008	147.4967	39596.85	39031.8
794.5425	149.7417	39534.55	38968.5
794.6842	151.9863	39575.4	39006.15
794.826	154.2304	39410.05	38838.6
794.9677	156.4739	39584	39001.3
795.1095	158.717	39762.05	39181.2
795.2513	160.9596	39690.5	39104.85
795.3931	163.2017	39540.65	38951.6
795.535	165.4433	39887.6	39300.3
795.6768	167.6844	39777.05	39186.25
795.8187	169.925	39967	39371.85
795.9606	172.1651	39885.85	39287.35
796.1025	174.4047	39834.85	39233.7
796.2445	176.6439	39905.2	39301.25
796.3864	178.8825	39942.1	39334.75
796.5284	181.1206	40130	39518.4
796.6704	183.3582	40149.8	39535.3
796.8124	185.5954	40007.9	39392
796.9544	187.832	40182.3	39561.3
797.0965	190.0681	40143.95	39519.95
797.2386	192.3037	40434.25	39808.35
797.3806	194.5388	40732.85	40105.45
797.5228	196.7734	40250.95	39623.65
797.6649	199.0075	40816.95	40186.8
797.807	201.2411	40891.65	40261
797.9492	203.4742	41189.8	40556.55
798.0914	205.7068	41275.1	40634.5
798.2336	207.9389	41267.9	40627.1
798.3758	210.1704	41278.9	40648.25
798.518	212.4015	41540	40920.1
798.6603	214.632	41321.45	40703.8
798.8025	216.862	41678.05	41061
798.9448	219.0915	41677.4	41056.95
799.0871	221.3205	41623.2	41001.9
799.2294	223.549	41950.75	41334.6
799.3718	225.777	41997.05	41378.85
799.5141	228.0044	42097.1	41469.9
799.6565	230.2314	42125.65	41497.15
799.7989	232.4578	42074.4	41441.3
799.9413	234.6837	42148.2	41505.55
800.0837	236.909	42675.55	42031.35
800.2262	239.1339	42082.65	41414.35
800.3687	241.3582	42400.4	41749.1
800.5111	243.582	42417.25	41737.05
800.6536	245.8053	42533.65	41865.85
800.7961	248.0281	42518.7	41851.7
800.9387	250.2503	42706.6	42039.35
801.0812	252.472	42586.95	41919.45
801.2238	254.6932	42765.35	42097.55
801.3664	256.9139	42634.85	41964.2
801.509	259.134	43171.95	42495.4
801.6516	261.3536	42634.85	41962.4
801.7942	263.5727	43177.8	42502.55
801.9369	265.7912	42933.9	42258.6
802.0795	268.0092	43070.05	42396.35
802.2222	270.2267	43204	42527.9
802.3649	272.4436	43040.45	42361.8
802.5076	274.6601	43272.5	42582
802.6504	276.8759	43400	42714.45
802.7931	279.0913	43390.45	42704.75
802.9359	281.3061	43368.45	42680.3
803.0787	283.5204	43597.1	42910
803.2215	285.7341	43596.2	42904.9
803.3643	287.9473	43872.75	43171.2
803.5071	290.16	43660	42964.05
803.6499	292.3721	43858.1	43170.75
803.7928	294.5837	43514.3	42824.5
803.9357	296.7947	43337.05	42646.05
804.0786	299.0052	43711.8	43021.15
804.2215	301.2152	43455.95	42761.8
804.3644	303.4246	43765.8	43072.05
804.5074	305.6334	43762.75	43071.6
804.6503	307.8418	43493.1	42796.95
804.7933	310.0495	43578.65	42879.3
804.9363	312.2568	43454.65	42757.9
805.0793	314.4635	43370.85	42671.75
805.2223	316.6696	43433.65	42728.1
805.3653	318.8752	43507.55	42796.05
805.5084	321.0802	42988.45	42285.7
805.6514	323.2847	43177.35	42468.6
805.7945	325.4887	43153.35	42444.7
805.9376	327.692	43036.3	42327.2
806.0807	329.8949	43323.15	42614.95
806.2238	332.0972	43223.8	42512.7
806.367	334.2989	43379	42663.35
806.5101	336.5001	43609.75	42893.25
806.6533	338.7007	43229.65	42511.6
806.7965	340.9008	43441.7	42725.4
806.9397	343.1003	43373.85	42654.15
807.0829	345.2992	43536.7	42815.85
807.2261	347.4976	43279.5	42554.4
807.3693	349.6955	43313.75	42588.05
807.5126	351.8927	43262.75	42533.8
807.6559	354.0895	43330.3	42590.5
807.7991	356.2856	43333.65	42604.8
807.9424	358.4812	43458.45	42729.35
808.0857	360.6763	43228.9	42494.85
808.2291	362.8707	43375.35	42637.4
808.3724	365.0646	43260.25	42523
808.5158	367.258	43288.65	42548.1
808.6591	369.4508	43059.3	42316.85
808.8025	371.643	43346.15	42603.65
808.9459	373.8346	43238.9	42495.5
809.0893	376.0257	43267.55	42519.35
809.2327	378.2162	43168.2	42421.05
809.3762	380.4062	43022.25	42274.55
809.5196	382.5956	43033.05	42288.15
809.6631	384.7844	43058	42318
809.8066	386.9726	43071.75	42332.75
809.9501	389.1603	43072.75	42336.95
810.0936	391.3474	42824.55	42037.95
810.2371	393.5339	43022.25	42281.05
810.3806	395.7199	42652.95	41914.9
810.5241	397.9052	42750	42011.9
810.6677	400.09	42822.8	42082.25
810.8113	402.2743	42934	42192.4
810.9548	404.4579	42801.65	42059.15
811.0984	406.641	42775.2	42029.2
811.2421	408.8235	42947.75	42199.6
811.3857	411.0054	42962.9	42212.45
811.5293	413.1868	43075.3	42324.15
811.673	415.3675	43005	42247.65
811.8166	417.5477	43047.15	42287.65
811.9603	419.7273	42935.75	42174.3
812.104	421.9064	42768.3	41999.35
812.2477	424.0848	42706.5	41946.1
812.3914	426.2627	42718.15	41955.15
812.5351	428.4399	42406.5	41644.45
812.6788	430.6166	42161.55	41390.7
812.8226	432.7928	42285.65	41515.65
812.9663	434.9683	41996.05	41228.9
813.1101	437.1432	42031.15	41260.85
813.2539	439.3176	42063.55	41293.35
813.3977	441.4914	41701.8	40935.9
813.5415	443.6645	41745.3	40972.95
813.6853	445.8371	41651.65	40881.45
813.8291	448.0091	41441.8	40669.65
813.973	450.1806	41349.45	40576.65
814.1168	452.3514	41268.95	40494
814.2607	454.5216	41186.3	40403.55
814.4046	456.6913	41085.75	40308.95
814.5485	458.8603	41186.3	40410.15
814.6924	461.0288	41057.45	40284
814.8363	463.1967	41147.2	40371.15
814.9802	465.3639	41172.7	40395.75
815.1241	467.5306	40838.6	40060.55
815.2681	469.6967	40910.5	40132.95
815.412	471.8622	40901.75	40123.7
815.556	474.0271	40826.95	40050.65
815.7	476.1914	40792.55	40013.75
815.844	478.3551	40801.8	40024
815.988	480.5182	40927.75	40147.45
816.132	482.6807	40735.75	39955
816.276	484.8426	40800.15	40020.1
816.4201	487.0039	41009.25	40227.25
816.5641	489.1647	41002.9	40220.85
816.7082	491.3248	40905.3	40122.85
816.8522	493.4843	41054.05	40269.2
816.9963	495.6432	40983.65	40199.35
817.1404	497.8015	40691.7	39905.3
817.2845	499.9592	40813.5	40027.45
817.4286	502.1163	40731.05	39944.8
817.5727	504.2728	40640.2	39848.75
817.7168	506.4287	40699	39912
817.861	508.5839	40511.1	39720.95
818.0051	510.7386	40537.7	39749.45
818.1493	512.8927	40602.25	39804.9
818.2935	515.0461	40567.55	39774.55
818.4377	517.199	40610.6	39818.5
818.5818	519.3512	40595.95	39802.2
818.726	521.5029	40513.1	39713.65
818.8703	523.6539	40592.2	39797.45
819.0145	525.8043	40420.45	39623.5
819.1587	527.9541	40476.9	39677.95
819.303	530.1033	40343.2	39543.25
819.4472	532.2519	40152.7	39354.8
819.5915	534.3999	40198.75	39399.2
819.7357	536.5472	40281.7	39484.2
819.88	538.694	40053.9	39257.5
820.0243	540.8401	40196.9	39398.7
820.1686	542.9856	40185.9	39384.45
820.3129	545.1305	40135.55	39333.9
820.4572	547.2748	40111.55	39313.65
820.6016	549.4185	40087	39286.5
820.7459	551.5615	40129.45	39330.8
820.8902	553.704	40107.3	39307.6
821.0346	555.8458	39969.1	39169.95
821.1789	557.987	40010.5	39210.35
821.3233	560.1276	39997.2	39195.7
821.4677	562.2675	40024.8	39224.95
821.6121	564.4069	39974.85	39171.9
821.7565	566.5456	40015.9	39211.8
821.9009	568.6837	39924.9	39120.75
822.0453	570.8212	39791.05	38986
822.1897	572.958	39551.85	38746.45
822.3342	575.0942	39576.15	38770.5
822.4786	577.2299	39377.55	38569.4
822.6231	579.3648	39269.15	38460.8
822.7675	581.4992	39128.25	38321.4
822.912	583.6329	38963.45	38157.85
823.0565	585.766	38971.8	38165
823.201	587.8985	38999.65	38191.8
823.3454	590.0304	38790.85	37971.9
823.4899	592.1616	38844.55	38031.9
823.6345	594.2922	38752.6	37942.4
823.779	596.4222	38561.85	37749.4
823.9235	598.5515	38462.3	37647.6
824.068	600.6802	38373.65	37559.3
824.2126	602.8083	38097	37285.35
824.3571	604.9358	38128.45	37316.5
824.5017	607.0626	38045.45	37232.1
824.6462	609.1888	37992.45	37178.25
824.7908	611.3144	38032.85	37217.5
824.9354	613.4393	37913.45	37100.4
825.08	615.5636	37914.35	37098
825.2246	617.6873	37949.55	37135.15
825.3692	619.8103	38014.9	37196.55
825.5138	621.9327	37883.75	37063.5
825.6584	624.0544	37867.95	37053.7
825.803	626.1756	37775.35	36958
825.9477	628.2961	37674.25	36856.35
826.0923	630.4159	37574.95	36755.9
826.237	632.5351	37548.05	36729.8
826.3816	634.6537	37556.4	36740
826.5263	636.7716	37447.45	36624.75
826.6709	638.8889	37463.05	36641.6
826.8156	641.0056	37443.2	36622.35
826.9603	643.1216	37404.8	36581.2
827.105	645.237	37483.8	36661.25
827.2497	647.3518	37293.1	36472.3
827.3944	649.4659	37329.05	36507.85
827.5391	651.5793	37236.05	36415
827.6838	653.6922	37151.5	36329.2
827.8285	655.8043	37052.8	36231.4
827.9733	657.9159	37129.2	36304.9
828.118	660.0268	36902.25	36076.1
828.2627	662.137	36862.1	36038.1
828.4075	664.2466	36885.35	36056.85
828.5522	666.3556	36820.75	35993.55
828.697	668.4639	36738.8	35910.2
828.8418	670.5716	36737.4	35909.15
828.9865	672.6786	36711.05	35881.7
829.1313	674.785	36570.5	35741.35
829.2761	676.8907	36462.2	35634
829.4209	678.9958	36468.15	35641.65
829.5657	681.1002	36319.9	35491.45
829.7105	683.204	36290.8	35458.7
829.8553	685.3072	36248.9	35417.4
830.0001	687.4097	36146.75	35314.2
830.1449	689.5115	36184.05	35352.1
830.2898	691.6127	36179.3	35350.2
830.4346	693.7132	36037.65	35206.95
830.5794	695.8131	36060.65	35219.5
830.7243	697.9123	36103.45	35270.25
830.8691	700.0109	36013.85	35183.25
831.014	702.1089	35925.05	35094.8
831.1588	704.2061	35865.35	35034.25
831.3037	706.3028	35936.35	35102.4
831.4486	708.3987	35874.05	35040.6
831.5935	710.4941	35791.1	34959.85
831.7383	712.5887	35838.4	35003.2
831.8832	714.6827	35815.7	34974.9
832.0281	716.7761	35741.05	34906.65
832.173	718.8688	35733.3	34897.15
832.3179	720.9608	35637.5	34799.4
832.4628	723.0522	35682.9	34843.9
832.6077	725.1429	35576.15	34739.3
832.7527	727.233	35647.65	34810.4
832.8976	729.3224	35657.4	34820.8
833.0425	731.4112	35563.2	34725.55
833.1874	733.4993	35531.9	34689.5
833.3324	735.5867	35410	34570.65
833.4773	737.6735	35324.25	34482.5
833.6222	739.7596	35139.55	34299.9
833.7672	741.845	35076.4	34238.85
833.9122	743.9298	35031.65	34191.85
834.0571	746.014	34893.1	34054.45
834.2021	748.0974	34890.25	34049.15
834.347	750.1802	34732.25	33892
834.492	752.2624	34633.55	33795.7
834.637	754.3439	34518.4	33676.5
834.782	756.4247	34423.4	33574.05
834.9269	758.5048	34344.2	33505
835.0719	760.5843	34325.65	33484.65
835.2169	762.6631	34212.2	33372.25
835.3619	764.7413	34185.95	33345.6
835.5069	766.8188	34259.65	33416.45
835.6519	768.8956	34166	33321.9
835.7969	770.9718	34293.3	33450.5
835.9419	773.0473	34130.8	33289.4
836.0869	775.1221	34076.55	33233.6
836.232	777.1962	33952	33108.95
836.377	779.2697	33952.15	33107.5
836.522	781.3426	33957.75	33095.6
836.667	783.4147	33931.95	33087.35
836.8121	785.4862	33941.6	33098.55
836.9571	787.557	33776.85	32933
837.1021	789.6271	33622.95	32779.75
837.2472	791.6966	33463.7	32621.6
837.3922	793.7654	33266.25	32421.5
837.5373	795.8335	33148.6	32302.9
837.6823	797.901	33009.7	32164
837.8274	799.9678	32977.05	32129.5
837.9724	802.0339	32950.25	32106.65
838.1175	804.0993	32939.65	32084.1
838.2626	806.1641	32746.25	31898.55
838.4076	808.2282	32757	31909.75
838.5527	810.2916	32727.15	31879.1
838.6978	812.3544	32668.05	31822.95
838.8428	814.4164	32548.65	31702.3
838.9879	816.4778	32661.75	31813.55
839.133	818.5385	32503.85	31656.45
839.2781	820.5986	32544.15	31697.7
839.4232	822.658	32582.9	31733.25
839.5682	824.7166	32465.85	31617.2
839.7133	826.7747	32664.5	31819
839.8584	828.832	32614.3	31767.4
840.0035	830.8886	32526	31675.7
840.1486	832.9446	32547.85	31696.55
840.2937	834.9999	32439.9	31593.25
840.4388	837.0545	32371.55	31515.6
840.5839	839.1085	32194.5	31345
840.729	841.1618	32121.8	31269.75
840.8741	843.2143	31997.15	31146
841.0192	845.2662	31895.15	31043.35
841.1643	847.3175	31913.9	31062.75
841.3095	849.368	31760.1	30908.65
841.4546	851.4179	31704.5	30853.65
841.5997	853.467	31585.3	30733.15
841.7448	855.5155	31604.9	30752.35
841.8899	857.5633	31513.2	30662.7
842.0351	859.6105	31444.1	30592.45
842.1802	861.6569	31384.5	30531.7
842.3253	863.7027	31302.8	30449.65
842.4704	865.7478	31365.6	30514
842.6156	867.7922	31284.1	30432.45
842.7607	869.8359	31212.2	30358.3
842.9058	871.8789	31142.85	30289.4
843.0509	873.9212	31139.35	30252.4
843.1961	875.9629	31011.25	30158.2
843.3412	878.0039	31022.9	30168.5
843.4863	880.0441	31022.7	30169.45
843.6315	882.0837	30997.9	30143.8
843.7766	884.1226	30984.8	30128.4
843.9218	886.1609	30979	30125.75
844.0669	888.1984	31060.3	30206.75
844.212	890.2352	31134.8	30280
844.3572	892.2714	31060.25	30203.1
844.5023	894.3069	31019.05	30161.6
844.6475	896.3416	30818.85	29961.7
844.7926	898.3757	30797.7	29943.6
844.9377	900.4091	30702.8	29846.55
845.0829	902.4418	30695.65	29836.15
845.228	904.4739	30640.85	29783.6
845.3732	906.5052	30597.35	29741.5
845.5183	908.5358	30537.05	29681.9
845.6635	910.5658	30435.1	29576.15
845.8086	912.595	30346.5	29488.15
845.9538	914.6236	30241.9	29384.9
846.0989	916.6515	30208.25	29355.15
846.2441	918.6786	30075.45	29218.3
846.3892	920.7051	30091.05	29233.2
846.5344	922.7309	30079.4	29220.7
846.6795	924.756	29936.1	29078.1
846.8246	926.7804	29945.35	29086.15
846.9698	928.8041	29784.15	28923.65
847.1149	930.8272	29808.7	28951.85
847.2601	932.8495	29688.55	28830.35
847.4052	934.8711	29700.1	28841.55
847.5504	936.892	29597.7	28738.8
847.6955	938.9123	29479.35	28620.2
847.8407	940.9318	29460	28602.85
847.9858	942.9506	29370.75	28512.1
848.131	944.9688	29287.5	28429.95
848.2761	946.9862	29199.75	28339.2
848.4213	949.003	29067.35	28209.2
848.5664	951.019	28987.1	28127.3
848.7115	953.0344	28884.15	28022.2
848.8567	955.0491	28812.95	27953.35
849.0018	957.063	28828.7	27967.85
849.147	959.0763	28812.35	27952.75
849.2921	961.0888	28685.2	27821.5
849.4373	963.1007	28731.95	27871.1
849.5824	965.1119	28690.3	27830.9
849.7275	967.1223	28638.6	27776.35
849.8727	969.1321	28606.05	27748.2
850.0178	971.1412	28537.35	27678.25
850.1629	973.1495	28493.5	27631.05
850.3081	975.1572	28491.75	27582.55
850.4532	977.1641	28427.45	27567.45
850.5983	979.1704	28346.7	27484.2
850.7435	981.1759	28258.8	27395.9
850.8886	983.1808	28208.3	27345.6
851.0337	985.1849	28112.7	27244.75
851.1788	987.1884	28099.1	27233.3
851.324	989.1911	28054.05	27190.15
851.4691	991.1932	28039.55	27177.15
851.6142	993.1945	27867.7	27006.05
851.7593	995.1951	27778.75	26916.55
851.9045	997.1951	27782.05	26913.25
852.0496	999.1943	27665	26803.35
852.1947	1001.1928	27555.45	26693.4
852.3398	1003.1906	27442.55	26581.55
852.4849	1005.1877	27442.8	26578.15
852.63	1007.1841	27352	26489.05
852.7751	1009.1798	27258.4	26395.4
852.9202	1011.1748	27203	26339.55
853.0653	1013.1691	27090.35	26226.75
853.2104	1015.1627	26945.45	26081.6
853.3555	1017.1556	26771.45	25907.75
853.5006	1019.1477	26733.6	25869.8
853.6457	1021.1392	26580.95	25719.2
853.7908	1023.1299	26513.3	25649.65
853.9359	1025.12	26412.25	25547.35
854.081	1027.1093	26338.25	25475.3
854.2261	1029.0979	26261.35	25401.5
854.3712	1031.0859	26176.15	25315.5
854.5163	1033.0731	26158.05	25293.35
854.6613	1035.0596	26071.65	25208.75
854.8064	1037.0454	25944.5	25079.7
854.9515	1039.0304	25854.25	24987.55
855.0965	1041.0148	25750.6	24887.3
855.2416	1042.9985	25652.7	24786.95
855.3867	1044.9814	25654.05	24791.45
855.5317	1046.9636	25508.55	24641.2
855.6768	1048.9452	25442.6	24577.9
855.8219	1050.926	25462.9	24598.95
855.9669	1052.9061	25416.15	24551.2
856.112	1054.8855	25332.9	24466.7
856.257	1056.8642	25309	24443.2
856.4021	1058.8421	25261.85	24392.5
856.5471	1060.8194	25221.5	24354.1
856.6921	1062.7959	25146.9	24279.75
856.8372	1064.7717	25109.45	24242.4
856.9822	1066.7469	25048.2	24180.3
857.1272	1068.7213	25025.15	24156.7
857.2723	1070.695	25015.6	24149.8
857.4173	1072.6679	24944.85	24078.9
857.5623	1074.6402	24933.2	24064.05
857.7073	1076.6117	24955.7	24083.55
857.8523	1078.5826	24897.5	24028.65
857.9973	1080.5527	24811.45	23942.45
858.1423	1082.5221	24661	23791.85
858.2873	1084.4908	24592.75	23727.1
858.4323	1086.4587	24526.75	23658.4
858.5773	1088.426	24505.55	23638
858.7223	1090.3925	24362.8	23489.55
858.8673	1092.3584	24373.75	23506.85
859.0123	1094.3235	24291.65	23428.35
859.1573	1096.2879	24246.35	23378.1
859.3022	1098.2515	24252.7	23384.8
859.4472	1100.2145	24263.6	23398.1
859.5922	1102.1767	24211.75	23344.65
859.7371	1104.1382	24198.85	23328.3
859.8821	1106.099	24222.7	23353.45
860.027	1108.0591	24188.7	23320.65
860.172	1110.0185	24167.45	23297.1
860.3169	1111.9771	24200.85	23332.35
860.4619	1113.9351	24144.65	23277.55
860.6068	1115.8923	24157.95	23288.4
860.7517	1117.8488	24146.2	23274.7
860.8967	1119.8045	24019.4	23149.3
861.0416	1121.7596	23908.5	23040
861.1865	1123.7139	23709	22839.7
861.3314	1125.6675	23611.2	22742.5
861.4763	1127.6204	23644	22776.4
861.6212	1129.5726	23542.05	22671.7
861.7661	1131.524	23564.5	22697.25
861.911	1133.4748	23508.45	22640.05
862.0559	1135.4248	23366.25	22495.7
862.2008	1137.3741	23231.8	22363.35
862.3457	1139.3226	23154.6	22282.25
862.4905	1141.2705	23221.8	22351.8
862.6354	1143.2176	23041.4	22164.35
862.7803	1145.164	23046.3	22173.35
862.9251	1147.1097	23023.45	22153.35
863.07	1149.0546	22999.55	22129
863.2148	1150.9989	22955.65	22086.85
863.3597	1152.9424	22914.5	22045.45
863.5045	1154.8852	22861.4	21991.55
863.6493	1156.8272	22841.35	21970.6
863.7942	1158.7686	22840.15	21963.25
863.939	1160.7092	22751.25	21881
864.0838	1162.6491	22658.7	21786.2
864.2286	1164.5883	22672.2	21803.05
864.3734	1166.5267	22664.8	21791.35
864.5182	1168.4644	22664.25	21793
864.663	1170.4014	22663.05	21786.95
864.8078	1172.3377	22702	21830.4
864.9526	1174.2732	22691.9	21821.4
865.0974	1176.2081	22804.4	21934.65
865.2421	1178.1421	22912.3	22037.65
865.3869	1180.0755	22985.2	22113.3
865.5317	1182.0082	22998.95	22128
865.6764	1183.9401	22971.25	22099.95
