Software Version:	3.9.2.0
Unit SN:	10000200
Spectrometer SN:	6960
Date:	3/6/2024 9:59:11 AM
Data Line Index:	25
Spectral Points:	2048
Integration time (ms):	125
Averages:	20
Delay (ms):	30
Sequence Number:	1
Processing:	dark subtract
Laser Power (mW):	305
Laser Current (mA):	826
Laser Diode Temp (C):	25.1
Laser Case Temp (C):	24.6
System Temp (C):	24.4
Spectrometer Temp (C):	22
CCD Temp (C):	0.005
Secondary Temp (C):	20.013
Heatsink Temp (C):	18.327
CCDPCB Temp (C):	30.927
SecondaryPCB Temp (C):	26.225

Wavelength	RamanShift	Raw Counts	Dark Subtracted
787.061	30.1047	589.15	181.35
787.2016	32.3739	593.85	187.45
787.3422	34.6426	610.7	201.85
787.4828	36.9109	616.65	207.35
787.6235	39.1787	631.5	217.15
787.7642	41.4461	654.45	235.55
787.9049	43.7131	669.65	248.5
788.0456	45.9796	680	256.05
788.1863	48.2456	704.15	275.2
788.3271	50.5112	726.05	295.3
788.4679	52.7764	751.4	316.45
788.6087	55.0411	765.45	327.05
788.7496	57.3054	791.45	347.6
788.8904	59.5692	821	375.9
789.0313	61.8326	841.1	393.2
789.1722	64.0955	873.15	422.9
789.3132	66.3579	905.4	449.9
789.4541	68.6199	956.25	496
789.5951	70.8815	1040.55	577.55
789.7361	73.1426	1212.7	746.3
789.8771	75.4032	1632.4	1159.3
790.0181	77.6634	2696.7	2223.35
790.1592	79.9231	5357.85	4878.75
790.3003	82.1824	11248.7	10759.15
790.4414	84.4412	22281.2	21775.35
790.5825	86.6995	39577.6	39054.2
790.7237	88.9574	51107.05	50570.5
790.8648	91.2148	57599.8	57051.7
791.006	93.4717	59095.35	58539.9
791.1472	95.7282	59819.05	59257.95
791.2885	97.9842	60157.05	59591.75
791.4297	100.2398	60163.65	59596.4
791.571	102.4949	60126.15	59556.75
791.7123	104.7495	60182.95	59611.5
791.8536	107.0036	59981.4	59408.7
791.9949	109.2573	60352.85	59780.6
792.1363	111.5105	60064.35	59490.85
792.2777	113.7632	60216.25	59639.65
792.4191	116.0154	60351.3	59762.1
792.5605	118.2672	60610.35	60029.4
792.7019	120.5185	60658.05	60074.3
792.8434	122.7693	60674.3	60088
792.9849	125.0197	60330.2	59742.4
793.1264	127.2696	61009.45	60413.6
793.2679	129.519	60926.5	60327.25
793.4094	131.7679	61230.25	60629.15
793.551	134.0163	60526.4	59922.2
793.6926	136.2642	60817.15	60211.25
793.8342	138.5117	61226.05	60616.55
793.9758	140.7587	61102.9	60492.7
794.1175	143.0052	61104.1	60489.35
794.2591	145.2512	60731.65	60119.65
794.4008	147.4967	61216.85	60602.4
794.5425	149.7417	61089.55	60471.8
794.6842	151.9863	61091.9	60470.4
794.826	154.2304	60833.5	60208.8
794.9677	156.4739	61034.85	60401.9
795.1095	158.717	61328.4	60698.1
795.2513	160.9596	61133.55	60495.7
795.3931	163.2017	60820.9	60183.25
795.535	165.4433	61185.95	60542.85
795.6768	167.6844	60994.1	60352.4
795.8187	169.925	61211.6	60569
795.9606	172.1651	61008.4	60361.1
796.1025	174.4047	61150.85	60499.5
796.2445	176.6439	61141.8	60493
796.3864	178.8825	61029.65	60373.1
796.5284	181.1206	61375.75	60716.4
796.6704	183.3582	61303.95	60636.7
796.8124	185.5954	61139.05	60473.05
796.9544	187.832	61219.5	60549.75
797.0965	190.0681	61001.45	60327.25
797.2386	192.3037	61381.85	60703.8
797.3806	194.5388	61778	61097.1
797.5228	196.7734	60877.2	60196.9
797.6649	199.0075	61726.55	61043.65
797.807	201.2411	61432.45	60747.65
797.9492	203.4742	61894.9	61209.45
798.0914	205.7068	61808.95	61118.45
798.2336	207.9389	61772.6	61081.5
798.3758	210.1704	61712.25	61024.7
798.518	212.4015	62033.2	61355.3
798.6603	214.632	61664.3	60993.25
798.8025	216.862	62046.2	61376.3
798.9448	219.0915	61862.55	61192.2
799.0871	221.3205	61812.1	61140.15
799.2294	223.549	62119.3	61448.75
799.3718	225.777	62101.45	61430.95
799.5141	228.0044	62234.9	61556.65
799.6565	230.2314	62147.15	61469.7
799.7989	232.4578	62124.7	61442.1
799.9413	234.6837	62180.45	61487.9
800.0837	236.909	62637.25	61945.35
800.2262	239.1339	61962.8	61245.05
800.3687	241.3582	62285.2	61584.1
800.5111	243.582	62312.9	61575.3
800.6536	245.8053	62307.1	61588.4
800.7961	248.0281	62344.85	61629.95
800.9387	250.2503	62434.45	61714.9
801.0812	252.472	62232.15	61511.2
801.2238	254.6932	62386.7	61666.25
801.3664	256.9139	62286.65	61565.1
801.509	259.134	62682.65	61954.55
801.6516	261.3536	62226.5	61500.05
801.7942	263.5727	62538	61811.35
801.9369	265.7912	62370.05	61644.85
802.0795	268.0092	62419.1	61694.9
802.2222	270.2267	62492.85	61768.25
802.3649	272.4436	62312.75	61583.05
802.5076	274.6601	62502.3	61764.05
802.6504	276.8759	62580.05	61846.9
802.7931	279.0913	62501.65	61765.6
802.9359	281.3061	62515.6	61779.7
803.0787	283.5204	62554.85	61814.05
803.2215	285.7341	62518.05	61775.05
803.3643	287.9473	62686.25	61929.9
803.5071	290.16	62566.45	61820.8
803.6499	292.3721	62681.8	61942.05
803.7928	294.5837	62478.1	61737.35
803.9357	296.7947	62371.25	61629.95
804.0786	299.0052	62687.85	61944.7
804.2215	301.2152	62552.75	61809.3
804.3644	303.4246	62669.15	61928.6
804.5074	305.6334	62665.95	61920.95
804.6503	307.8418	62443.1	61697.9
804.7933	310.0495	62518.7	61769.65
804.9363	312.2568	62481.85	61732.55
805.0793	314.4635	62465.25	61715.95
805.2223	316.6696	62525.75	61771.85
805.3653	318.8752	62663.95	61897.35
805.5084	321.0802	62236.2	61479.05
805.6514	323.2847	62441.45	61681.1
805.7945	325.4887	62430.15	61672.05
805.9376	327.692	62346.05	61587.3
806.0807	329.8949	62482.35	61720
806.2238	332.0972	62371.25	61607.45
806.367	334.2989	62451.75	61681.65
806.5101	336.5001	62580.9	61812.05
806.6533	338.7007	62255.35	61487.45
806.7965	340.9008	62438.8	61668.8
806.9397	343.1003	62448.5	61676.75
807.0829	345.2992	62582.9	61810.9
807.2261	347.4976	62431.2	61657.5
807.3693	349.6955	62470.75	61693.4
807.5126	351.8927	62372.1	61593.25
807.6559	354.0895	62504.45	61716
807.7991	356.2856	62470.3	61690.25
807.9424	358.4812	62588.9	61808.55
808.0857	360.6763	62361.35	61577.5
808.2291	362.8707	62528.15	61743.35
808.3724	365.0646	62423.15	61634.75
808.5158	367.258	62440.75	61652.05
808.6591	369.4508	62287.25	61496.2
808.8025	371.643	62531.15	61739.9
808.9459	373.8346	62431.3	61638.2
809.0893	376.0257	62446.55	61652.65
809.2327	378.2162	62396.3	61597.6
809.3762	380.4062	62201.35	61410.6
809.5196	382.5956	62359.55	61567.1
809.6631	384.7844	62344.55	61558.4
809.8066	386.9726	62402.05	61616.1
809.9501	389.1603	62435.95	61650.95
810.0936	391.3474	62259	61439.65
810.2371	393.5339	62426.45	61635.65
810.3806	395.7199	62155.8	61370.8
810.5241	397.9052	62215.15	61428
810.6677	400.09	62279.85	61490.55
810.8113	402.2743	62371.4	61581.4
810.9548	404.4579	62236.95	61442.95
811.0984	406.641	62202.95	61408
811.2421	408.8235	62300.95	61505.4
811.3857	411.0054	62342	61546.05
811.5293	413.1868	62351.25	61549.75
811.673	415.3675	62286.9	61479.75
811.8166	417.5477	62296.65	61493.95
811.9603	419.7273	62301.85	61495.45
812.104	421.9064	62236.35	61423.95
812.2477	424.0848	62254.85	61449.25
812.3914	426.2627	62342.65	61532.65
812.5351	428.4399	62157.1	61348.6
812.6788	430.6166	61963.05	61147.85
812.8226	432.7928	62207.85	61391.7
812.9663	434.9683	61973.3	61160
813.1101	437.1432	61982.75	61167.1
813.2539	439.3176	62156.75	61343.8
813.3977	441.4914	61848.6	61038.15
813.5415	443.6645	61909.65	61096.7
813.6853	445.8371	61898.9	61085.65
813.8291	448.0091	61771.75	60959.4
813.973	450.1806	61693.15	60878.05
814.1168	452.3514	61721.6	60903.9
814.2607	454.5216	61599.65	60773.7
814.4046	456.6913	61717.15	60897.8
814.5485	458.8603	61749.25	60931.5
814.6924	461.0288	61554.25	60737.5
814.8363	463.1967	61761.05	60948.8
814.9802	465.3639	61709.55	60890.8
815.1241	467.5306	61354	60533.05
815.2681	469.6967	61539.75	60719.1
815.412	471.8622	61659.15	60844.3
815.556	474.0271	61499.05	60681.8
815.7	476.1914	61572.2	60745.4
815.844	478.3551	61565.1	60745.4
815.988	480.5182	61775.95	60955.5
816.132	482.6807	61500.25	60681.75
816.276	484.8426	61517.15	60700.65
816.4201	487.0039	61771.95	60951.7
816.5641	489.1647	61736.95	60915.45
816.7082	491.3248	61477.7	60655.75
816.8522	493.4843	61797.8	60974.95
816.9963	495.6432	61807.7	60986.15
817.1404	497.8015	61448.35	60617.75
817.2845	499.9592	61637.7	60806.55
817.4286	502.1163	61618.35	60787.3
817.5727	504.2728	61622.45	60792.8
817.7168	506.4287	61602	60778.8
817.861	508.5839	61417.7	60592.9
818.0051	510.7386	61552.05	60725.4
818.1493	512.8927	61561.65	60727.25
818.2935	515.0461	61485.3	60650.45
818.4377	517.199	61663.55	60828.45
818.5818	519.3512	61514.9	60678.9
818.726	521.5029	61489.9	60650.55
818.8703	523.6539	61528.85	60693.7
819.0145	525.8043	61275.8	60438.1
819.1587	527.9541	61497.8	60660.35
819.303	530.1033	61489.45	60652.15
819.4472	532.2519	61353.6	60514.2
819.5915	534.3999	61499.3	60659.7
819.7357	536.5472	61559.9	60721.65
819.88	538.694	61266.4	60429.65
820.0243	540.8401	61469.45	60629.85
820.1686	542.9856	61471.95	60628.7
820.3129	545.1305	61555.8	60710.05
820.4572	547.2748	61362.3	60515.4
820.6016	549.4185	61350.65	60501.15
820.7459	551.5615	61523.05	60676.45
820.8902	553.704	61445.2	60597.65
821.0346	555.8458	61315.4	60472.7
821.1789	557.987	61365.6	60524.6
821.3233	560.1276	61423.4	60576.65
821.4677	562.2675	61323.3	60476.7
821.6121	564.4069	61359.95	60515.45
821.7565	566.5456	61467.85	60626.45
821.9009	568.6837	61250.95	60407.65
822.0453	570.8212	61337.15	60492.05
822.1897	572.958	61020.6	60173.85
822.3342	575.0942	61330	60487.25
822.4786	577.2299	61051.3	60208
822.6231	579.3648	60990.1	60151.8
822.7675	581.4992	60907.7	60071.85
822.912	583.6329	60858.65	60021.5
823.0565	585.766	60876.25	60036.1
823.201	587.8985	60987.35	60148.05
823.3454	590.0304	60593.25	59735.4
823.4899	592.1616	60816.9	59964.25
823.6345	594.2922	60669.4	59819.55
823.779	596.4222	60486.65	59635.7
823.9235	598.5515	60548.65	59694.85
824.068	600.6802	60670.25	59817.05
824.2126	602.8083	60370.95	59517.1
824.3571	604.9358	60345.3	59490.75
824.5017	607.0626	60603.3	59749.95
824.6462	609.1888	60194	59337.05
824.7908	611.3144	60404.25	59545.05
824.9354	613.4393	60309.6	59451.55
825.08	615.5636	60117.75	59258.65
825.2246	617.6873	60294.25	59439.75
825.3692	619.8103	60018.9	59160.5
825.5138	621.9327	60291.9	59433.6
825.6584	624.0544	60301.5	59446.35
825.803	626.1756	60166.1	59308.25
825.9477	628.2961	60142.55	59284.05
826.0923	630.4159	59998.85	59139.25
826.237	632.5351	59936.05	59077.2
826.3816	634.6537	60348.55	59485.75
826.5263	636.7716	59886.1	59023.95
826.6709	638.8889	59982.25	59118.5
826.8156	641.0056	59936.45	59074.75
826.9603	643.1216	60020.9	59155.3
827.105	645.237	60118.5	59256.25
827.2497	647.3518	59826.85	58968.1
827.3944	649.4659	59928.55	59069.95
827.5391	651.5793	59969.4	59111.75
827.6838	653.6922	60011.75	59153.9
827.8285	655.8043	59672.1	58809.9
827.9733	657.9159	60121.15	59259.95
828.118	660.0268	59368.1	58504.7
828.2627	662.137	59747.6	58883.85
828.4075	664.2466	59797.95	58929.55
828.5522	666.3556	59632.65	58766.65
828.697	668.4639	59750.6	58885
828.8418	670.5716	59506	58645.1
828.9865	672.6786	59678.15	58814.05
829.1313	674.785	59389.4	58522.6
829.2761	676.8907	59433.25	58568.1
829.4209	678.9958	59528.4	58664.1
829.5657	681.1002	59583.7	58716.9
829.7105	683.204	59337.35	58466.8
829.8553	685.3072	59225.55	58354.35
830.0001	687.4097	59255.05	58387.35
830.1449	689.5115	59166.85	58294.35
830.2898	691.6127	59394.35	58527.1
830.4346	693.7132	59140.3	58270.25
830.5794	695.8131	59180.65	58288.65
830.7243	697.9123	59239.2	58364.7
830.8691	700.0109	59305.05	58432.6
831.014	702.1089	58966.35	58091.85
831.1588	704.2061	59089.45	58216.6
831.3037	706.3028	59068	58194.45
831.4486	708.3987	59086.8	58210.35
831.5935	710.4941	58953.05	58082.55
831.7383	712.5887	59084.7	58212.2
831.8832	714.6827	58942.4	58065
832.0281	716.7761	59044.15	58173.6
832.173	718.8688	59069.7	58196.75
832.3179	720.9608	58839.6	57961.75
832.4628	723.0522	58914.2	58034.7
832.6077	725.1429	58707.85	57830.7
832.7527	727.233	59198.5	58319.1
832.8976	729.3224	58484.5	57610
833.0425	731.4112	58669.9	57793.1
833.1874	733.4993	58669.25	57791.3
833.3324	735.5867	58663.2	57785.55
833.4773	737.6735	58540.15	57664.55
833.6222	739.7596	58348.3	57469.9
833.7672	741.845	58293.15	57417.7
833.9122	743.9298	58532.85	57653.95
834.0571	746.014	58255.65	57380.6
834.2021	748.0974	58091.25	57212.6
834.347	750.1802	58410.25	57532.15
834.492	752.2624	57930	57051.4
834.637	754.3439	57951.1	57067.45
834.782	756.4247	57989.8	57101.3
834.9269	758.5048	57793.5	56913.2
835.0719	760.5843	57861.4	56981.3
835.2169	762.6631	57835.75	56955.05
835.3619	764.7413	57741.35	56862.95
835.5069	766.8188	57762	56877.5
835.6519	768.8956	57826.75	56943.35
835.7969	770.9718	57775.5	56898.15
835.9419	773.0473	57672.45	56791.55
836.0869	775.1221	57469.8	56588.45
836.232	777.1962	57449.65	56567.85
836.377	779.2697	57174.2	56290.85
836.522	781.3426	57278.05	56377.75
836.667	783.4147	57292.55	56407.95
836.8121	785.4862	57210.45	56328.05
836.9571	787.557	56988.6	56102.75
837.1021	789.6271	57205.45	56321.2
837.2472	791.6966	56953.6	56071.15
837.3922	793.7654	56719.85	55834.35
837.5373	795.8335	56765.5	55883.25
837.6823	797.901	56776.1	55892
837.8274	799.9678	56641.1	55754
837.9724	802.0339	56512.95	55629.65
838.1175	804.0993	56529	55634.15
838.2626	806.1641	56376.5	55489.25
838.4076	808.2282	56312.6	55430.1
838.5527	810.2916	56220.85	55334.35
838.6978	812.3544	56359.5	55473.5
838.8428	814.4164	55988	55107.9
838.9879	816.4778	56043.65	55156.45
839.133	818.5385	56010.95	55125.35
839.2781	820.5986	55985	55100.65
839.4232	822.658	56014.5	55125.75
839.5682	824.7166	56019.95	55134.3
839.7133	826.7747	55775.35	54887.7
839.8584	828.832	55895.3	55008.65
840.0035	830.8886	55974.3	55085.55
840.1486	832.9446	55978.65	55089.85
840.2937	834.9999	55403.05	54513.65
840.4388	837.0545	55596.4	54706.25
840.5839	839.1085	55724.15	54833.2
840.729	841.1618	55622.3	54730.05
840.8741	843.2143	55216.8	54326.75
841.0192	845.2662	55141.25	54252.4
841.1643	847.3175	55299.3	54410.9
841.3095	849.368	54822.9	53931.8
841.4546	851.4179	55173.4	54285.2
841.5997	853.467	54785.6	53896.05
841.7448	855.5155	54965.15	54072.55
841.8899	857.5633	54687.3	53795.6
842.0351	859.6105	54534.55	53643.35
842.1802	861.6569	54696.6	53806.4
842.3253	863.7027	54326.4	53435.2
842.4704	865.7478	54401.25	53507.05
842.6156	867.7922	54302.9	53409.8
842.7607	869.8359	54483.35	53591.65
842.9058	871.8789	54076.35	53183.85
843.0509	873.9212	54260.25	53338
843.1961	875.9629	54194.45	53302.1
843.3412	878.0039	54160.35	53267.75
843.4863	880.0441	54014.25	53122.8
843.6315	882.0837	54068.8	53176.3
843.7766	884.1226	53992.4	53098.2
843.9218	886.1609	53997.2	53107.55
844.0669	888.1984	53901.75	53011.2
844.212	890.2352	54202.75	53310.75
844.3572	892.2714	53797.35	52902.55
844.5023	894.3069	53952.15	53060.2
844.6475	896.3416	53749.35	52855.65
844.7926	898.3757	53688.25	52795.85
844.9377	900.4091	53288.95	52393.45
845.0829	902.4418	53735.45	52835
845.228	904.4739	53318.95	52421.6
845.3732	906.5052	53417.2	52520.5
845.5183	908.5358	53255.15	52361.3
845.6635	910.5658	53139.95	52245.65
845.8086	912.595	53121.4	52225.75
845.9538	914.6236	52700.35	51806.7
846.0989	916.6515	53197.15	52305.85
846.2441	918.6786	52568.5	51672.45
846.3892	920.7051	52709.3	51811.95
846.5344	922.7309	52631	51735.5
846.6795	924.756	52653.9	51756.3
846.8246	926.7804	52474.95	51577.85
846.9698	928.8041	51966.15	51068.65
847.1149	930.8272	52281	51383.15
847.2601	932.8495	52183	51285.5
847.4052	934.8711	51904.8	51004.65
847.5504	936.892	51702.85	50806.7
847.6955	938.9123	51787.45	50891.25
847.8407	940.9318	51568.3	50671.95
847.9858	942.9506	51473.6	50577.55
848.131	944.9688	51482.15	50587
848.2761	946.9862	50933.2	50034.85
848.4213	949.003	51068.3	50171.45
848.5664	951.019	50620.4	49721.75
848.7115	953.0344	50659.1	49763.75
848.8567	955.0491	50535.5	49639.75
849.0018	957.063	50649.3	49751.45
849.147	959.0763	50693.9	49796.6
849.2921	961.0888	50312.35	49414
849.4373	963.1007	50539.45	49644.4
849.5824	965.1119	50525.45	49632.65
849.7275	967.1223	50275.55	49384.85
849.8727	969.1321	50458.9	49567.85
850.0178	971.1412	50110.7	49214.5
850.1629	973.1495	49853.75	48955.9
850.3081	975.1572	50045	49109.95
850.4532	977.1641	49845.2	48946.7
850.5983	979.1704	49725.7	48828.9
850.7435	981.1759	49706.65	48805.15
850.8886	983.1808	49481.55	48582.65
851.0337	985.1849	49425.85	48516.15
851.1788	987.1884	49397.7	48493.85
851.324	989.1911	49518.35	48617.85
851.4691	991.1932	48995.25	48097.4
851.6142	993.1945	49016.25	48120.25
851.7593	995.1951	48930.85	48033.15
851.9045	997.1951	48749.3	47846.6
852.0496	999.1943	48563.9	47666.4
852.1947	1001.1928	48418.6	47521.6
852.3398	1003.1906	48355.15	47456.1
852.4849	1005.1877	48042.85	47140.9
852.63	1007.1841	47915.65	47017.45
852.7751	1009.1798	47868.9	46968.8
852.9202	1011.1748	47723.45	46824.95
853.0653	1013.1691	47632.25	46730.9
853.2104	1015.1627	47097.05	46198.35
853.3555	1017.1556	46994.75	46097.35
853.5006	1019.1477	47091.3	46192.7
853.6457	1021.1392	46691.2	45793.9
853.7908	1023.1299	46401.7	45508.9
853.9359	1025.12	46422.4	45527.3
854.081	1027.1093	46186.5	45297.55
854.2261	1029.0979	46093.7	45206.35
854.3712	1031.0859	45987.5	45099.55
854.5163	1033.0731	45698	44804.5
854.6613	1035.0596	45667.15	44774.8
854.8064	1037.0454	45510.8	44613.25
854.9515	1039.0304	45311	44412.45
855.0965	1041.0148	45081.45	44183.05
855.2416	1042.9985	45050.6	44151.15
855.3867	1044.9814	45041.95	44143.3
855.5317	1046.9636	44682.65	43782.85
855.6768	1048.9452	44641.3	43743.35
855.8219	1050.926	44536.2	43637.3
855.9669	1052.9061	44462.4	43565.7
856.112	1054.8855	44413.55	43515.6
856.257	1056.8642	44223.4	43326.1
856.4021	1058.8421	44086.55	43185.45
856.5471	1060.8194	44033	43133.25
856.6921	1062.7959	43895.95	42996.8
856.8372	1064.7717	43976.35	43075.2
856.9822	1066.7469	43840.35	42941.55
857.1272	1068.7213	43814.1	42912.55
857.2723	1070.695	43711.25	42812.9
857.4173	1072.6679	43450	42550.15
857.5623	1074.6402	43532	42630.9
857.7073	1076.6117	43368.15	42463
857.8523	1078.5826	43344.95	42442.85
857.9973	1080.5527	43202.4	42299
858.1423	1082.5221	42997.45	42096.4
858.2873	1084.4908	43028.7	42128.1
858.4323	1086.4587	42882.25	41983.75
858.5773	1088.426	42818.1	41916.65
858.7223	1090.3925	42643.5	41740.55
858.8673	1092.3584	42625.55	41723.2
859.0123	1094.3235	42409.8	41509.5
859.1573	1096.2879	42364.2	41463.5
859.3022	1098.2515	42326.5	41428
859.4472	1100.2145	42321.95	41424.1
859.5922	1102.1767	42199.75	41299.75
859.7371	1104.1382	42153.8	41256.25
859.8821	1106.099	42066.85	41165.55
860.027	1108.0591	41980.65	41080.75
860.172	1110.0185	41792.6	40890.2
860.3169	1111.9771	41930.15	41030.15
860.4619	1113.9351	41639.25	40740
860.6068	1115.8923	41479.45	40576.2
860.7517	1117.8488	41314.5	40412.75
860.8967	1119.8045	41049.8	40148.9
861.0416	1121.7596	41049.8	40151
861.1865	1123.7139	40883.2	39984.55
861.3314	1125.6675	40827.25	39926
861.4763	1127.6204	40827.6	39928.25
861.6212	1129.5726	40611.25	39711.3
861.7661	1131.524	40601.25	39703.6
861.911	1133.4748	40508.65	39606
862.0559	1135.4248	40389.05	39487.7
862.2008	1137.3741	40313.25	39413.5
862.3457	1139.3226	40180.4	39280.1
862.4905	1141.2705	40151.2	39254.1
862.6354	1143.2176	39962.05	39059.75
862.7803	1145.164	39870.6	38971
862.9251	1147.1097	39821.25	38921.45
863.07	1149.0546	39734.05	38831.15
863.2148	1150.9989	39695.9	38794.15
863.3597	1152.9424	39555.1	38654.8
863.5045	1154.8852	39525.5	38624.85
863.6493	1156.8272	39423.5	38523.85
863.7942	1158.7686	39486.45	38579.35
863.939	1160.7092	39294.05	38393.25
864.0838	1162.6491	39188.95	38285.75
864.2286	1164.5883	39184.25	38283.6
864.3734	1166.5267	39055.4	38156.45
864.5182	1168.4644	39081.8	38180
864.663	1170.4014	39031.15	38127.65
864.8078	1172.3377	39111.35	38213.85
864.9526	1174.2732	39136.9	38239.4
865.0974	1176.2081	39146.45	38246.2
865.2421	1178.1421	39157.3	38253.4
865.3869	1180.0755	39242.6	38344.4
