Software Version:	3.9.2.0
Unit SN:	10000200
Spectrometer SN:	6960
Date:	3/6/2024 9:49:11 AM
Data Line Index:	25
Spectral Points:	2048
Integration time (ms):	125
Averages:	20
Delay (ms):	30
Sequence Number:	1
Processing:	dark subtract
Laser Power (mW):	305
Laser Current (mA):	823
Laser Diode Temp (C):	25.1
Laser Case Temp (C):	24.3
System Temp (C):	24.1
Spectrometer Temp (C):	21.7
CCD Temp (C):	-0.01
Secondary Temp (C):	20.006
Heatsink Temp (C):	18.032
CCDPCB Temp (C):	31.627
SecondaryPCB Temp (C):	25.88

Wavelength	RamanShift	Raw Counts	Dark Subtracted
787.061	30.1047	449.75	43.55
787.2016	32.3739	450.15	43.75
787.3422	34.6426	452.8	46.3
787.4828	36.9109	458.2	50.55
787.6235	39.1787	460.25	48.3
787.7642	41.4461	473.75	57.5
787.9049	43.7131	475.7	55.65
788.0456	45.9796	483.45	61
788.1863	48.2456	489.2	62.75
788.3271	50.5112	499.8	69.1
788.4679	52.7764	507.2	74.95
788.6087	55.0411	514.95	78.4
788.7496	57.3054	525.05	80.8
788.8904	59.5692	528.3	82.65
789.0313	61.8326	537.35	90.65
789.1722	64.0955	545	96.05
789.3132	66.3579	559.15	104.1
789.4541	68.6199	572.1	113.65
789.5951	70.8815	598.85	134.7
789.7361	73.1426	648.15	180.75
789.8771	75.4032	762.45	290
790.0181	77.6634	1044.1	571.4
790.1592	79.9231	1727.85	1250.85
790.3003	82.1824	3163.75	2680.1
790.4414	84.4412	5679.75	5184.6
790.5825	86.6995	9058.85	8550.8
790.7237	88.9574	12436.05	11914.65
790.8648	91.2148	14908.55	14383.2
791.006	93.4717	16284.95	15752.7
791.1472	95.7282	16882.75	16346.3
791.2885	97.9842	17207.9	16671.05
791.4297	100.2398	17334.25	16794.45
791.571	102.4949	17375.65	16835.1
791.7123	104.7495	17395.3	16847
791.8536	107.0036	17361.6	16811.45
791.9949	109.2573	17389.25	16845.15
792.1363	111.5105	17417.15	16870.15
792.2777	113.7632	17355.1	16804.65
792.4191	116.0154	17370.15	16807.7
792.5605	118.2672	17428.5	16873.3
792.7019	120.5185	17432.15	16873.35
792.8434	122.7693	17470.95	16908
792.9849	125.0197	17497.2	16931
793.1264	127.2696	17498.75	16927.75
793.2679	129.519	17588.05	17015.5
793.4094	131.7679	17610.45	17035.55
793.551	134.0163	17630	17054.35
793.6926	136.2642	17652.3	17072.8
793.8342	138.5117	17689.95	17108.8
793.9758	140.7587	17678.6	17096.15
794.1175	143.0052	17651.8	17063.15
794.2591	145.2512	17645.8	17058.9
794.4008	147.4967	17634.45	17044.8
794.5425	149.7417	17645.7	17050.6
794.6842	151.9863	17659.9	17066.6
794.826	154.2304	17691.75	17093.6
794.9677	156.4739	17634.5	17027.4
795.1095	158.717	17656.2	17050
795.2513	160.9596	17713.85	17102.7
795.3931	163.2017	17683.05	17072.3
795.535	165.4433	17711.7	17095.5
795.6768	167.6844	17682.15	17065.8
795.8187	169.925	17708.25	17088.35
795.9606	172.1651	17663.3	17040.25
796.1025	174.4047	17666.35	17041.25
796.2445	176.6439	17642.2	17014.5
796.3864	178.8825	17670.95	17040.25
796.5284	181.1206	17689.4	17055.65
796.6704	183.3582	17724.9	17083.65
796.8124	185.5954	17690.8	17050.7
796.9544	187.832	17696.9	17051.8
797.0965	190.0681	17787.8	17140.15
797.2386	192.3037	17828.65	17177.8
797.3806	194.5388	17847.1	17193.85
797.5228	196.7734	17870.1	17214.7
797.6649	199.0075	17932.15	17274.5
797.807	201.2411	18016.05	17360.6
797.9492	203.4742	18031.55	17373.3
798.0914	205.7068	18109.55	17447.05
798.2336	207.9389	18123.35	17457.65
798.3758	210.1704	18165.9	17506.3
798.518	212.4015	18138.85	17488.5
798.6603	214.632	18206.7	17566.4
798.8025	216.862	18200.35	17560.5
798.9448	219.0915	18168.25	17524.65
799.0871	221.3205	18240.95	17595.8
799.2294	223.549	18288.25	17646.5
799.3718	225.777	18301.2	17660.25
799.5141	228.0044	18337.3	17687.95
799.6565	230.2314	18401.95	17752.8
799.7989	232.4578	18400.2	17743.6
799.9413	234.6837	18411.95	17751.1
800.0837	236.909	18406.45	17741
800.2262	239.1339	18444.45	17754.8
800.3687	241.3582	18457.25	17780
800.5111	243.582	18439.3	17730.95
800.6536	245.8053	18480.25	17787.3
800.7961	248.0281	18481.55	17794.8
800.9387	250.2503	18505.6	17813
801.0812	252.472	18503.9	17808.45
801.2238	254.6932	18549.6	17858.5
801.3664	256.9139	18506.85	17811.1
801.509	259.134	18569.1	17869.1
801.6516	261.3536	18545.6	17850.55
801.7942	263.5727	18594.05	17895.75
801.9369	265.7912	18593.1	17895.7
802.0795	268.0092	18646.05	17947.05
802.2222	270.2267	18675.9	17975.4
802.3649	272.4436	18698.45	17995.55
802.5076	274.6601	18702	17986.55
802.6504	276.8759	18687.85	17979.35
802.7931	279.0913	18754.55	18045.5
802.9359	281.3061	18751.65	18042
803.0787	283.5204	18762.75	18052.15
803.2215	285.7341	18777.45	18061.6
803.3643	287.9473	18838.45	18110.25
803.5071	290.16	18831.7	18112.65
803.6499	292.3721	18779.15	18065.45
803.7928	294.5837	18790.8	18075.85
803.9357	296.7947	18773.95	18057.8
804.0786	299.0052	18757.25	18042.2
804.2215	301.2152	18713.15	17993.05
804.3644	303.4246	18714.15	17998.7
804.5074	305.6334	18680.35	17966.25
804.6503	307.8418	18705.4	17984
804.7933	310.0495	18708.6	17985.6
804.9363	312.2568	18684.25	17960.3
805.0793	314.4635	18585.2	17860.1
805.2223	316.6696	18560.4	17830.75
805.3653	318.8752	18470.8	17734.15
805.5084	321.0802	18487.3	17757
805.6514	323.2847	18507.85	17776.05
805.7945	325.4887	18458.9	17727.25
805.9376	327.692	18446.3	17713.65
806.0807	329.8949	18506.35	17772.5
806.2238	332.0972	18511.6	17777.6
806.367	334.2989	18538.55	17799.2
806.5101	336.5001	18506.4	17767.25
806.6533	338.7007	18491.85	17752.9
806.7965	340.9008	18530.4	17787.65
806.9397	343.1003	18473.25	17726.8
807.0829	345.2992	18466.4	17719.35
807.2261	347.4976	18430.6	17684
807.3693	349.6955	18411.1	17660
807.5126	351.8927	18428.3	17679.7
807.6559	354.0895	18404.4	17643
807.7991	356.2856	18417.9	17665.45
807.9424	358.4812	18375.15	17622.15
808.0857	360.6763	18419.65	17665
808.2291	362.8707	18342.4	17583.6
808.3724	365.0646	18361.4	17600.5
808.5158	367.258	18343	17581.15
808.6591	369.4508	18356.85	17590.8
808.8025	371.643	18342.8	17575.35
808.9459	373.8346	18285.1	17519.75
809.0893	376.0257	18311.2	17542.7
809.2327	378.2162	18299.95	17531.45
809.3762	380.4062	18320.3	17552.25
809.5196	382.5956	18276.05	17509.85
809.6631	384.7844	18220.9	17458.5
809.8066	386.9726	18165.6	17405.5
809.9501	389.1603	18140.9	17380.8
810.0936	391.3474	18131.2	17338.95
810.2371	393.5339	18139.1	17376.15
810.3806	395.7199	18048.55	17287
810.5241	397.9052	18086.5	17322.8
810.6677	400.09	18091.6	17325
810.8113	402.2743	18034.7	17267.75
810.9548	404.4579	18054.6	17288.9
811.0984	406.641	18117.9	17350.45
811.2421	408.8235	18114.85	17345.4
811.3857	411.0054	18162	17387.3
811.5293	413.1868	18261.45	17484.3
811.673	415.3675	18294.45	17514.5
811.8166	417.5477	18305.3	17523
811.9603	419.7273	18181.65	17398.15
812.104	421.9064	18049.05	17260.95
812.2477	424.0848	17988.8	17206.25
812.3914	426.2627	17956.7	17173.85
812.5351	428.4399	17928.3	17141.45
812.6788	430.6166	17851.05	17064.05
812.8226	432.7928	17801.4	17010.75
812.9663	434.9683	17723.4	16933.35
813.1101	437.1432	17732.95	16940.4
813.2539	439.3176	17616.4	16825.55
813.3977	441.4914	17574.2	16787.25
813.5415	443.6645	17569.35	16778.05
813.6853	445.8371	17484.35	16691.4
813.8291	448.0091	17410.35	16619.75
813.973	450.1806	17359.35	16569.7
814.1168	452.3514	17315.5	16522.45
814.2607	454.5216	17340.6	16537.9
814.4046	456.6913	17223.05	16425.9
814.5485	458.8603	17225.7	16431.7
814.6924	461.0288	17285.2	16491.2
814.8363	463.1967	17223.4	16429.2
814.9802	465.3639	17249.15	16453.45
815.1241	467.5306	17181.9	16386.25
815.2681	469.6967	17153.05	16356.9
815.412	471.8622	17115.55	16319.75
815.556	474.0271	17099.45	16303.35
815.7	476.1914	17067.45	16266.65
815.844	478.3551	17073.85	16273.35
815.988	480.5182	17088.95	16290.75
816.132	482.6807	17054.2	16255.15
816.276	484.8426	17124.9	16329.6
816.4201	487.0039	17150.4	16351.45
816.5641	489.1647	17165.7	16363.2
816.7082	491.3248	17168.6	16365.3
816.8522	493.4843	17188.7	16389.55
816.9963	495.6432	17157.3	16354.1
817.1404	497.8015	17112.45	16304.05
817.2845	499.9592	17096.15	16290.3
817.4286	502.1163	17100.75	16293.5
817.5727	504.2728	16991.8	16183
817.7168	506.4287	17036.7	16231.9
817.861	508.5839	16951.2	16146.2
818.0051	510.7386	16941.7	16134.4
818.1493	512.8927	16988.6	16177.2
818.2935	515.0461	16959.65	16148.85
818.4377	517.199	16965.75	16153.15
818.5818	519.3512	16942.55	16133.1
818.726	521.5029	16942.6	16125.9
818.8703	523.6539	16962.05	16150.05
819.0145	525.8043	16958.4	16143.6
819.1587	527.9541	16940.6	16121.8
819.303	530.1033	16878.2	16064.35
819.4472	532.2519	16830.65	16016.6
819.5915	534.3999	16822.55	16005.55
819.7357	536.5472	16784.2	15967.55
819.88	538.694	16792.6	15977.1
820.0243	540.8401	16792.65	15976.35
820.1686	542.9856	16841.55	16020.75
820.3129	545.1305	16776.7	15954.7
820.4572	547.2748	16828.05	16005.95
820.6016	549.4185	16784	15960.9
820.7459	551.5615	16766.6	15945.05
820.8902	553.704	16741.35	15919.3
821.0346	555.8458	16738.3	15917
821.1789	557.987	16736.3	15916.7
821.3233	560.1276	16717.25	15894.55
821.4677	562.2675	16752.95	15929.3
821.6121	564.4069	16753.9	15932.25
821.7565	566.5456	16715.85	15894.35
821.9009	568.6837	16728.05	15904.6
822.0453	570.8212	16662.4	15840
822.1897	572.958	16581.65	15758.85
822.3342	575.0942	16540.9	15719.55
822.4786	577.2299	16467.7	15645.5
822.6231	579.3648	16449.65	15626.05
822.7675	581.4992	16326.7	15504.65
822.912	583.6329	16289.35	15468
823.0565	585.766	16283.45	15460
823.201	587.8985	16277.7	15454.75
823.3454	590.0304	16252.95	15415.6
823.4899	592.1616	16238.75	15410.5
823.6345	594.2922	16184.1	15354.15
823.779	596.4222	16165.25	15333.6
823.9235	598.5515	16088.7	15257.8
824.068	600.6802	16065.1	15234.75
824.2126	602.8083	16010.5	15180.75
824.3571	604.9358	15957	15125.1
824.5017	607.0626	15902.15	15071.2
824.6462	609.1888	15869.5	15036.05
824.7908	611.3144	15880.35	15043.8
824.9354	613.4393	15855.85	15019.55
825.08	615.5636	15858.1	15024.2
825.2246	617.6873	15879.45	15045.45
825.3692	619.8103	15899.05	15063.7
825.5138	621.9327	15818.2	14978.9
825.6584	624.0544	15821.2	14987.3
825.803	626.1756	15805.25	14971.75
825.9477	628.2961	15743.5	14907.2
826.0923	630.4159	15708.35	14871.2
826.237	632.5351	15721.25	14883.6
826.3816	634.6537	15700.15	14861.55
826.5263	636.7716	15704.75	14864.8
826.6709	638.8889	15700.9	14862.3
826.8156	641.0056	15714.9	14876.1
826.9603	643.1216	15648.8	14809.15
827.105	645.237	15676.65	14835.25
827.2497	647.3518	15659.45	14816.85
827.3944	649.4659	15612.85	14774.4
827.5391	651.5793	15555.85	14718.05
827.6838	653.6922	15525.2	14687
827.8285	655.8043	15509.8	14671.5
827.9733	657.9159	15529.8	14688.35
828.118	660.0268	15459.65	14615.05
828.2627	662.137	15437.25	14590.6
828.4075	664.2466	15460.5	14615.25
828.5522	666.3556	15425	14580.85
828.697	668.4639	15400.2	14553.75
828.8418	670.5716	15399.65	14557.3
828.9865	672.6786	15377.4	14532.65
829.1313	674.785	15330.25	14481.8
829.2761	676.8907	15274.75	14428.65
829.4209	678.9958	15293.7	14448.9
829.5657	681.1002	15202.1	14353.85
829.7105	683.204	15206	14353.8
829.8553	685.3072	15184.1	14336.2
830.0001	687.4097	15152.8	14304.4
830.1449	689.5115	15182.1	14333.4
830.2898	691.6127	15134.3	14290.05
830.4346	693.7132	15116.1	14268.9
830.5794	695.8131	15139.55	14282.8
830.7243	697.9123	15142.85	14294.25
830.8691	700.0109	15086.8	14237.15
831.014	702.1089	15087.25	14236.65
831.1588	704.2061	15087.2	14239.05
831.3037	706.3028	15065.35	14214.45
831.4486	708.3987	15044.75	14192.25
831.5935	710.4941	15032.2	14180.4
831.7383	712.5887	15027.3	14175.4
831.8832	714.6827	15023.05	14167.15
832.0281	716.7761	15016.7	14165.95
832.173	718.8688	14979.45	14127.1
832.3179	720.9608	14975.9	14118.75
832.4628	723.0522	14977.4	14118.9
832.6077	725.1429	14967.2	14113.2
832.7527	727.233	14945.25	14091.8
832.8976	729.3224	14985.1	14131.05
833.0425	731.4112	14951.95	14097.35
833.1874	733.4993	14925.1	14066.65
833.3324	735.5867	14868.3	14013.1
833.4773	737.6735	14845.7	13989.35
833.6222	739.7596	14782.5	13924.9
833.7672	741.845	14763.95	13908.95
833.9122	743.9298	14768.35	13912.45
834.0571	746.014	14724.95	13870.1
834.2021	748.0974	14705.2	13846.8
834.347	750.1802	14661.05	13799.65
834.492	752.2624	14615.15	13756.45
834.637	754.3439	14559.45	13698.95
834.782	756.4247	14519.7	13650.1
834.9269	758.5048	14495.7	13636.55
835.0719	760.5843	14464.1	13603.45
835.2169	762.6631	14426.6	13566.25
835.3619	764.7413	14414.6	13556.3
835.5069	766.8188	14466.65	13603.75
835.6519	768.8956	14421.3	13558.6
835.7969	770.9718	14444.3	13584.9
835.9419	773.0473	14396.7	13536
836.0869	775.1221	14374.65	13513.05
836.232	777.1962	14334.3	13472.75
836.377	779.2697	14328.5	13465.8
836.522	781.3426	14356.35	13473.1
836.667	783.4147	14312.3	13450.35
836.8121	785.4862	14293.9	13431.35
836.9571	787.557	14236.45	13374.3
837.1021	789.6271	14173.85	13310.35
837.2472	791.6966	14095.5	13233.1
837.3922	793.7654	14013.9	13150.75
837.5373	795.8335	14015.75	13153.6
837.6823	797.901	13916.85	13056
837.8274	799.9678	13912.65	13048
837.9724	802.0339	13878.65	13016.15
838.1175	804.0993	13870.8	12996.45
838.2626	806.1641	13858.65	12994.6
838.4076	808.2282	13842.5	12977.85
838.5527	810.2916	13786.45	12919.95
838.6978	812.3544	13771.15	12907.45
838.8428	814.4164	13710.4	12845.85
838.9879	816.4778	13755.3	12891
839.133	818.5385	13711.5	12848.6
839.2781	820.5986	13725.15	12859.4
839.4232	822.658	13734.05	12868.6
839.5682	824.7166	13724.45	12859.45
839.7133	826.7747	13772.65	12908.75
839.8584	828.832	13778.9	12912.2
840.0035	830.8886	13761.55	12891.5
840.1486	832.9446	13739.35	12870.15
840.2937	834.9999	13731.85	12866.2
840.4388	837.0545	13675.05	12804.9
840.5839	839.1085	13620	12751.45
840.729	841.1618	13565	12692.45
840.8741	843.2143	13532.3	12665.65
841.0192	845.2662	13468.55	12600.85
841.1643	847.3175	13446.8	12578.65
841.3095	849.368	13401.05	12530.85
841.4546	851.4179	13390.4	12519.8
841.5997	853.467	13339.4	12470.85
841.7448	855.5155	13341.55	12472.8
841.8899	857.5633	13325.85	12456.7
842.0351	859.6105	13253.8	12384.65
842.1802	861.6569	13271.1	12400
842.3253	863.7027	13228.25	12358.5
842.4704	865.7478	13228.1	12356.5
842.6156	867.7922	13219.05	12350.6
842.7607	869.8359	13193	12321.1
842.9058	871.8789	13121.95	12252.25
843.0509	873.9212	13185.7	12283.6
843.1961	875.9629	13101.1	12231.05
843.3412	878.0039	13113	12239.75
843.4863	880.0441	13113.35	12244
843.6315	882.0837	13120.4	12248.6
843.7766	884.1226	13089.25	12215.85
843.9218	886.1609	13091.95	12222.15
844.0669	888.1984	13107.9	12237.3
844.212	890.2352	13129.8	12258
844.3572	892.2714	13106.65	12233.2
844.5023	894.3069	13106.95	12234.45
844.6475	896.3416	13033.45	12158.75
844.7926	898.3757	13010.65	12138.3
844.9377	900.4091	12985.9	12113.6
845.0829	902.4418	12973.6	12095.75
845.228	904.4739	12941.1	12065.65
845.3732	906.5052	12905.5	12033
845.5183	908.5358	12911.15	12038.2
845.6635	910.5658	12897.5	12022.1
845.8086	912.595	12819.5	11946.55
845.9538	914.6236	12806.25	11934.4
846.0989	916.6515	12750.25	11876.7
846.2441	918.6786	12730.35	11853.65
846.3892	920.7051	12703.9	11827.25
846.5344	922.7309	12735.75	11863.15
846.6795	924.756	12627.9	11753.3
846.8246	926.7804	12655.2	11777.5
846.9698	928.8041	12565.2	11689.5
847.1149	930.8272	12607.45	11731.9
847.2601	932.8495	12517.6	11639.95
847.4052	934.8711	12568.25	11692.95
847.5504	936.892	12493	11616.7
847.6955	938.9123	12459.95	11583.25
847.8407	940.9318	12450.15	11573.95
847.9858	942.9506	12405.2	11530.25
848.131	944.9688	12372.8	11497.15
848.2761	946.9862	12372.75	11498.6
848.4213	949.003	12284.35	11407.75
848.5664	951.019	12252	11373.95
848.7115	953.0344	12210.75	11331.45
848.8567	955.0491	12208.65	11331.2
849.0018	957.063	12167.65	11292.15
849.147	959.0763	12175.7	11300.15
849.2921	961.0888	12131.75	11253.75
849.4373	963.1007	12147.85	11271.55
849.5824	965.1119	12115.65	11239.75
849.7275	967.1223	12104.6	11228.3
849.8727	969.1321	12078.25	11201.15
850.0178	971.1412	12057.95	11184.8
850.1629	973.1495	12005.8	11128.25
850.3081	975.1572	12031.3	11108.9
850.4532	977.1641	11999.35	11121.9
850.5983	979.1704	11945.9	11068.05
850.7435	981.1759	11923.05	11041.25
850.8886	983.1808	11905.65	11027.85
851.0337	985.1849	11897.25	11010.2
851.1788	987.1884	11866.25	10985.85
851.324	989.1911	11831.15	10949.15
851.4691	991.1932	11818.65	10938.95
851.6142	993.1945	11762.45	10885.8
851.7593	995.1951	11718.65	10839.05
851.9045	997.1951	11709.75	10824.8
852.0496	999.1943	11673.35	10793.85
852.1947	1001.1928	11600.75	10721.7
852.3398	1003.1906	11574.75	10694.7
852.4849	1005.1877	11587.25	10707.95
852.63	1007.1841	11547.55	10668.35
852.7751	1009.1798	11507.75	10629.2
852.9202	1011.1748	11448.05	10566.75
853.0653	1013.1691	11436.65	10556.5
853.2104	1015.1627	11387.7	10508.85
853.3555	1017.1556	11309.45	10430.1
853.5006	1019.1477	11275.15	10397.75
853.6457	1021.1392	11206.35	10329.05
853.7908	1023.1299	11166.55	10288.5
853.9359	1025.12	11121.65	10242.95
854.081	1027.1093	11093.25	10220.25
854.2261	1029.0979	11053.6	10179.95
854.3712	1031.0859	11034.8	10157.9
854.5163	1033.0731	11004.05	10124.3
854.6613	1035.0596	10990.95	10111.9
854.8064	1037.0454	10906.5	10026.25
854.9515	1039.0304	10903.65	10024.25
855.0965	1041.0148	10856.25	9975
855.2416	1042.9985	10837.5	9953.9
855.3867	1044.9814	10809.4	9931.6
855.5317	1046.9636	10751.4	9869.35
855.6768	1048.9452	10725.65	9847.25
855.8219	1050.926	10700.4	9821.4
855.9669	1052.9061	10681	9800.35
856.112	1054.8855	10667.8	9788.25
856.257	1056.8642	10641.4	9760.65
856.4021	1058.8421	10655	9771.5
856.5471	1060.8194	10617.7	9736.6
856.6921	1062.7959	10578.25	9698.25
856.8372	1064.7717	10589.3	9706.95
856.9822	1066.7469	10523.65	9638.75
857.1272	1068.7213	10532.5	9647.55
857.2723	1070.695	10520.5	9640.9
857.4173	1072.6679	10471.6	9588.85
857.5623	1074.6402	10467.6	9586.5
857.7073	1076.6117	10481.5	9594.85
857.8523	1078.5826	10464.45	9582.25
857.9973	1080.5527	10400.85	9514.65
858.1423	1082.5221	10359.75	9480.35
858.2873	1084.4908	10330.15	9447.85
858.4323	1086.4587	10301.7	9416.9
858.5773	1088.426	10275	9392.9
858.7223	1090.3925	10244.65	9360.3
858.8673	1092.3584	10256.85	9375.8
859.0123	1094.3235	10153.9	9271.95
859.1573	1096.2879	10170.9	9290.7
859.3022	1098.2515	10143.4	9258.85
859.4472	1100.2145	10150.2	9269.1
859.5922	1102.1767	10154.4	9269.8
859.7371	1104.1382	10157.8	9274.3
859.8821	1106.099	10162.45	9277.9
860.027	1108.0591	10127.25	9245.7
860.172	1110.0185	10135.05	9250.7
860.3169	1111.9771	10128.7	9245.8
860.4619	1113.9351	10114.9	9231.75
860.6068	1115.8923	10126.5	9242.95
860.7517	1117.8488	10144.5	9259.75
860.8967	1119.8045	10072.45	9189.95
861.0416	1121.7596	10022.6	9140.25
861.1865	1123.7139	9946.6	9063.95
861.3314	1125.6675	9873.2	8989.2
861.4763	1127.6204	9871.95	8991.2
861.6212	1129.5726	9845.35	8958.6
861.7661	1131.524	9852.2	8970.9
861.911	1133.4748	9827.55	8943.4
862.0559	1135.4248	9769.3	8885.35
862.2008	1137.3741	9714.95	8830.95
862.3457	1139.3226	9665.3	8778.45
862.4905	1141.2705	9674.7	8791.7
862.6354	1143.2176	9636.6	8746.7
862.7803	1145.164	9621.4	8735.2
862.9251	1147.1097	9622.85	8738.6
863.07	1149.0546	9584.05	8699.6
863.2148	1150.9989	9585.45	8701.55
863.3597	1152.9424	9539.6	8656
863.5045	1154.8852	9522.85	8638.85
863.6493	1156.8272	9518.85	8634.05
863.7942	1158.7686	9517.7	8625.35
863.939	1160.7092	9445.05	8562.5
864.0838	1162.6491	9451	8565.6
864.2286	1164.5883	9460.3	8578.3
864.3734	1166.5267	9411.9	8528.3
864.5182	1168.4644	9436.5	8551.55
864.663	1170.4014	9429.25	8539.65
864.8078	1172.3377	9430.8	8547.55
864.9526	1174.2732	9428.85	8547.65
865.0974	1176.2081	9498	8613.25
865.2421	1178.1421	9517.4	8628.25
865.3869	1180.0755	9572.3	8688.3
865.5317	1182.0082	9529.4	8644.85
865.6764	1183.9401	9528.7	8645.3
865.8212	1185.8713	9485.3	8601.9
865.9659	1187.8017	9398.75	8517.7
866.1106	1189.7315	9357.55	8475.5
