Software Version:	3.9.2.0
Unit SN:	10000200
Spectrometer SN:	6960
Date:	3/6/2024 9:31:24 AM
Data Line Index:	25
Spectral Points:	2048
Integration time (ms):	125
Averages:	20
Delay (ms):	30
Sequence Number:	1
Processing:	dark subtract
Laser Power (mW):	305
Laser Current (mA):	823
Laser Diode Temp (C):	25.1
Laser Case Temp (C):	23.6
System Temp (C):	23.3
Spectrometer Temp (C):	21
CCD Temp (C):	-0.02
Secondary Temp (C):	20.006
Heatsink Temp (C):	17.742
CCDPCB Temp (C):	30.049
SecondaryPCB Temp (C):	25.18

Wavelength	RamanShift	Raw Counts	Dark Subtracted
787.061	30.1047	520.8	112.7
787.2016	32.3739	521.65	115.45
787.3422	34.6426	530.15	123.25
787.4828	36.9109	540	131.1
787.6235	39.1787	551.1	137.1
787.7642	41.4461	565	149.9
787.9049	43.7131	578.9	159.65
788.0456	45.9796	585.15	165.15
788.1863	48.2456	600.8	176.55
788.3271	50.5112	616.95	186.95
788.4679	52.7764	629.45	195.2
788.6087	55.0411	642.9	204.4
788.7496	57.3054	662.8	221.3
788.8904	59.5692	677.35	233.7
789.0313	61.8326	695.1	248.55
789.1722	64.0955	717.45	268.9
789.3132	66.3579	737.85	284.6
789.4541	68.6199	765.7	309.55
789.5951	70.8815	820.55	358.65
789.7361	73.1426	936.25	469.95
789.8771	75.4032	1226.3	756.3
790.0181	77.6634	1928.5	1454.45
790.1592	79.9231	3642.8	3165.5
790.3003	82.1824	7367.85	6887.85
790.4414	84.4412	13980	13488.85
790.5825	86.6995	22911.65	22415.6
790.7237	88.9574	31502.7	30995.2
790.8648	91.2148	37598.65	37086.85
791.006	93.4717	40763.7	40244.8
791.1472	95.7282	42151.4	41630.45
791.2885	97.9842	42847.5	42325.25
791.4297	100.2398	43237.55	42713.5
791.571	102.4949	43116.55	42588
791.7123	104.7495	43408.65	42878.6
791.8536	107.0036	43198.05	42662.85
791.9949	109.2573	43624.5	43094.4
792.1363	111.5105	43217.1	42682.15
792.2777	113.7632	43617.65	43081.6
792.4191	116.0154	43720.1	43173.15
792.5605	118.2672	44042.9	43503.1
792.7019	120.5185	43967.05	43426.9
792.8434	122.7693	44073.6	43525.7
792.9849	125.0197	44049.75	43498.15
793.1264	127.2696	44392.8	43837.7
793.2679	129.519	44621.25	44061.1
793.4094	131.7679	44990.05	44432.1
793.551	134.0163	44133.2	43571.15
793.6926	136.2642	44612.55	44048.1
793.8342	138.5117	45065.35	44490.75
793.9758	140.7587	44968.65	44401.5
794.1175	143.0052	45111.3	44541.2
794.2591	145.2512	44751.35	44176.9
794.4008	147.4967	45183.75	44608.7
794.5425	149.7417	45017.9	44438.75
794.6842	151.9863	45119.95	44536.45
794.826	154.2304	44677.1	44091.45
794.9677	156.4739	45035.45	44445.9
795.1095	158.717	45234.85	44644.85
795.2513	160.9596	45152.4	44560.05
795.3931	163.2017	44852.1	44253.95
795.535	165.4433	45302.75	44704.2
795.6768	167.6844	45083.45	44481.6
795.8187	169.925	45329.5	44724.5
795.9606	172.1651	45193.65	44586.65
796.1025	174.4047	45125.45	44513.35
796.2445	176.6439	45300.45	44684.9
796.3864	178.8825	45410.9	44795.3
796.5284	181.1206	45575.8	44954.05
796.6704	183.3582	45589.5	44964.8
796.8124	185.5954	45278.35	44650.85
796.9544	187.832	45546.7	44916.9
797.0965	190.0681	45490.25	44858.4
797.2386	192.3037	45875.85	45238.3
797.3806	194.5388	46325.85	45687.85
797.5228	196.7734	45519.95	44880.75
797.6649	199.0075	46160.65	45520.35
797.807	201.2411	46231.15	45588.95
797.9492	203.4742	46522.8	45877.65
798.0914	205.7068	46642.2	45993.05
798.2336	207.9389	46639.2	45988.7
798.3758	210.1704	46595.1	45955.25
798.518	212.4015	46999.1	46365.4
798.6603	214.632	46470.8	45843.7
798.8025	216.862	47005	46379.7
798.9448	219.0915	47096.35	46467
799.0871	221.3205	46896.65	46264
799.2294	223.549	47233.9	46604.7
799.3718	225.777	47288.95	46659.4
799.5141	228.0044	47332.45	46697.15
799.6565	230.2314	47407.25	46768.35
799.7989	232.4578	47402.8	46761.5
799.9413	234.6837	47420.3	46768.35
800.0837	236.909	48074.85	47420.05
800.2262	239.1339	47291.35	46616.9
800.3687	241.3582	47693.85	47031.8
800.5111	243.582	47642.5	46951.1
800.6536	245.8053	47791.1	47112.2
800.7961	248.0281	47783.2	47109
800.9387	250.2503	47954	47276.8
801.0812	252.472	47847.65	47167.45
801.2238	254.6932	47900.3	47222.1
801.3664	256.9139	47814.45	47132.8
801.509	259.134	48418.1	47731.45
801.6516	261.3536	47660.6	46977.35
801.7942	263.5727	48315	47632.7
801.9369	265.7912	48101.8	47416.3
802.0795	268.0092	48208.2	47520.5
802.2222	270.2267	48188.5	47503.55
802.3649	272.4436	48151.6	47465
802.5076	274.6601	48269.75	47570.35
802.6504	276.8759	48325.85	47628.9
802.7931	279.0913	48421.4	47728.55
802.9359	281.3061	48271.9	47577.6
803.0787	283.5204	48476.15	47775.55
803.2215	285.7341	48480.05	47778.1
803.3643	287.9473	48838.8	48124.3
803.5071	290.16	48470.8	47767.15
803.6499	292.3721	49034	48332.8
803.7928	294.5837	48259.3	47561.5
803.9357	296.7947	48153.25	47452.55
804.0786	299.0052	48465.75	47762.9
804.2215	301.2152	48323.05	47617.1
804.3644	303.4246	48668.65	47964.65
804.5074	305.6334	48605.85	47902.05
804.6503	307.8418	48250.05	47541.85
804.7933	310.0495	48530.3	47820
804.9363	312.2568	48320.95	47613.3
805.0793	314.4635	48231.1	47518.95
805.2223	316.6696	48238.45	47524.85
805.3653	318.8752	48437.6	47716.25
805.5084	321.0802	47765.85	47050.6
805.6514	323.2847	48057	47339.9
805.7945	325.4887	48031.45	47313.5
805.9376	327.692	47855.55	47136.8
806.0807	329.8949	48127.85	47407.65
806.2238	332.0972	48062.25	47338.85
806.367	334.2989	48186.5	47460.8
806.5101	336.5001	48410.65	47687
806.6533	338.7007	48057.6	47331.3
806.7965	340.9008	48250.95	47522.8
806.9397	343.1003	48165.45	47434.6
807.0829	345.2992	48359.9	47629.15
807.2261	347.4976	48101.8	47370
807.3693	349.6955	48141.5	47405.6
807.5126	351.8927	48123.25	47387.8
807.6559	354.0895	48129	47379.4
807.7991	356.2856	48129.35	47391.25
807.9424	358.4812	48247.4	47507.9
808.0857	360.6763	48065	47322.35
808.2291	362.8707	48013.25	47268.65
808.3724	365.0646	48062.35	47316.95
808.5158	367.258	48047.45	47298.3
808.6591	369.4508	47909.05	47155.95
808.8025	371.643	48057.65	47303.05
808.9459	373.8346	47909.05	47158.15
809.0893	376.0257	47869.6	47111.7
809.2327	378.2162	47802.4	47049.35
809.3762	380.4062	47752.05	46994.8
809.5196	382.5956	47706.9	46952.2
809.6631	384.7844	47765.2	47016.1
809.8066	386.9726	47690.2	46941.05
809.9501	389.1603	47651.1	46902.95
810.0936	391.3474	47382.1	46587.1
810.2371	393.5339	47635.6	46882.35
810.3806	395.7199	47285.5	46537.95
810.5241	397.9052	47388.05	46637.55
810.6677	400.09	47380.35	46630.5
810.8113	402.2743	47394.15	46641.2
810.9548	404.4579	47395.15	46642.6
811.0984	406.641	47359.15	46602.75
811.2421	408.8235	47498.2	46738.4
811.3857	411.0054	47444.3	46684.15
811.5293	413.1868	47596.15	46834.45
811.673	415.3675	47509.85	46743.45
811.8166	417.5477	47512.25	46744.65
811.9603	419.7273	47471.9	46701.8
812.104	421.9064	47300.6	46524.35
812.2477	424.0848	47164.9	46394.55
812.3914	426.2627	47121.45	46350.2
812.5351	428.4399	46897.95	46125.85
812.6788	430.6166	46832.25	46054.45
812.8226	432.7928	46791.3	46013.8
812.9663	434.9683	46604.7	45829.15
813.1101	437.1432	46498.5	45717.15
813.2539	439.3176	46422.7	45645.55
813.3977	441.4914	46212.8	45433.4
813.5415	443.6645	46297.4	45517.65
813.6853	445.8371	46065.15	45287.3
813.8291	448.0091	45918.6	45141.7
813.973	450.1806	45845.3	45066.55
814.1168	452.3514	45720.85	44935.8
814.2607	454.5216	45805.6	45013.5
814.4046	456.6913	45504.35	44719.25
814.5485	458.8603	45544.8	44759.55
814.6924	461.0288	45562.45	44780.85
814.8363	463.1967	45474.85	44692.55
814.9802	465.3639	45524.2	44739.4
815.1241	467.5306	45391.1	44603.05
815.2681	469.6967	45288.75	44501.5
815.412	471.8622	45172.45	44387.15
815.556	474.0271	45134.3	44349.75
815.7	476.1914	45117.5	44326.5
815.844	478.3551	45138	44348.4
815.988	480.5182	45211.3	44422.35
816.132	482.6807	45163.15	44372.25
816.276	484.8426	45234.8	44448.7
816.4201	487.0039	45316.2	44526.85
816.5641	489.1647	45314.3	44521.3
816.7082	491.3248	45303.9	44514.1
816.8522	493.4843	45310.15	44519.4
816.9963	495.6432	45238.05	44444.85
817.1404	497.8015	45126.4	44328.5
817.2845	499.9592	45211.85	44416.2
817.4286	502.1163	45113.45	44316.7
817.5727	504.2728	44955.5	44157.4
817.7168	506.4287	45071	44275.5
817.861	508.5839	44907.15	44110.7
818.0051	510.7386	44897.75	44102.35
818.1493	512.8927	44843	44038.75
818.2935	515.0461	44881.05	44079
818.4377	517.199	44883.3	44082.25
818.5818	519.3512	44878.45	44076.85
818.726	521.5029	44832	44025
818.8703	523.6539	44844.25	44042.3
819.0145	525.8043	44803.1	43998.65
819.1587	527.9541	44792.2	43987.35
819.303	530.1033	44627.9	43823.25
819.4472	532.2519	44551.5	43745.75
819.5915	534.3999	44516.95	43707.25
819.7357	536.5472	44458	43649.6
819.88	538.694	44439.9	43633.45
820.0243	540.8401	44486.15	43678.5
820.1686	542.9856	44501.15	43689
820.3129	545.1305	44389.85	43579.85
820.4572	547.2748	44462.75	43652.15
820.6016	549.4185	44467.05	43654.15
820.7459	551.5615	44343.35	43528.9
820.8902	553.704	44302.75	43491.9
821.0346	555.8458	44252.95	43443.15
821.1789	557.987	44198.9	43389.5
821.3233	560.1276	44215.4	43404.15
821.4677	562.2675	44240.85	43430.95
821.6121	564.4069	44267.85	43456.95
821.7565	566.5456	44210.7	43400.75
821.9009	568.6837	44143.7	43330.3
822.0453	570.8212	43981.3	43170.95
822.1897	572.958	43874.95	43059.95
822.3342	575.0942	43714.7	42902.9
822.4786	577.2299	43642.55	42828.75
822.6231	579.3648	43455.55	42641.95
822.7675	581.4992	43239.2	42427.15
822.912	583.6329	43137.4	42324.45
823.0565	585.766	43151.7	42337.55
823.201	587.8985	43053.45	42239.15
823.3454	590.0304	42862.4	42034.45
823.4899	592.1616	42883.4	42062.85
823.6345	594.2922	42856.4	42036.5
823.779	596.4222	42700.85	41878.05
823.9235	598.5515	42614.05	41794.35
824.068	600.6802	42512.8	41692.05
824.2126	602.8083	42287.95	41466.45
824.3571	604.9358	42323.8	41501.45
824.5017	607.0626	42173.5	41350.25
824.6462	609.1888	42137.5	41313.95
824.7908	611.3144	42110.6	41285.75
824.9354	613.4393	42016.1	41192.15
825.08	615.5636	41995.75	41171.5
825.2246	617.6873	42041.05	41217.2
825.3692	619.8103	42082.25	41255.6
825.5138	621.9327	41977.15	41146.9
825.6584	624.0544	41906.8	41082.95
825.803	626.1756	41911.45	41087.45
825.9477	628.2961	41787.2	40959.45
826.0923	630.4159	41674.2	40845.85
826.237	632.5351	41666.3	40838.5
826.3816	634.6537	41589.85	40763.25
826.5263	636.7716	41579.65	40749.9
826.6709	638.8889	41560.15	40731.3
826.8156	641.0056	41601.6	40771.95
826.9603	643.1216	41476.4	40642.9
827.105	645.237	41556.15	40723.8
827.2497	647.3518	41437.7	40607.35
827.3944	649.4659	41460.15	40631.65
827.5391	651.5793	41320.4	40490.55
827.6838	653.6922	41245.8	40417.45
827.8285	655.8043	41175.45	40343.95
827.9733	657.9159	41191.95	40359.2
828.118	660.0268	41068.9	40234.2
828.2627	662.137	41009.95	40175.8
828.4075	664.2466	40960.65	40123.4
828.5522	666.3556	40909.1	40075.65
828.697	668.4639	40761.5	39922.6
828.8418	670.5716	40851.75	40015.45
828.9865	672.6786	40810.1	39974.75
829.1313	674.785	40592.8	39755.65
829.2761	676.8907	40485.85	39648.3
829.4209	678.9958	40525.2	39690.8
829.5657	681.1002	40405.05	39568.15
829.7105	683.204	40340	39499.3
829.8553	685.3072	40303.15	39463.7
830.0001	687.4097	40162.85	39324.95
830.1449	689.5115	40168.25	39329.05
830.2898	691.6127	40203.5	39365
830.4346	693.7132	40052.75	39213.25
830.5794	695.8131	40137.15	39276.35
830.7243	697.9123	40174	39331.7
830.8691	700.0109	40015.45	39174.5
831.014	702.1089	40014.2	39173.2
831.1588	704.2061	39879.35	39037.55
831.3037	706.3028	39955.3	39113.05
831.4486	708.3987	39902.65	39059.4
831.5935	710.4941	39770.65	38930.8
831.7383	712.5887	39805.9	38962.25
831.8832	714.6827	39818.95	38971.85
832.0281	716.7761	39717.15	38872.95
832.173	718.8688	39678.45	38833.85
832.3179	720.9608	39553.05	38704.65
832.4628	723.0522	39659	38810.4
832.6077	725.1429	39549.5	38706.3
832.7527	727.233	39515.2	38669.9
832.8976	729.3224	39556.05	38709.45
833.0425	731.4112	39417.45	38571.05
833.1874	733.4993	39369.65	38520.55
833.3324	735.5867	39243.4	38394.85
833.4773	737.6735	39191.6	38344
833.6222	739.7596	39068.3	38219.65
833.7672	741.845	38985.15	38138.6
833.9122	743.9298	38884.65	38035.25
834.0571	746.014	38814.7	37965.85
834.2021	748.0974	38752.7	37904.85
834.347	750.1802	38601.2	37751.15
834.492	752.2624	38496.2	37646
834.637	754.3439	38382.7	37531.7
834.782	756.4247	38291.8	37431.65
834.9269	758.5048	38158.1	37310.75
835.0719	760.5843	38079.15	37230.75
835.2169	762.6631	37975.3	37124.45
835.3619	764.7413	37972.6	37122.9
835.5069	766.8188	37997.65	37144.25
835.6519	768.8956	37875.8	37021.65
835.7969	770.9718	37938.1	37087.5
835.9419	773.0473	37734.4	36884.5
836.0869	775.1221	37698	36846.9
836.232	777.1962	37543.25	36690.6
836.377	779.2697	37511.2	36657.8
836.522	781.3426	37443.15	36572.35
836.667	783.4147	37421.6	36566.35
836.8121	785.4862	37439.6	36589.4
836.9571	787.557	37299.4	36446.45
837.1021	789.6271	37117.8	36264.7
837.2472	791.6966	37030.55	36179.4
837.3922	793.7654	36847.45	35994.25
837.5373	795.8335	36833.3	35979.95
837.6823	797.901	36670.75	35817.6
837.8274	799.9678	36633.35	35776.75
837.9724	802.0339	36572.5	35721.2
838.1175	804.0993	36500.6	35635.85
838.2626	806.1641	36420.3	35564.85
838.4076	808.2282	36362.35	35508.55
838.5527	810.2916	36279.05	35422.45
838.6978	812.3544	36272.95	35416.3
838.8428	814.4164	36224.65	35370.15
838.9879	816.4778	36233.55	35378.9
839.133	818.5385	36069.65	35214.15
839.2781	820.5986	36067.75	35213.5
839.4232	822.658	36099.95	35241.15
839.5682	824.7166	35973.05	35116.8
839.7133	826.7747	36083.05	35227.2
839.8584	828.832	35998.65	35139.9
840.0035	830.8886	35861.1	35001.65
840.1486	832.9446	35903.6	35042.3
840.2937	834.9999	35807.55	34951
840.4388	837.0545	35679.65	34819.35
840.5839	839.1085	35597.8	34738.35
840.729	841.1618	35526.95	34665.3
840.8741	843.2143	35399.5	34540.95
841.0192	845.2662	35280.15	34420.85
841.1643	847.3175	35270.3	34412.7
841.3095	849.368	35141.45	34282.8
841.4546	851.4179	35099.3	34242
841.5997	853.467	34921.25	34063.1
841.7448	855.5155	34899.7	34040.65
841.8899	857.5633	34877	34018.3
842.0351	859.6105	34776.05	33917.15
842.1802	861.6569	34732.35	33872.1
842.3253	863.7027	34640.4	33779.95
842.4704	865.7478	34644.6	33782.6
842.6156	867.7922	34561.85	33701.35
842.7607	869.8359	34468.2	33607.05
842.9058	871.8789	34374.8	33512.5
843.0509	873.9212	34419.3	33527.5
843.1961	875.9629	34206.75	33346.85
843.3412	878.0039	34302.25	33438.3
843.4863	880.0441	34234.65	33371
843.6315	882.0837	34206.8	33341.8
843.7766	884.1226	34198.05	33333.45
843.9218	886.1609	34189.7	33327.7
844.0669	888.1984	34169.95	33310.15
844.212	890.2352	34238.45	33377
844.3572	892.2714	34169.45	33305.5
844.5023	894.3069	34130.4	33268.75
844.6475	896.3416	33928.1	33065.25
844.7926	898.3757	33918.3	33056.3
844.9377	900.4091	33812.55	32948.4
845.0829	902.4418	33773.05	32905.15
845.228	904.4739	33633.25	32767.65
845.3732	906.5052	33622.15	32755.15
845.5183	908.5358	33579.5	32714
845.6635	910.5658	33501.25	32634.55
845.8086	912.595	33393.7	32529.55
845.9538	914.6236	33277.1	32411.75
846.0989	916.6515	33289.45	32422.95
846.2441	918.6786	33155.95	32290.5
846.3892	920.7051	33067.1	32200.75
846.5344	922.7309	33097.75	32230.85
846.6795	924.756	32958.7	32094.1
846.8246	926.7804	32982.1	32113.75
846.9698	928.8041	32700.55	31833.65
847.1149	930.8272	32731.15	31865.6
847.2601	932.8495	32594.8	31727.65
847.4052	934.8711	32612.05	31743.7
847.5504	936.892	32461.85	31595.15
847.6955	938.9123	32357.7	31489
847.8407	940.9318	32311.8	31444.6
847.9858	942.9506	32215.35	31346.65
848.131	944.9688	32124.6	31258.55
848.2761	946.9862	32010.15	31143.7
848.4213	949.003	31791.55	30925.25
848.5664	951.019	31749.7	30881.1
848.7115	953.0344	31645.6	30777.5
848.8567	955.0491	31573.3	30705.35
849.0018	957.063	31556.65	30686.5
849.147	959.0763	31582.8	30714.65
849.2921	961.0888	31469.9	30598.15
849.4373	963.1007	31469.65	30601.2
849.5824	965.1119	31420.2	30554.7
849.7275	967.1223	31353.85	30485.75
849.8727	969.1321	31289.55	30424.15
850.0178	971.1412	31231.05	30363.55
850.1629	973.1495	31104.25	30235.25
850.3081	975.1572	31121.1	30204.45
850.4532	977.1641	31080.15	30212.9
850.5983	979.1704	31009.05	30139.3
850.7435	981.1759	30882.55	30009.6
850.8886	983.1808	30832.95	29963.55
851.0337	985.1849	30749.2	29873.85
851.1788	987.1884	30656.5	29784.45
851.324	989.1911	30615.15	29742.15
851.4691	991.1932	30563.9	29691.9
851.6142	993.1945	30454.45	29584.35
851.7593	995.1951	30289.9	29421.75
851.9045	997.1951	30287.45	29412.8
852.0496	999.1943	30099.2	29228.85
852.1947	1001.1928	30037.25	29166.1
852.3398	1003.1906	29873.1	29003.4
852.4849	1005.1877	29904.75	29032.35
852.63	1007.1841	29766.25	28896.15
852.7751	1009.1798	29673.4	28802.1
852.9202	1011.1748	29572.65	28700.95
853.0653	1013.1691	29463.5	28591.95
853.2104	1015.1627	29337.7	28466.3
853.3555	1017.1556	29122.45	28251.05
853.5006	1019.1477	29025.4	28152.6
853.6457	1021.1392	28895.4	28025.15
853.7908	1023.1299	28780.45	27909.25
853.9359	1025.12	28644.8	27775.75
854.081	1027.1093	28509.4	27641.55
854.2261	1029.0979	28476.3	27606.25
854.3712	1031.0859	28347.85	27476.85
854.5163	1033.0731	28276.85	27404.3
854.6613	1035.0596	28206	27336.1
854.8064	1037.0454	28015.05	27141.9
854.9515	1039.0304	28045.1	27171.95
855.0965	1041.0148	27897.85	27026
855.2416	1042.9985	27833.2	26958.65
855.3867	1044.9814	27762.25	26893
855.5317	1046.9636	27615.45	26740.3
855.6768	1048.9452	27519.95	26648.5
855.8219	1050.926	27505.8	26633.9
855.9669	1052.9061	27419.15	26546.75
856.112	1054.8855	27363.1	26491.8
856.257	1056.8642	27284.75	26411
856.4021	1058.8421	27273.6	26397.6
856.5471	1060.8194	27182.1	26310.8
856.6921	1062.7959	27128.9	26254.8
856.8372	1064.7717	27013.65	26138.6
856.9822	1066.7469	26994.65	26120.4
857.1272	1068.7213	26940.1	26064.25
857.2723	1070.695	26908.6	26035.55
857.4173	1072.6679	26809.1	25933.65
857.5623	1074.6402	26803.75	25930.25
857.7073	1076.6117	26781.85	25902.8
857.8523	1078.5826	26683.25	25807.6
857.9973	1080.5527	26561.7	25684.55
858.1423	1082.5221	26478	25601.45
858.2873	1084.4908	26446.95	25570.3
858.4323	1086.4587	26320.95	25445.35
858.5773	1088.426	26279.9	25405.75
858.7223	1090.3925	26195.25	25315.9
858.8673	1092.3584	26184.4	25311.1
859.0123	1094.3235	26040.3	25167.25
859.1573	1096.2879	25997.95	25122.4
859.3022	1098.2515	25932.3	25058.75
859.4472	1100.2145	25982.3	25107.75
859.5922	1102.1767	25913.85	25036.3
859.7371	1104.1382	25860.85	24984.65
859.8821	1106.099	25855.55	24977.65
860.027	1108.0591	25777	24901.15
860.172	1110.0185	25725.6	24849.35
860.3169	1111.9771	25742.55	24868.05
860.4619	1113.9351	25637.9	24762.5
860.6068	1115.8923	25623.95	24749.25
860.7517	1117.8488	25608.75	24730.25
860.8967	1119.8045	25475.95	24601.45
861.0416	1121.7596	25389.9	24514.7
861.1865	1123.7139	25224.65	24348.5
861.3314	1125.6675	25116.7	24241.05
861.4763	1127.6204	25144.3	24267.95
861.6212	1129.5726	25062.9	24183.6
861.7661	1131.524	25024	24148.4
861.911	1133.4748	24918.8	24043.65
862.0559	1135.4248	24843.55	23966.35
862.2008	1137.3741	24726.65	23851.3
862.3457	1139.3226	24653.8	23774.25
862.4905	1141.2705	24688.65	23812.5
862.6354	1143.2176	24533.6	23648.95
862.7803	1145.164	24533.05	23652.85
862.9251	1147.1097	24475.75	23598
863.07	1149.0546	24457	23578.3
863.2148	1150.9989	24399.45	23522.25
863.3597	1152.9424	24362.2	23484.5
863.5045	1154.8852	24231.85	23355.55
863.6493	1156.8272	24248	23372
863.7942	1158.7686	24278.35	23393.55
863.939	1160.7092	24166.45	23291.5
864.0838	1162.6491	24003.35	23123.55
864.2286	1164.5883	24044	23166.3
864.3734	1166.5267	23999.3	23120.3
864.5182	1168.4644	23989.2	23112.05
864.663	1170.4014	23923.75	23040.3
864.8078	1172.3377	24000	23122.85
864.9526	1174.2732	23971.25	23094.15
865.0974	1176.2081	24012.15	23136.2
865.2421	1178.1421	24010	23128.55
865.3869	1180.0755	24121.9	23247.2
865.5317	1182.0082	24068.7	23190.2
