Software Version:	3.9.2.0
Unit SN:	10000200
Spectrometer SN:	6960
Date:	3/6/2024 9:28:14 AM
Data Line Index:	25
Spectral Points:	2048
Integration time (ms):	125
Averages:	20
Delay (ms):	30
Sequence Number:	1
Processing:	dark subtract
Laser Power (mW):	300
Laser Current (mA):	820
Laser Diode Temp (C):	25.1
Laser Case Temp (C):	23.3
System Temp (C):	23
Spectrometer Temp (C):	20.8
CCD Temp (C):	-0.065
Secondary Temp (C):	20.007
Heatsink Temp (C):	17.656
CCDPCB Temp (C):	30.004
SecondaryPCB Temp (C):	25.213

Wavelength	RamanShift	Raw Counts	Dark Subtracted
787.061	30.1047	537.75	131
787.2016	32.3739	538.85	133.1
787.3422	34.6426	550.95	143.95
787.4828	36.9109	558.9	150.6
787.6235	39.1787	573.4	162.8
787.7642	41.4461	587.2	167.8
787.9049	43.7131	599.1	179.3
788.0456	45.9796	613.85	192.9
788.1863	48.2456	629.5	202.9
788.3271	50.5112	641.15	210.65
788.4679	52.7764	661.6	227.7
788.6087	55.0411	673.1	236.4
788.7496	57.3054	691.35	250.05
788.8904	59.5692	707.55	265.15
789.0313	61.8326	735.85	288.4
789.1722	64.0955	749.55	300.4
789.3132	66.3579	779.95	325.35
789.4541	68.6199	813.45	356.1
789.5951	70.8815	880.1	417.95
789.7361	73.1426	1000.9	535.9
789.8771	75.4032	1325.55	857.65
790.0181	77.6634	2120.1	1648.2
790.1592	79.9231	4035.05	3559.9
790.3003	82.1824	8240.55	7760.05
790.4414	84.4412	15658.3	15171.5
790.5825	86.6995	25757.7	25261.95
790.7237	88.9574	35292.45	34789.75
790.8648	91.2148	42442.1	41937.1
791.006	93.4717	45662.7	45153.05
791.1472	95.7282	47137.15	46623.3
791.2885	97.9842	47707	47193.9
791.4297	100.2398	48153.4	47638.8
791.571	102.4949	47830.9	47309.6
791.7123	104.7495	48376.7	47853.15
791.8536	107.0036	47986.85	47462.4
791.9949	109.2573	48789.4	48266.6
792.1363	111.5105	48078.25	47552.45
792.2777	113.7632	48725.2	48198.9
792.4191	116.0154	48857.9	48317.9
792.5605	118.2672	49252.55	48722.55
792.7019	120.5185	49248.4	48711.85
792.8434	122.7693	49299.1	48759.4
792.9849	125.0197	48901.8	48358.35
793.1264	127.2696	49958.9	49412.35
793.2679	129.519	50019.25	49472
793.4094	131.7679	50431.7	49879
793.551	134.0163	49093.35	48539.65
793.6926	136.2642	49724.65	49167.35
793.8342	138.5117	50726.1	50164.65
793.9758	140.7587	50423.35	49859.65
794.1175	143.0052	50588.3	50023.3
794.2591	145.2512	49849.4	49285.9
794.4008	147.4967	50832.5	50264.25
794.5425	149.7417	50473.95	49905.05
794.6842	151.9863	50641.85	50067.6
794.826	154.2304	49864.4	49285
794.9677	156.4739	50643.6	50059.85
795.1095	158.717	51042.45	50458.6
795.2513	160.9596	50788.35	50200
795.3931	163.2017	50126.85	49536
795.535	165.4433	51016	50423.95
795.6768	167.6844	50622.05	50028
795.8187	169.925	51089.35	50492.05
795.9606	172.1651	50867.1	50265.15
796.1025	174.4047	50757.9	50152.2
796.2445	176.6439	51001.35	50393.8
796.3864	178.8825	51052.9	50443.65
796.5284	181.1206	51411.8	50797.75
796.6704	183.3582	51486.85	50868.85
796.8124	185.5954	50996	50377.3
796.9544	187.832	51302.3	50680.55
797.0965	190.0681	50971.3	50346.3
797.2386	192.3037	51823.25	51194.15
797.3806	194.5388	52612.95	51982.8
797.5228	196.7734	50814.75	50182.4
797.6649	199.0075	52364.1	51732.95
797.807	201.2411	51949.75	51316.45
797.9492	203.4742	52802.85	52165.2
798.0914	205.7068	52695.25	52053.2
798.2336	207.9389	52652.25	52010.9
798.3758	210.1704	52518.15	51886.2
798.518	212.4015	53311.25	52687.15
798.6603	214.632	52213.9	51595.45
798.8025	216.862	53234.85	52613.4
798.9448	219.0915	53113.35	52492.95
799.0871	221.3205	52776.35	52151
799.2294	223.549	53554.4	52932.95
799.3718	225.777	53480.65	52860.4
799.5141	228.0044	53723.65	53092.65
799.6565	230.2314	53521.05	52887.95
799.7989	232.4578	53503.55	52866.4
799.9413	234.6837	53627.5	52982.7
800.0837	236.909	55083.4	54437.55
800.2262	239.1339	53114.3	52444.15
800.3687	241.3582	53983.65	53329.25
800.5111	243.582	54012.3	53329.05
800.6536	245.8053	54147.5	53474.25
800.7961	248.0281	54149	53479.65
800.9387	250.2503	54517.2	53847.9
801.0812	252.472	53946.5	53276
801.2238	254.6932	54298.65	53627.45
801.3664	256.9139	54078.4	53404.8
801.509	259.134	55472.65	54795.05
801.6516	261.3536	53788.4	53114.05
801.7942	263.5727	54924.85	54249
801.9369	265.7912	54324.2	53646.95
802.0795	268.0092	54576.35	53898.1
802.2222	270.2267	54731.2	54050.5
802.3649	272.4436	54181.85	53500.75
802.5076	274.6601	54809.65	54117.65
802.6504	276.8759	55169.8	54481.5
802.7931	279.0913	54961.2	54274.05
802.9359	281.3061	54877.8	54191.75
803.0787	283.5204	55109.6	54419.05
803.2215	285.7341	54943.3	54248.7
803.3643	287.9473	55707.35	55001.9
803.5071	290.16	55061.6	54364.3
803.6499	292.3721	55620.9	54928.8
803.7928	294.5837	54769	54074.35
803.9357	296.7947	54420.35	53728.25
804.0786	299.0052	55340.75	54646.35
804.2215	301.2152	54840.15	54143.05
804.3644	303.4246	55622.75	54928.2
804.5074	305.6334	55578.7	54883
804.6503	307.8418	54666.3	53965.5
804.7933	310.0495	55060.4	54360.3
804.9363	312.2568	54821.7	54120.1
805.0793	314.4635	54852.85	54149
805.2223	316.6696	55128.4	54423.5
805.3653	318.8752	55598.7	54883.55
805.5084	321.0802	54064.55	53357.45
805.6514	323.2847	54633.1	53924.15
805.7945	325.4887	54804.45	54095.15
805.9376	327.692	54394.05	53682.55
806.0807	329.8949	54861.7	54149.2
806.2238	332.0972	54566	53850.75
806.367	334.2989	54886.1	54168.65
806.5101	336.5001	55581.5	54863.25
806.6533	338.7007	54381.35	53663.5
806.7965	340.9008	54880.4	54161.55
806.9397	343.1003	54986.35	54262.65
807.0829	345.2992	55438.45	54712.95
807.2261	347.4976	54746.2	54022.1
807.3693	349.6955	54979.8	54250.2
807.5126	351.8927	54600.45	53870.5
807.6559	354.0895	55181.15	54440.1
807.7991	356.2856	54947.65	54215.2
807.9424	358.4812	55441.65	54709.9
808.0857	360.6763	54740.25	54003.2
808.2291	362.8707	55196.35	54457.95
808.3724	365.0646	54826.9	54085.15
808.5158	367.258	54898.3	54155.75
808.6591	369.4508	54446.8	53700.15
808.8025	371.643	55014.85	54270.3
808.9459	373.8346	54794.2	54047.3
809.0893	376.0257	54787.95	54040.8
809.2327	378.2162	54581.9	53833.25
809.3762	380.4062	54127.9	53378.95
809.5196	382.5956	54463.35	53715.2
809.6631	384.7844	54567.75	53825.75
809.8066	386.9726	54673.2	53931.6
809.9501	389.1603	54827.35	54086.45
810.0936	391.3474	54068.6	53281.75
810.2371	393.5339	54769.7	54025.6
810.3806	395.7199	53902.65	53162.05
810.5241	397.9052	54009.4	53267.4
810.6677	400.09	54239.8	53494.4
810.8113	402.2743	54510.5	53764.85
810.9548	404.4579	54187.25	53442
811.0984	406.641	54014.45	53263.05
811.2421	408.8235	54392.15	53640.85
811.3857	411.0054	54287.2	53531.3
811.5293	413.1868	54292.05	53534.5
811.673	415.3675	54288.15	53526.8
811.8166	417.5477	54272	53508.5
811.9603	419.7273	54150.15	53385.95
812.104	421.9064	53980.8	53211.1
812.2477	424.0848	54124.8	53362.35
812.3914	426.2627	54302	53537.1
812.5351	428.4399	53572.4	52807.55
812.6788	430.6166	53244.25	52477.95
812.8226	432.7928	53740.2	52969.1
812.9663	434.9683	53198.75	52428.6
813.1101	437.1432	53279.55	52505.9
813.2539	439.3176	53582.4	52811.55
813.3977	441.4914	52868	52096.65
813.5415	443.6645	52950.3	52176.1
813.6853	445.8371	52955.6	52182.05
813.8291	448.0091	52602.35	51829.7
813.973	450.1806	52490.5	51716.35
814.1168	452.3514	52416.2	51639.7
814.2607	454.5216	52181.95	51395.4
814.4046	456.6913	52261.25	51482.85
814.5485	458.8603	52372.55	51595.9
814.6924	461.0288	52009.05	51230.95
814.8363	463.1967	52283.9	51505.1
814.9802	465.3639	52388.4	51608.35
815.1241	467.5306	51642.9	50862.05
815.2681	469.6967	51843.1	51063.85
815.412	471.8622	51934.2	51155.5
815.556	474.0271	51775.7	50994.75
815.7	476.1914	51813.75	51029.4
815.844	478.3551	51769.35	50986.45
815.988	480.5182	52117.55	51334.45
816.132	482.6807	51647.15	50861.9
816.276	484.8426	51779.6	50995.4
816.4201	487.0039	52181.5	51395.6
816.5641	489.1647	52065.85	51282.25
816.7082	491.3248	51615.15	50830.3
816.8522	493.4843	52021.1	51234.35
816.9963	495.6432	52056.85	51271.4
817.1404	497.8015	51473	50683.7
817.2845	499.9592	51780.95	50993.15
817.4286	502.1163	51691.05	50901
817.5727	504.2728	51565.95	50772.05
817.7168	506.4287	51670.4	50880.8
817.861	508.5839	51309.25	50518.85
818.0051	510.7386	51472.2	50681.45
818.1493	512.8927	51561.95	50760.85
818.2935	515.0461	51430.1	50635.6
818.4377	517.199	51610.3	50817.4
818.5818	519.3512	51535.05	50739.65
818.726	521.5029	51272.1	50469
818.8703	523.6539	51511.9	50716.75
819.0145	525.8043	51051.35	50252.2
819.1587	527.9541	51305.4	50505.25
819.303	530.1033	51172.7	50370.9
819.4472	532.2519	50950.9	50150.3
819.5915	534.3999	51074.1	50272.9
819.7357	536.5472	51252.9	50451
819.88	538.694	50697.6	49896.2
820.0243	540.8401	51027.5	50226.75
820.1686	542.9856	50939	50135.25
820.3129	545.1305	50965.25	50161.05
820.4572	547.2748	50891.75	50088.5
820.6016	549.4185	50863.25	50057.25
820.7459	551.5615	50978.55	50175
820.8902	553.704	50915.8	50110.85
821.0346	555.8458	50653.7	49848.15
821.1789	557.987	50724.55	49920.45
821.3233	560.1276	50773.55	49968.7
821.4677	562.2675	50694.75	49889.8
821.6121	564.4069	50676.8	49872.7
821.7565	566.5456	50748.85	49942.05
821.9009	568.6837	50470.3	49665.15
822.0453	570.8212	50464.35	49656.85
822.1897	572.958	50077.7	49268.55
822.3342	575.0942	50188.9	49381.3
822.4786	577.2299	49931.2	49121
822.6231	579.3648	49853	49042.75
822.7675	581.4992	49566	48755.35
822.912	583.6329	49450.35	48641.3
823.0565	585.766	49407.8	48600.6
823.201	587.8985	49440.85	48631.5
823.3454	590.0304	49079.5	48244.25
823.4899	592.1616	49245.4	48428.95
823.6345	594.2922	49072.05	48258.75
823.779	596.4222	48925.25	48110.2
823.9235	598.5515	48870.55	48054.85
824.068	600.6802	48755.05	47940.85
824.2126	602.8083	48485.15	47669.5
824.3571	604.9358	48447.5	47629.4
824.5017	607.0626	48363.4	47547.8
824.6462	609.1888	48273.55	47453.6
824.7908	611.3144	48313.45	47494.6
824.9354	613.4393	48161.85	47343.55
825.08	615.5636	48145.95	47325.75
825.2246	617.6873	48142.85	47324.7
825.3692	619.8103	48187.5	47367.85
825.5138	621.9327	48131.15	47308.6
825.6584	624.0544	48069.05	47247.5
825.803	626.1756	47909.2	47088.75
825.9477	628.2961	47892.95	47071.15
826.0923	630.4159	47730.15	46908.95
826.237	632.5351	47746.35	46921.45
826.3816	634.6537	47776.1	46950.95
826.5263	636.7716	47541.2	46715.65
826.6709	638.8889	47597	46773.25
826.8156	641.0056	47617.4	46794.45
826.9603	643.1216	47540.15	46714.75
827.105	645.237	47614.05	46786.7
827.2497	647.3518	47410.9	46587.3
827.3944	649.4659	47378.55	46552.7
827.5391	651.5793	47332.05	46507.1
827.6838	653.6922	47226.85	46404.55
827.8285	655.8043	47133.5	46308.1
827.9733	657.9159	47178.9	46350.7
828.118	660.0268	46834.55	46005
828.2627	662.137	46876.7	46048
828.4075	664.2466	46868.75	46039.45
828.5522	666.3556	46859	46031.55
828.697	668.4639	46698.45	45865.4
828.8418	670.5716	46753.55	45925.2
828.9865	672.6786	46715.7	45882.85
829.1313	674.785	46440.45	45607.65
829.2761	676.8907	46390.5	45557.05
829.4209	678.9958	46356.35	45525
829.5657	681.1002	46262.05	45429.8
829.7105	683.204	46157.9	45321.85
829.8553	685.3072	46116.35	45282.45
830.0001	687.4097	45968.6	45134.45
830.1449	689.5115	45992.05	45157.3
830.2898	691.6127	45979.85	45147
830.4346	693.7132	45861.75	45027.1
830.5794	695.8131	45928.7	45074.1
830.7243	697.9123	45927.45	45089.3
830.8691	700.0109	45833.75	44997.9
831.014	702.1089	45754.65	44920.05
831.1588	704.2061	45684.75	44849.55
831.3037	706.3028	45727.5	44892.15
831.4486	708.3987	45638.85	44802.1
831.5935	710.4941	45531.65	44694.35
831.7383	712.5887	45513.7	44673.2
831.8832	714.6827	45487.65	44645.05
832.0281	716.7761	45456.8	44618.9
832.173	718.8688	45400.7	44559.4
832.3179	720.9608	45284.45	44442.5
832.4628	723.0522	45310.75	44468.9
832.6077	725.1429	45131.9	44292.75
832.7527	727.233	45216	44376.95
832.8976	729.3224	45143.3	44302.45
833.0425	731.4112	45017.35	44174.05
833.1874	733.4993	44973.05	44128.4
833.3324	735.5867	44838.8	43994.9
833.4773	737.6735	44750.8	43908.25
833.6222	739.7596	44597.8	43755.7
833.7672	741.845	44532.8	43689.35
833.9122	743.9298	44355.1	43511.55
834.0571	746.014	44333.45	43487.6
834.2021	748.0974	44317.3	43472.8
834.347	750.1802	44212.55	43366.85
834.492	752.2624	44014.7	43170.65
834.637	754.3439	43885.85	43038
834.782	756.4247	43751.9	42896.25
834.9269	758.5048	43631.7	42786
835.0719	760.5843	43519.1	42674.25
835.2169	762.6631	43403.75	42557.8
835.3619	764.7413	43345.1	42501.55
835.5069	766.8188	43344.9	42497.3
835.6519	768.8956	43210.7	42361.4
835.7969	770.9718	43253.15	42404.1
835.9419	773.0473	43055.2	42207.4
836.0869	775.1221	42951.95	42106.1
836.232	777.1962	42840.9	41993.75
836.377	779.2697	42849.1	41999.25
836.522	781.3426	42753.9	41894.3
836.667	783.4147	42687.85	41838.65
836.8121	785.4862	42675.95	41830.45
836.9571	787.557	42551.95	41703.3
837.1021	789.6271	42410.3	41563.25
837.2472	791.6966	42227.6	41378.65
837.3922	793.7654	42039.4	41189.3
837.5373	795.8335	42003.9	41154.6
837.6823	797.901	41848.25	41000.05
837.8274	799.9678	41829.45	40976.7
837.9724	802.0339	41726.55	40878.1
838.1175	804.0993	41731.7	40873.1
838.2626	806.1641	41570.95	40720.1
838.4076	808.2282	41444.8	40595.15
838.5527	810.2916	41378.4	40523.1
838.6978	812.3544	41320.05	40471.15
838.8428	814.4164	41214.4	40362.45
838.9879	816.4778	41312.05	40460.45
839.133	818.5385	41166.7	40314.85
839.2781	820.5986	41178.05	40325.9
839.4232	822.658	41104.3	40249.85
839.5682	824.7166	40997.75	40146.65
839.7133	826.7747	41152.05	40300.25
839.8584	828.832	41081.75	40227.65
840.0035	830.8886	40924.65	40069.1
840.1486	832.9446	40883.6	40029.2
840.2937	834.9999	40784.05	39931.65
840.4388	837.0545	40744.45	39884.6
840.5839	839.1085	40612.05	39755.45
840.729	841.1618	40495.65	39638.05
840.8741	843.2143	40342.65	39487.15
841.0192	845.2662	40202.8	39345
841.1643	847.3175	40163.55	39309.05
841.3095	849.368	40054.75	39200.3
841.4546	851.4179	39985.1	39130.2
841.5997	853.467	39837.05	38981
841.7448	855.5155	39771.2	38912.45
841.8899	857.5633	39720.25	38862.2
842.0351	859.6105	39650.95	38795.75
842.1802	861.6569	39578.05	38721.15
842.3253	863.7027	39478.05	38621.85
842.4704	865.7478	39477.15	38618.2
842.6156	867.7922	39384.2	38526.75
842.7607	869.8359	39279	38422.4
842.9058	871.8789	39222.35	38364.6
843.0509	873.9212	39225.35	38338.55
843.1961	875.9629	38996.3	38139.05
843.3412	878.0039	39048.9	38188.5
843.4863	880.0441	39011.6	38154.4
843.6315	882.0837	39006.85	38147.65
843.7766	884.1226	38901.75	38042.3
843.9218	886.1609	38911.15	38052.75
844.0669	888.1984	38949.75	38093.85
844.212	890.2352	39009.75	38152.75
844.3572	892.2714	38910	38048.1
844.5023	894.3069	38830.95	37970.2
844.6475	896.3416	38619.85	37757
844.7926	898.3757	38630.1	37770.8
844.9377	900.4091	38517.75	37656
845.0829	902.4418	38490.1	37623.55
845.228	904.4739	38313.7	37451.65
845.3732	906.5052	38316.05	37457.5
845.5183	908.5358	38220.9	37360.9
845.6635	910.5658	38140.25	37277.9
845.8086	912.595	38084.3	37222.7
845.9538	914.6236	37922.3	37060.9
846.0989	916.6515	37857.45	36996.9
846.2441	918.6786	37767.6	36903.55
846.3892	920.7051	37703.2	36837.2
846.5344	922.7309	37770.1	36908.75
846.6795	924.756	37585.65	36721.95
846.8246	926.7804	37538.3	36674.15
846.9698	928.8041	37303.95	36440.1
847.1149	930.8272	37318.25	36455.05
847.2601	932.8495	37136.55	36269.65
847.4052	934.8711	37146.45	36282.7
847.5504	936.892	36923.6	36059.95
847.6955	938.9123	36860	35995.9
847.8407	940.9318	36839.55	35977.7
847.9858	942.9506	36661.05	35795.1
848.131	944.9688	36538	35674.9
848.2761	946.9862	36457.8	35593.4
848.4213	949.003	36255.1	35392.4
848.5664	951.019	36232	35367.45
848.7115	953.0344	36088.5	35222.65
848.8567	955.0491	35980.8	35115.65
849.0018	957.063	35967.4	35103.15
849.147	959.0763	35983.4	35120.4
849.2921	961.0888	35824	34956.35
849.4373	963.1007	35823.3	34958.05
849.5824	965.1119	35811.15	34949.05
849.7275	967.1223	35696.95	34834.15
849.8727	969.1321	35633.9	34770.85
850.0178	971.1412	35560.9	34696.05
850.1629	973.1495	35468	34603.4
850.3081	975.1572	35499.95	34588.15
850.4532	977.1641	35451.6	34586.45
850.5983	979.1704	35278.85	34411.4
850.7435	981.1759	35174.05	34306.35
850.8886	983.1808	35180	34312.7
851.0337	985.1849	35061.55	34189.5
851.1788	987.1884	34945.95	34076.5
851.324	989.1911	34877.7	34007.55
851.4691	991.1932	34804	33935.65
851.6142	993.1945	34636	33768.55
851.7593	995.1951	34449.4	33582.6
851.9045	997.1951	34475.2	33602.65
852.0496	999.1943	34314.05	33446.7
852.1947	1001.1928	34165.65	33297.95
852.3398	1003.1906	34065.3	33197.15
852.4849	1005.1877	33989.75	33120.2
852.63	1007.1841	33873.5	33007.9
852.7751	1009.1798	33768.05	32900.95
852.9202	1011.1748	33668.7	32802.05
853.0653	1013.1691	33554.45	32685.2
853.2104	1015.1627	33425.4	32556.6
853.3555	1017.1556	33195.8	32327.55
853.5006	1019.1477	33084.8	32214.9
853.6457	1021.1392	32887.25	32021.25
853.7908	1023.1299	32802.55	31934.85
853.9359	1025.12	32682.45	31812.75
854.081	1027.1093	32566.55	31700.4
854.2261	1029.0979	32478.25	31610.2
854.3712	1031.0859	32355.6	31487.75
854.5163	1033.0731	32271.35	31402.85
854.6613	1035.0596	32169.3	31301.45
854.8064	1037.0454	31963.8	31094.6
854.9515	1039.0304	31939.65	31069.15
855.0965	1041.0148	31804.25	30934.3
855.2416	1042.9985	31680	30808.3
855.3867	1044.9814	31671.1	30800.65
855.5317	1046.9636	31460.95	30589.6
855.6768	1048.9452	31366.85	30499.8
855.8219	1050.926	31340.05	30471.6
855.9669	1052.9061	31221.15	30352.1
856.112	1054.8855	31152.2	30281.45
856.257	1056.8642	31153.4	30283.25
856.4021	1058.8421	31126.05	30251.4
856.5471	1060.8194	30977.95	30107.65
856.6921	1062.7959	30910.65	30037
856.8372	1064.7717	30837.1	29966.05
856.9822	1066.7469	30819.65	29946.8
857.1272	1068.7213	30745.25	29872
857.2723	1070.695	30734	29861.95
857.4173	1072.6679	30555.55	29683.7
857.5623	1074.6402	30572.55	29701.95
857.7073	1076.6117	30521.4	29645.25
857.8523	1078.5826	30529.3	29656.55
857.9973	1080.5527	30380.8	29505.9
858.1423	1082.5221	30244.35	29371.85
858.2873	1084.4908	30170.9	29298
858.4323	1086.4587	30021.1	29146.85
858.5773	1088.426	30025.2	29153.55
858.7223	1090.3925	29886.1	29010.05
858.8673	1092.3584	29863.25	28989.7
859.0123	1094.3235	29692.5	28821.4
859.1573	1096.2879	29641.35	28768.15
859.3022	1098.2515	29665.7	28793.25
859.4472	1100.2145	29603.05	28731.25
859.5922	1102.1767	29575.05	28700.95
859.7371	1104.1382	29554	28683.55
859.8821	1106.099	29500.6	28627.1
860.027	1108.0591	29413.35	28541.45
860.172	1110.0185	29361.5	28488
860.3169	1111.9771	29372.9	28502.3
860.4619	1113.9351	29278.8	28405.25
860.6068	1115.8923	29282.15	28407.75
860.7517	1117.8488	29258.85	28384.75
860.8967	1119.8045	29084.85	28211.4
861.0416	1121.7596	29026.15	28152.45
861.1865	1123.7139	28776.1	27904.25
861.3314	1125.6675	28680.3	27807
861.4763	1127.6204	28695.25	27821.5
861.6212	1129.5726	28595	27719.95
861.7661	1131.524	28568.65	27698.65
861.911	1133.4748	28543.6	27669.1
862.0559	1135.4248	28378	27501.35
862.2008	1137.3741	28294.65	27419.4
862.3457	1139.3226	28195.15	27321.85
862.4905	1141.2705	28215.35	27342.5
862.6354	1143.2176	28029.45	27151.8
862.7803	1145.164	28016	27142.2
862.9251	1147.1097	27975.95	27101.25
863.07	1149.0546	27971.7	27096.1
863.2148	1150.9989	27915	27038.8
863.3597	1152.9424	27874.9	26998.95
863.5045	1154.8852	27812.15	26936.75
863.6493	1156.8272	27785.25	26910.45
863.7942	1158.7686	27753.95	26871.6
863.939	1160.7092	27632.85	26758.9
864.0838	1162.6491	27534.65	26654.85
864.2286	1164.5883	27523.5	26649.4
864.3734	1166.5267	27456.8	26580.4
864.5182	1168.4644	27466.75	26589.95
864.663	1170.4014	27360.15	26480.4
864.8078	1172.3377	27427.35	26555.05
864.9526	1174.2732	27446.5	26573.95
865.0974	1176.2081	27432.6	26560
865.2421	1178.1421	27479.15	26600.6
865.3869	1180.0755	27519.35	26644.95
865.5317	1182.0082	27477.45	26601.9
865.6764	1183.9401	27480.35	26605.55
