Software Version:	3.9.2.0
Unit SN:	10000200
Spectrometer SN:	6960
Date:	3/6/2024 10:01:01 AM
Data Line Index:	25
Spectral Points:	2048
Integration time (ms):	125
Averages:	20
Delay (ms):	30
Sequence Number:	1
Processing:	dark subtract
Laser Power (mW):	305
Laser Current (mA):	825
Laser Diode Temp (C):	25.1
Laser Case Temp (C):	24.6
System Temp (C):	24.5
Spectrometer Temp (C):	22
CCD Temp (C):	-0.002
Secondary Temp (C):	20.01
Heatsink Temp (C):	18.383
CCDPCB Temp (C):	31.071
SecondaryPCB Temp (C):	26.436

Wavelength	RamanShift	Raw Counts	Dark Subtracted
787.061	30.1047	698.35	288.95
787.2016	32.3739	711.05	304.8
787.3422	34.6426	723.3	316.35
787.4828	36.9109	742.85	333.1
787.6235	39.1787	774	359.95
787.7642	41.4461	797.3	379.3
787.9049	43.7131	825.9	406.3
788.0456	45.9796	853.2	429.45
788.1863	48.2456	884.8	458.8
788.3271	50.5112	903.75	471.65
788.4679	52.7764	943.2	510.1
788.6087	55.0411	976.85	535.75
788.7496	57.3054	1013.75	569.25
788.8904	59.5692	1041.9	595.3
789.0313	61.8326	1083.05	636.25
789.1722	64.0955	1125.95	674.6
789.3132	66.3579	1179.85	724.35
789.4541	68.6199	1250.8	790.6
789.5951	70.8815	1368.5	903.3
789.7361	73.1426	1639.25	1169.8
789.8771	75.4032	2279.05	1807.15
790.0181	77.6634	3961.2	3486.5
790.1592	79.9231	8099.4	7618.4
790.3003	82.1824	19751	19261.15
790.4414	84.4412	38334.9	37828.6
790.5825	86.6995	50301.25	49777.85
790.7237	88.9574	57138.65	56595.45
790.8648	91.2148	61351.2	60796.3
791.006	93.4717	62289.65	61726.8
791.1472	95.7282	62723.8	62156.6
791.2885	97.9842	62943.75	62378.15
791.4297	100.2398	62932.05	62359.5
791.571	102.4949	62938.4	62364.4
791.7123	104.7495	62970.95	62393.95
791.8536	107.0036	62864.05	62286.75
791.9949	109.2573	63100.35	62522.6
792.1363	111.5105	62945.75	62367.4
792.2777	113.7632	63022.3	62442.1
792.4191	116.0154	63145.5	62550.65
792.5605	118.2672	63311.15	62722.9
792.7019	120.5185	63325.9	62738.2
792.8434	122.7693	63320.85	62728.8
792.9849	125.0197	63087.1	62490.85
793.1264	127.2696	63518.75	62920.55
793.2679	129.519	63442.05	62837.2
793.4094	131.7679	63622.7	63016.65
793.551	134.0163	63238	62628.65
793.6926	136.2642	63415.75	62805.3
793.8342	138.5117	63653.4	63036.8
793.9758	140.7587	63590	62974.4
794.1175	143.0052	63574.55	62957
794.2591	145.2512	63370.9	62749.1
794.4008	147.4967	63627.95	63007.1
794.5425	149.7417	63551.7	62924.45
794.6842	151.9863	63561.05	62933
794.826	154.2304	63442.75	62816.35
794.9677	156.4739	63551.65	62913.45
795.1095	158.717	63721.45	63082.7
795.2513	160.9596	63608.55	62964.9
795.3931	163.2017	63429.7	62786.65
795.535	165.4433	63662.1	63015.7
795.6768	167.6844	63556.7	62908.9
795.8187	169.925	63664.35	63014.65
795.9606	172.1651	63543.25	62889.6
796.1025	174.4047	63611.9	62954.1
796.2445	176.6439	63588.9	62929.9
796.3864	178.8825	63540.05	62877
796.5284	181.1206	63742.5	63073.15
796.6704	183.3582	63703.15	63033.85
796.8124	185.5954	63643.3	62972.85
796.9544	187.832	63661.55	62988.55
797.0965	190.0681	63518.45	62842.05
797.2386	192.3037	63755.9	63074.85
797.3806	194.5388	63956.7	63270.75
797.5228	196.7734	63453.45	62764.2
797.6649	199.0075	63942.05	63252.05
797.807	201.2411	63762.25	63074.65
797.9492	203.4742	64025.45	63335
798.0914	205.7068	63949.35	63251.15
798.2336	207.9389	63953.35	63254.65
798.3758	210.1704	63918.65	63229.1
798.518	212.4015	64095	63413.95
798.6603	214.632	63889.9	63214.85
798.8025	216.862	64109.75	63438.3
798.9448	219.0915	63984.4	63307.65
799.0871	221.3205	63962.4	63281.85
799.2294	223.549	64141.8	63466.75
799.3718	225.777	64112.3	63437.9
799.5141	228.0044	64197.05	63514.45
799.6565	230.2314	64132.75	63449.1
799.7989	232.4578	64122.45	63436
799.9413	234.6837	64167.25	63472.45
800.0837	236.909	64426.15	63727.8
800.2262	239.1339	64021.7	63297.6
800.3687	241.3582	64223.35	63517.1
800.5111	243.582	64243	63504.45
800.6536	245.8053	64227	63500.3
800.7961	248.0281	64253.45	63531.9
800.9387	250.2503	64311.65	63586.55
801.0812	252.472	64191.1	63463.5
801.2238	254.6932	64264.3	63537.95
801.3664	256.9139	64231.6	63505.8
801.509	259.134	64444.35	63711.5
801.6516	261.3536	64184.85	63457.75
801.7942	263.5727	64335.15	63602.8
801.9369	265.7912	64256.35	63524.05
802.0795	268.0092	64290.5	63557.2
802.2222	270.2267	64329.2	63598
802.3649	272.4436	64217.95	63481.95
802.5076	274.6601	64330.8	63586
802.6504	276.8759	64372.35	63631.5
802.7931	279.0913	64310.35	63570.3
802.9359	281.3061	64341.85	63598.9
803.0787	283.5204	64341.95	63593.55
803.2215	285.7341	64345.5	63596.35
803.3643	287.9473	64441.5	63683.45
803.5071	290.16	64349.75	63598.65
803.6499	292.3721	64420.65	63677.4
803.7928	294.5837	64318.7	63570.75
803.9357	296.7947	64244.05	63498.05
804.0786	299.0052	64431.2	63682.95
804.2215	301.2152	64357.75	63609.55
804.3644	303.4246	64432.5	63687.1
804.5074	305.6334	64435.05	63687.9
804.6503	307.8418	64320.25	63567
804.7933	310.0495	64333.1	63575.65
804.9363	312.2568	64318.25	63562.95
805.0793	314.4635	64324.3	63566.65
805.2223	316.6696	64383.9	63625.25
805.3653	318.8752	64438.6	63667.1
805.5084	321.0802	64192.7	63429.8
805.6514	323.2847	64332.35	63570.3
805.7945	325.4887	64317.9	63554.75
805.9376	327.692	64249.75	63480.9
806.0807	329.8949	64336.85	63571.95
806.2238	332.0972	64293.7	63525.9
806.367	334.2989	64332.6	63560.1
806.5101	336.5001	64399	63626.25
806.6533	338.7007	64219.4	63450.65
806.7965	340.9008	64306.95	63532.6
806.9397	343.1003	64340.75	63565.1
807.0829	345.2992	64407.2	63630.75
807.2261	347.4976	64309.4	63532.5
807.3693	349.6955	64348.9	63564.8
807.5126	351.8927	64264.1	63482.55
807.6559	354.0895	64366.05	63570
807.7991	356.2856	64357.15	63573.8
807.9424	358.4812	64408.85	63625.55
808.0857	360.6763	64280.4	63492.4
808.2291	362.8707	64397	63609.3
808.3724	365.0646	64330.6	63541.35
808.5158	367.258	64336.5	63542.2
808.6591	369.4508	64248.3	63446.6
808.8025	371.643	64394.2	63595.55
808.9459	373.8346	64327.45	63528.75
809.0893	376.0257	64343.55	63543.35
809.2327	378.2162	64302.6	63501.1
809.3762	380.4062	64192.65	63393
809.5196	382.5956	64297.9	63498.55
809.6631	384.7844	64285.85	63496.6
809.8066	386.9726	64351.6	63560.75
809.9501	389.1603	64340.85	63550.45
810.0936	391.3474	64249.35	63430.2
810.2371	393.5339	64341.05	63547.15
810.3806	395.7199	64171.95	63379.55
810.5241	397.9052	64203.3	63409.95
810.6677	400.09	64244.8	63450.7
810.8113	402.2743	64329.9	63537
810.9548	404.4579	64220.9	63423.3
811.0984	406.641	64227.75	63428.35
811.2421	408.8235	64266.2	63465.55
811.3857	411.0054	64263.3	63462.1
811.5293	413.1868	64302.6	63496.95
811.673	415.3675	64253.1	63443.25
811.8166	417.5477	64272.3	63461.85
811.9603	419.7273	64247.9	63435.4
812.104	421.9064	64232.1	63411.9
812.2477	424.0848	64243	63429.9
812.3914	426.2627	64324.45	63513.3
812.5351	428.4399	64200	63389.3
812.6788	430.6166	64074.1	63257.7
812.8226	432.7928	64236.05	63415.85
812.9663	434.9683	64115.05	63299.2
813.1101	437.1432	64092.1	63270.6
813.2539	439.3176	64213.95	63398.45
813.3977	441.4914	64027.4	63212.2
813.5415	443.6645	64048.9	63232.45
813.6853	445.8371	64081.85	63261.05
813.8291	448.0091	63987.4	63164.1
813.973	450.1806	63945.95	63127.7
814.1168	452.3514	63990.9	63170.75
814.2607	454.5216	63864.55	63036.4
814.4046	456.6913	63967.6	63143.9
814.5485	458.8603	64014.2	63192.1
814.6924	461.0288	63852.5	63032.4
814.8363	463.1967	63981.5	63163.25
814.9802	465.3639	63971.7	63150.45
815.1241	467.5306	63729.3	62905.7
815.2681	469.6967	63850.6	63030.45
815.412	471.8622	63943.4	63120.3
815.556	474.0271	63868.45	63047.85
815.7	476.1914	63885.75	63061.8
815.844	478.3551	63884.45	63059.9
815.988	480.5182	64038.65	63213.75
816.132	482.6807	63808.3	62982
816.276	484.8426	63842.35	63022.45
816.4201	487.0039	64008.15	63185.1
816.5641	489.1647	63986.75	63160.25
816.7082	491.3248	63803.8	62977.1
816.8522	493.4843	64020.4	63192.95
816.9963	495.6432	64030.35	63202.4
817.1404	497.8015	63804.15	62970.95
817.2845	499.9592	63916	63084.7
817.4286	502.1163	63963.6	63130.6
817.5727	504.2728	63935.85	63101.15
817.7168	506.4287	63910.65	63080.1
817.861	508.5839	63792.1	62963.25
818.0051	510.7386	63870.55	63041.3
818.1493	512.8927	63926.55	63089.65
818.2935	515.0461	63872.85	63039.55
818.4377	517.199	63972.95	63137.45
818.5818	519.3512	63869.6	63032.4
818.726	521.5029	63859.25	63017
818.8703	523.6539	63877.9	63040.1
819.0145	525.8043	63714.1	62871.85
819.1587	527.9541	63855.25	63010.55
819.303	530.1033	63858.85	63016.95
819.4472	532.2519	63781.25	62939
819.5915	534.3999	63879.65	63036.35
819.7357	536.5472	63926.05	63085.25
819.88	538.694	63703.1	62866.7
820.0243	540.8401	63831	62987.7
820.1686	542.9856	63847.75	63000.3
820.3129	545.1305	63917.05	63067.9
820.4572	547.2748	63784.4	62935.5
820.6016	549.4185	63770	62917.2
820.7459	551.5615	63889.55	63038.55
820.8902	553.704	63850.35	63001.1
821.0346	555.8458	63771.15	62921.8
821.1789	557.987	63779.9	62935.75
821.3233	560.1276	63811.75	62963.75
821.4677	562.2675	63780.4	62933.7
821.6121	564.4069	63784.15	62935
821.7565	566.5456	63874.65	63029.3
821.9009	568.6837	63719.55	62871.3
822.0453	570.8212	63771.3	62923.7
822.1897	572.958	63596.65	62745.4
822.3342	575.0942	63761.8	62915.3
822.4786	577.2299	63633.15	62788.55
822.6231	579.3648	63609.6	62767.95
822.7675	581.4992	63572.95	62733.7
822.912	583.6329	63549.1	62706.65
823.0565	585.766	63547.4	62703.85
823.201	587.8985	63604.3	62760.65
823.3454	590.0304	63389.15	62516.6
823.4899	592.1616	63541.25	62688.05
823.6345	594.2922	63451.9	62595.75
823.779	596.4222	63331.35	62475.2
823.9235	598.5515	63394.3	62537.35
824.068	600.6802	63472.05	62616.7
824.2126	602.8083	63278.4	62422.35
824.3571	604.9358	63299.6	62443.45
824.5017	607.0626	63415.95	62559.9
824.6462	609.1888	63172.15	62311.75
824.7908	611.3144	63328.95	62467.7
824.9354	613.4393	63279.95	62418.1
825.08	615.5636	63124.75	62265.35
825.2246	617.6873	63256.1	62397.6
825.3692	619.8103	63090.4	62228.85
825.5138	621.9327	63259.8	62397.35
825.6584	624.0544	63269.35	62411.65
825.803	626.1756	63186.9	62328.9
825.9477	628.2961	63178.75	62319.4
826.0923	630.4159	63093.5	62227.65
826.237	632.5351	63013.8	62150
826.3816	634.6537	63299.25	62438.15
826.5263	636.7716	63010.15	62144.7
826.6709	638.8889	63090.5	62221.15
826.8156	641.0056	63078.05	62211.85
826.9603	643.1216	63091.15	62224.9
827.105	645.237	63160.25	62294.75
827.2497	647.3518	62996.45	62132.35
827.3944	649.4659	63054.85	62190.65
827.5391	651.5793	63076.1	62215.15
827.6838	653.6922	63107.25	62247.45
827.8285	655.8043	62861.15	61998.7
827.9733	657.9159	63171.1	62304.3
828.118	660.0268	62621.7	61757.5
828.2627	662.137	62948.35	62080.95
828.4075	664.2466	62968.65	62096.85
828.5522	666.3556	62876.75	62006.9
828.697	668.4639	62955.6	62087.95
828.8418	670.5716	62809.05	61942
828.9865	672.6786	62907.45	62039.35
829.1313	674.785	62725.4	61851.6
829.2761	676.8907	62771.85	61898.65
829.4209	678.9958	62849.8	61982
829.5657	681.1002	62855.75	61985.3
829.7105	683.204	62637	61761.95
829.8553	685.3072	62525.45	61654.45
830.0001	687.4097	62620.35	61748.25
830.1449	689.5115	62562.5	61690.2
830.2898	691.6127	62737.55	61866.8
830.4346	693.7132	62536.3	61668.9
830.5794	695.8131	62603.8	61713.85
830.7243	697.9123	62620.9	61747.9
830.8691	700.0109	62667.05	61791.8
831.014	702.1089	62386.15	61513.85
831.1588	704.2061	62426.65	61554.25
831.3037	706.3028	62477.15	61600.3
831.4486	708.3987	62504.05	61627.85
831.5935	710.4941	62398.55	61524.4
831.7383	712.5887	62560.35	61687.85
831.8832	714.6827	62397.3	61518
832.0281	716.7761	62511.85	61637.15
832.173	718.8688	62568.2	61693.35
832.3179	720.9608	62345.8	61466
832.4628	723.0522	62378.15	61495.65
832.6077	725.1429	62256.55	61378.25
832.7527	727.233	62679.1	61802.6
832.8976	729.3224	62068.5	61189.85
833.0425	731.4112	62265.35	61389.5
833.1874	733.4993	62262.65	61385.05
833.3324	735.5867	62258.35	61379.4
833.4773	737.6735	62121.9	61240.85
833.6222	739.7596	61994.25	61110.6
833.7672	741.845	61991.85	61110.9
833.9122	743.9298	62163.85	61280.7
834.0571	746.014	61959.4	61080.9
834.2021	748.0974	61833.2	60948.2
834.347	750.1802	62098	61210.7
834.492	752.2624	61707.55	60826.4
834.637	754.3439	61728.5	60843.2
834.782	756.4247	61803.2	60912.3
834.9269	758.5048	61618.3	60737.9
835.0719	760.5843	61676	60791
835.2169	762.6631	61739.1	60853.7
835.3619	764.7413	61628.5	60743.75
835.5069	766.8188	61610.7	60724.45
835.6519	768.8956	61671	60787.65
835.7969	770.9718	61658.75	60778.75
835.9419	773.0473	61581.9	60697.5
836.0869	775.1221	61435.25	60551.7
836.232	777.1962	61431.05	60550.8
836.377	779.2697	61210.95	60325.45
836.522	781.3426	61290	60387.55
836.667	783.4147	61295.5	60411.05
836.8121	785.4862	61228.9	60341.85
836.9571	787.557	61056.8	60170.65
837.1021	789.6271	61272.45	60383.7
837.2472	791.6966	61093.8	60207
837.3922	793.7654	60902.1	60017.05
837.5373	795.8335	60976.85	60087.2
837.6823	797.901	61020.25	60134.35
837.8274	799.9678	60891.7	60005.6
837.9724	802.0339	60775.7	59890.2
838.1175	804.0993	60801.55	59904
838.2626	806.1641	60714.35	59826.45
838.4076	808.2282	60659.5	59774.4
838.5527	810.2916	60584.4	59696.55
838.6978	812.3544	60727.95	59843.65
838.8428	814.4164	60419.3	59533.15
838.9879	816.4778	60450.3	59562.25
839.133	818.5385	60435.7	59546.95
839.2781	820.5986	60408.55	59520.05
839.4232	822.658	60450.75	59559.2
839.5682	824.7166	60437.6	59546.4
839.7133	826.7747	60218.4	59330.7
839.8584	828.832	60333.95	59441.35
840.0035	830.8886	60451.6	59558.85
840.1486	832.9446	60408.85	59516.65
840.2937	834.9999	59942.05	59053.3
840.4388	837.0545	60116.3	59224.3
840.5839	839.1085	60202.85	59312.3
840.729	841.1618	60099.45	59206.25
840.8741	843.2143	59792.45	58902.95
841.0192	845.2662	59773.85	58881.9
841.1643	847.3175	59959.7	59068.35
841.3095	849.368	59495.45	58605.3
841.4546	851.4179	59808.05	58917.15
841.5997	853.467	59487	58596.1
841.7448	855.5155	59638.55	58748.6
841.8899	857.5633	59394.95	58503.3
842.0351	859.6105	59284.4	58391.5
842.1802	861.6569	59414.1	58524.2
842.3253	863.7027	59125.95	58230.35
842.4704	865.7478	59193.6	58299.75
842.6156	867.7922	59082.6	58188.8
842.7607	869.8359	59269.4	58378.3
842.9058	871.8789	58931.95	58039.75
843.0509	873.9212	59090.65	58166.2
843.1961	875.9629	59060.25	58167.5
843.3412	878.0039	58987.05	58092.5
843.4863	880.0441	58888.1	57998.8
843.6315	882.0837	58883.6	57989.65
843.7766	884.1226	58883.35	57988.1
843.9218	886.1609	58882.2	57989.8
844.0669	888.1984	58820.8	57926.8
844.212	890.2352	59047.5	58152.5
844.3572	892.2714	58698.9	57800.25
844.5023	894.3069	58850.25	57954
844.6475	896.3416	58647.65	57752.15
844.7926	898.3757	58629.75	57735.35
844.9377	900.4091	58327.95	57430
845.0829	902.4418	58688.15	57787.65
845.228	904.4739	58378.75	57481.35
845.3732	906.5052	58470	57572.95
845.5183	908.5358	58283.15	57386.9
845.6635	910.5658	58206.85	57307.65
845.8086	912.595	58225.55	57327.2
845.9538	914.6236	57921.3	57027.25
846.0989	916.6515	58320.1	57425.3
846.2441	918.6786	57820.05	56924.3
846.3892	920.7051	57919	57019.45
846.5344	922.7309	57915.95	57016.9
846.6795	924.756	57881.05	56983.2
846.8246	926.7804	57729.95	56828.9
846.9698	928.8041	57450.8	56550.9
847.1149	930.8272	57608.6	56711.45
847.2601	932.8495	57558.25	56660.45
847.4052	934.8711	57363.8	56466.4
847.5504	936.892	57244	56345.75
847.6955	938.9123	57243.7	56343.45
847.8407	940.9318	57123.25	56222.9
847.9858	942.9506	57064.4	56167.7
848.131	944.9688	57062.05	56163.3
848.2761	946.9862	56795.5	55899.9
848.4213	949.003	56810.35	55911.1
848.5664	951.019	56586.45	55687.85
848.7115	953.0344	56624.2	55725.75
848.8567	955.0491	56505.6	55607.3
849.0018	957.063	56597.9	55698
849.147	959.0763	56598.75	55699.75
849.2921	961.0888	56429.4	55528.6
849.4373	963.1007	56577.6	55678.4
849.5824	965.1119	56458.75	55560.85
849.7275	967.1223	56399.95	55507.1
849.8727	969.1321	56433.5	55539
850.0178	971.1412	56268.9	55379
850.1629	973.1495	56139.85	55243.1
850.3081	975.1572	56179.5	55246
850.4532	977.1641	56120.6	55220.05
850.5983	979.1704	56060.1	55160.15
850.7435	981.1759	56001.15	55095.25
850.8886	983.1808	55946.7	55045.4
851.0337	985.1849	55878.6	54968.75
851.1788	987.1884	55800.05	54897.15
851.324	989.1911	55844.05	54943.55
851.4691	991.1932	55676.6	54777.05
851.6142	993.1945	55626.85	54728.3
851.7593	995.1951	55540.15	54642.15
851.9045	997.1951	55447.25	54541.7
852.0496	999.1943	55366.8	54467.2
852.1947	1001.1928	55252.15	54350.75
852.3398	1003.1906	55177.25	54277.35
852.4849	1005.1877	55058.6	54157.65
852.63	1007.1841	54948.4	54046.6
852.7751	1009.1798	54907.4	54006.2
852.9202	1011.1748	54791	53892
853.0653	1013.1691	54734	53835.4
853.2104	1015.1627	54562.7	53660.35
853.3555	1017.1556	54445.5	53545.65
853.5006	1019.1477	54414.15	53515.3
853.6457	1021.1392	54233	53336.1
853.7908	1023.1299	54093.85	53197.7
853.9359	1025.12	54052.55	53155.9
854.081	1027.1093	53893.6	53003.85
854.2261	1029.0979	53900.15	53012.95
854.3712	1031.0859	53853	52961.6
854.5163	1033.0731	53719.65	52822.65
854.6613	1035.0596	53670.1	52770.45
854.8064	1037.0454	53519.5	52620.8
854.9515	1039.0304	53455.05	52554.25
855.0965	1041.0148	53345.75	52446.05
855.2416	1042.9985	53300	52398.15
855.3867	1044.9814	53276.95	52377.4
855.5317	1046.9636	53120.65	52219.25
855.6768	1048.9452	53057.75	52159.4
855.8219	1050.926	53028.25	52129.8
855.9669	1052.9061	52976.25	52077.5
856.112	1054.8855	52877.85	51975.55
856.257	1056.8642	52798.1	51896.5
856.4021	1058.8421	52840.4	51936.95
856.5471	1060.8194	52741.3	51842.75
856.6921	1062.7959	52716.15	51815.35
856.8372	1064.7717	52660.9	51761.05
856.9822	1066.7469	52636.65	51734.55
857.1272	1068.7213	52583.9	51680.1
857.2723	1070.695	52544.55	51643.65
857.4173	1072.6679	52415.8	51511.85
857.5623	1074.6402	52423.4	51524.1
857.7073	1076.6117	52367.9	51458.55
857.8523	1078.5826	52335.2	51435.25
857.9973	1080.5527	52277.5	51376.75
858.1423	1082.5221	52209.6	51309.95
858.2873	1084.4908	52157.5	51254.7
858.4323	1086.4587	52081.5	51179.3
858.5773	1088.426	52032.5	51130.45
858.7223	1090.3925	52003.4	51092.95
858.8673	1092.3584	51978.8	51076.85
859.0123	1094.3235	51812.7	50915.7
859.1573	1096.2879	51749.45	50847.3
859.3022	1098.2515	51716.85	50815.1
859.4472	1100.2145	51724.85	50825.15
859.5922	1102.1767	51633.4	50729.2
859.7371	1104.1382	51654.05	50754.15
859.8821	1106.099	51596.75	50695.05
860.027	1108.0591	51545.05	50643.55
860.172	1110.0185	51471.7	50569.1
860.3169	1111.9771	51481.75	50581.8
860.4619	1113.9351	51361.25	50459.7
860.6068	1115.8923	51274.3	50372.05
860.7517	1117.8488	51194.05	50290.85
860.8967	1119.8045	51053.65	50150.5
861.0416	1121.7596	51063.15	50162.15
861.1865	1123.7139	50897.05	49999
861.3314	1125.6675	50865.95	49965.75
861.4763	1127.6204	50908	50008.7
861.6212	1129.5726	50763.25	49860.9
861.7661	1131.524	50766.75	49865.15
861.911	1133.4748	50705.6	49801.2
862.0559	1135.4248	50593	49688.85
862.2008	1137.3741	50587.3	49686.65
862.3457	1139.3226	50487.35	49584
862.4905	1141.2705	50465.6	49563.6
862.6354	1143.2176	50378.8	49472.95
862.7803	1145.164	50252.35	49348.25
862.9251	1147.1097	50257.6	49358.25
863.07	1149.0546	50217.75	49316.55
863.2148	1150.9989	50217.85	49316.4
863.3597	1152.9424	50108	49204.55
863.5045	1154.8852	50139.55	49240.5
863.6493	1156.8272	50014.8	49114.55
863.7942	1158.7686	50119.75	49209.8
863.939	1160.7092	49913.2	49009.95
864.0838	1162.6491	49878.9	48977.9
864.2286	1164.5883	49907.9	49007.25
864.3734	1166.5267	49777.1	48875.3
864.5182	1168.4644	49825.4	48924.05
864.663	1170.4014	49775.55	48867.75
864.8078	1172.3377	49859.25	48959.75
864.9526	1174.2732	49835.75	48933.6
865.0974	1176.2081	49791.2	48891.95
865.2421	1178.1421	49752.3	48846.95
865.3869	1180.0755	49873.4	48974.25
865.5317	1182.0082	49776.05	48876.05
