Software Version:	3.9.2.0
Unit SN:	10000200
Spectrometer SN:	6960
Date:	3/6/2024 9:25:34 AM
Data Line Index:	25
Spectral Points:	2048
Integration time (ms):	125
Averages:	20
Delay (ms):	30
Sequence Number:	1
Processing:	dark subtract
Laser Power (mW):	300
Laser Current (mA):	815
Laser Diode Temp (C):	25.1
Laser Case Temp (C):	22.7
System Temp (C):	22.6
Spectrometer Temp (C):	20.6
CCD Temp (C):	-0.037
Secondary Temp (C):	20.011
Heatsink Temp (C):	17.393
CCDPCB Temp (C):	29.437
SecondaryPCB Temp (C):	24.946

Wavelength	RamanShift	Raw Counts	Dark Subtracted
787.061	30.1047	650.25	242.5
787.2016	32.3739	665.25	258.5
787.3422	34.6426	674.9	267.65
787.4828	36.9109	689.1	281.45
787.6235	39.1787	711.15	298
787.7642	41.4461	726.95	310
787.9049	43.7131	752.25	331.4
788.0456	45.9796	779.85	356.65
788.1863	48.2456	798.35	372.55
788.3271	50.5112	824.25	391.95
788.4679	52.7764	844.25	410.85
788.6087	55.0411	875.15	436.45
788.7496	57.3054	905.1	461.7
788.8904	59.5692	933	490.6
789.0313	61.8326	963.2	516.45
789.1722	64.0955	1012.95	563.15
789.3132	66.3579	1055.55	600.1
789.4541	68.6199	1118.75	659.95
789.5951	70.8815	1218.05	755.05
789.7361	73.1426	1439.2	971.7
789.8771	75.4032	2003.45	1534.65
790.0181	77.6634	3387	2915.6
790.1592	79.9231	6841.4	6367.35
790.3003	82.1824	14378.2	13900
790.4414	84.4412	29524.2	29039.05
790.5825	86.6995	52972.8	52483.75
790.7237	88.9574	63428.2	62935.65
790.8648	91.2148	65535	65040.15
791.006	93.4717	65535	65033.5
791.1472	95.7282	65535	65032.95
791.2885	97.9842	65535	65030.3
791.4297	100.2398	65535	65030.35
791.571	102.4949	65535	65025.35
791.7123	104.7495	65535	65023.55
791.8536	107.0036	65535	65023
791.9949	109.2573	65535	65024.5
792.1363	111.5105	65535	65019.7
792.2777	113.7632	65535	65019.55
792.4191	116.0154	65535	65006.9
792.5605	118.2672	65535	65011.95
792.7019	120.5185	65535	65011.45
792.8434	122.7693	65535	65007
792.9849	125.0197	65535	65000.9
793.1264	127.2696	65535	65000.4
793.2679	129.519	65535	64996.8
793.4094	131.7679	65535	64999
793.551	134.0163	65535	64994.4
793.6926	136.2642	65535	64992.5
793.8342	138.5117	65535	64987.45
793.9758	140.7587	65535	64985.6
794.1175	143.0052	65535	64982.4
794.2591	145.2512	65535	64981.65
794.4008	147.4967	65535	64979.6
794.5425	149.7417	65535	64977.15
794.6842	151.9863	65535	64971.55
794.826	154.2304	65535	64967.7
794.9677	156.4739	65535	64961.65
795.1095	158.717	65535	64963.25
795.2513	160.9596	65535	64958.1
795.3931	163.2017	65535	64957.9
795.535	165.4433	65535	64956.25
795.6768	167.6844	65535	64953
795.8187	169.925	65535	64948.5
795.9606	172.1651	65535	64944.7
796.1025	174.4047	65535	64940.5
796.2445	176.6439	65535	64940.3
796.3864	178.8825	65535	64936.15
796.5284	181.1206	65535	64932.1
796.6704	183.3582	65535	64930.95
796.8124	185.5954	65535	64930
796.9544	187.832	65535	64921.5
797.0965	190.0681	65535	64921.55
797.2386	192.3037	65535	64915.45
797.3806	194.5388	65535	64914.55
797.5228	196.7734	65535	64915.5
797.6649	199.0075	65535	64913.05
797.807	201.2411	65535	64911.75
797.9492	203.4742	65535	64907.5
798.0914	205.7068	65535	64904.55
798.2336	207.9389	65535	64908.5
798.3758	210.1704	65535	64917.35
798.518	212.4015	65535	64924.95
798.6603	214.632	65535	64927.4
798.8025	216.862	65535	64927.2
798.9448	219.0915	65535	64924.6
799.0871	221.3205	65535	64923.8
799.2294	223.549	65535	64929.3
799.3718	225.777	65535	64924.45
799.5141	228.0044	65535	64914.5
799.6565	230.2314	65535	64913.8
799.7989	232.4578	65535	64911.1
799.9413	234.6837	65535	64900.2
800.0837	236.909	65535	64900.15
800.2262	239.1339	65535	64874.5
800.3687	241.3582	65535	64890.55
800.5111	243.582	65535	64859.85
800.6536	245.8053	65535	64872.2
800.7961	248.0281	65535	64879.25
800.9387	250.2503	65535	64875.7
801.0812	252.472	65535	64872.75
801.2238	254.6932	65535	64875.25
801.3664	256.9139	65535	64873
801.509	259.134	65535	64870
801.6516	261.3536	65535	64869.4
801.7942	263.5727	65535	64870.05
801.9369	265.7912	65535	64871.35
802.0795	268.0092	65535	64870.2
802.2222	270.2267	65535	64866.2
802.3649	272.4436	65535	64864.7
802.5076	274.6601	65535	64854.45
802.6504	276.8759	65535	64859.1
802.7931	279.0913	65535	64858.05
802.9359	281.3061	65535	64857.45
803.0787	283.5204	65535	64854.75
803.2215	285.7341	65535	64854.95
803.3643	287.9473	65535	64841.9
803.5071	290.16	65535	64849.65
803.6499	292.3721	65535	64854.9
803.7928	294.5837	65535	64853.5
803.9357	296.7947	65535	64853.95
804.0786	299.0052	65535	64851.1
804.2215	301.2152	65535	64848.9
804.3644	303.4246	65535	64849.2
804.5074	305.6334	65535	64849.35
804.6503	307.8418	65535	64848.1
804.7933	310.0495	65535	64844.55
804.9363	312.2568	65535	64845.9
805.0793	314.4635	65535	64843.2
805.2223	316.6696	65535	64839.95
805.3653	318.8752	65535	64827.95
805.5084	321.0802	65535	64837.1
805.6514	323.2847	65535	64837.15
805.7945	325.4887	65535	64835.7
805.9376	327.692	65535	64832.5
806.0807	329.8949	65535	64833.7
806.2238	332.0972	65535	64830.5
806.367	334.2989	65535	64827.1
806.5101	336.5001	65535	64827.5
806.6533	338.7007	65535	64827.2
806.7965	340.9008	65535	64824.85
806.9397	343.1003	65535	64822.4
807.0829	345.2992	65535	64820.6
807.2261	347.4976	65535	64823.8
807.3693	349.6955	65535	64816.25
807.5126	351.8927	65535	64815.4
807.6559	354.0895	65535	64804.45
807.7991	356.2856	65535	64811.25
807.9424	358.4812	65535	64812.65
808.0857	360.6763	65535	64808.3
808.2291	362.8707	65535	64809.5
808.3724	365.0646	65535	64802.65
808.5158	367.258	65535	64803.15
808.6591	369.4508	65535	64799.3
808.8025	371.643	65535	64801.6
808.9459	373.8346	65535	64798.8
809.0893	376.0257	65535	64796.9
809.2327	378.2162	65535	64797.65
809.3762	380.4062	65535	64799.8
809.5196	382.5956	65535	64798.35
809.6631	384.7844	65535	64805.75
809.8066	386.9726	65535	64806.9
809.9501	389.1603	65535	64804.85
810.0936	391.3474	65535	64755.5
810.2371	393.5339	65535	64800.6
810.3806	395.7199	65535	64802.65
810.5241	397.9052	65535	64803.05
810.6677	400.09	65535	64799.4
810.8113	402.2743	65535	64798.9
810.9548	404.4579	65535	64797.5
811.0984	406.641	65535	64794.35
811.2421	408.8235	65535	64792.45
811.3857	411.0054	65535	64790.05
811.5293	413.1868	65535	64785.6
811.673	415.3675	65535	64784.5
811.8166	417.5477	65535	64784.25
811.9603	419.7273	65535	64781.9
812.104	421.9064	65535	64773.9
812.2477	424.0848	65535	64781.1
812.3914	426.2627	65535	64778.1
812.5351	428.4399	65535	64777.4
812.6788	430.6166	65535	64773.45
812.8226	432.7928	65535	64772.75
812.9663	434.9683	65535	64773.6
813.1101	437.1432	65535	64771.4
813.2539	439.3176	65535	64773.8
813.3977	441.4914	65535	64774.5
813.5415	443.6645	65535	64771.55
813.6853	445.8371	65535	64770.7
813.8291	448.0091	65535	64771.55
813.973	450.1806	65535	64769.1
814.1168	452.3514	65535	64769.5
814.2607	454.5216	65535	64758
814.4046	456.6913	65535	64767.55
814.5485	458.8603	65535	64764.1
814.6924	461.0288	65535	64767
814.8363	463.1967	65535	64767.15
814.9802	465.3639	65535	64763.55
815.1241	467.5306	65535	64763.75
815.2681	469.6967	65535	64763.95
815.412	471.8622	65535	64762.75
815.556	474.0271	65535	64762.75
815.7	476.1914	65535	64761.3
815.844	478.3551	65535	64760.6
815.988	480.5182	65535	64760.95
816.132	482.6807	65535	64758.35
816.276	484.8426	65535	64761.95
816.4201	487.0039	65535	64757.3
816.5641	489.1647	65535	64759.05
816.7082	491.3248	65535	64755.65
816.8522	493.4843	65535	64756.35
816.9963	495.6432	65535	64756.8
817.1404	497.8015	65535	64751.25
817.2845	499.9592	65535	64754.85
817.4286	502.1163	65535	64752.95
817.5727	504.2728	65535	64749.7
817.7168	506.4287	65535	64753.9
817.861	508.5839	65535	64750.25
818.0051	510.7386	65535	64749.6
818.1493	512.8927	65535	64742.6
818.2935	515.0461	65535	64748.1
818.4377	517.199	65535	64750
818.5818	519.3512	65535	64748.9
818.726	521.5029	65535	64742.3
818.8703	523.6539	65535	64745.25
819.0145	525.8043	65535	64746.5
819.1587	527.9541	65535	64742.3
819.303	530.1033	65535	64744.1
819.4472	532.2519	65535	64743.4
819.5915	534.3999	65535	64741.8
819.7357	536.5472	65535	64743
819.88	538.694	65535	64742.65
820.0243	540.8401	65535	64739.5
820.1686	542.9856	65535	64741.45
820.3129	545.1305	65535	64740.5
820.4572	547.2748	65535	64739.95
820.6016	549.4185	65535	64739.25
820.7459	551.5615	65535	64739.95
820.8902	553.704	65535	64739.9
821.0346	555.8458	65535	64739.6
821.1789	557.987	65535	64739.5
821.3233	560.1276	65535	64739.25
821.4677	562.2675	65535	64739.8
821.6121	564.4069	65535	64738.95
821.7565	566.5456	65535	64737.7
821.9009	568.6837	65535	64735.55
822.0453	570.8212	65535	64738.9
822.1897	572.958	65535	64733.5
822.3342	575.0942	65535	64735.8
822.4786	577.2299	65535	64732.35
822.6231	579.3648	65535	64732.05
822.7675	581.4992	65535	64729.8
822.912	583.6329	65535	64731
823.0565	585.766	65535	64731.45
823.201	587.8985	65535	64731.35
823.3454	590.0304	65535	64705.6
823.4899	592.1616	65535	64727.5
823.6345	594.2922	65535	64729.4
823.779	596.4222	65535	64729.25
823.9235	598.5515	65535	64726.25
824.068	600.6802	65535	64728
824.2126	602.8083	65535	64727.8
824.3571	604.9358	65535	64726.9
824.5017	607.0626	65535	64725.45
824.6462	609.1888	65535	64726.3
824.7908	611.3144	65535	64725.2
824.9354	613.4393	65535	64725.7
825.08	615.5636	65535	64724.7
825.2246	617.6873	65535	64724
825.3692	619.8103	65535	64722.1
825.5138	621.9327	65535	64718.4
825.6584	624.0544	65535	64720.75
825.803	626.1756	65535	64722.6
825.9477	628.2961	65535	64721.85
826.0923	630.4159	65535	64721.4
826.237	632.5351	65535	64718.9
826.3816	634.6537	65535	64718.85
826.5263	636.7716	65535	64716.8
826.6709	638.8889	65535	64716.75
826.8156	641.0056	65535	64719.35
826.9603	643.1216	65535	64714.15
827.105	645.237	65535	64713.7
827.2497	647.3518	65535	64715.55
827.3944	649.4659	65535	64715.55
827.5391	651.5793	65535	64715.45
827.6838	653.6922	65535	64716.95
827.8285	655.8043	65535	64715.45
827.9733	657.9159	65535	64714.05
828.118	660.0268	65535	64712.65
828.2627	662.137	65535	64713.7
828.4075	664.2466	65535	64710.75
828.5522	666.3556	65535	64712.45
828.697	668.4639	65535	64709.3
828.8418	670.5716	65535	64710.55
828.9865	672.6786	65535	64708.85
829.1313	674.785	65535	64708.65
829.2761	676.8907	65535	64708.5
829.4209	678.9958	65535	64709.3
829.5657	681.1002	65535	64708.1
829.7105	683.204	65535	64704.6
829.8553	685.3072	65535	64706.4
830.0001	687.4097	65535	64707.8
830.1449	689.5115	65535	64706.85
830.2898	691.6127	65535	64707.6
830.4346	693.7132	65535	64708
830.5794	695.8131	65535	64684.7
830.7243	697.9123	65535	64706.25
830.8691	700.0109	65535	64705.65
831.014	702.1089	65535	64707.45
831.1588	704.2061	65535	64705.85
831.3037	706.3028	65535	64704.95
831.4486	708.3987	65535	64703.25
831.5935	710.4941	65535	64703.25
831.7383	712.5887	65535	64702.8
831.8832	714.6827	65535	64699.85
832.0281	716.7761	65535	64704.2
832.173	718.8688	65535	64701.25
832.3179	720.9608	65535	64697.85
832.4628	723.0522	65535	64697.6
832.6077	725.1429	65535	64701.65
832.7527	727.233	65535	64700.4
832.8976	729.3224	65535	64700.1
833.0425	731.4112	65535	64700.05
833.1874	733.4993	65535	64696.15
833.3324	735.5867	65535	64696
833.4773	737.6735	65535	64697.35
833.6222	739.7596	65535	64697.65
833.7672	741.845	65535	64695.8
833.9122	743.9298	65535	64695.7
834.0571	746.014	65535	64698.35
834.2021	748.0974	65535	64696.2
834.347	750.1802	65535	64697.2
834.492	752.2624	65535	64697.4
834.637	754.3439	65535	64696.5
834.782	756.4247	65535	64686.65
834.9269	758.5048	65535	64695.05
835.0719	760.5843	65535	64695.75
835.2169	762.6631	65535	64695.2
835.3619	764.7413	65535	64697.1
835.5069	766.8188	65535	64693.2
835.6519	768.8956	65535	64692.8
835.7969	770.9718	65535	64693.75
835.9419	773.0473	65535	64694.75
836.0869	775.1221	65535	64694.85
836.232	777.1962	65535	64693.2
836.377	779.2697	65535	64692
836.522	781.3426	65535	64678.9
836.667	783.4147	65535	64691.75
836.8121	785.4862	65535	64694.3
836.9571	787.557	65535	64692.9
837.1021	789.6271	65535	64693.65
837.2472	791.6966	65535	64690.8
837.3922	793.7654	65535	64688.35
837.5373	795.8335	65535	64693.5
837.6823	797.901	65535	64690.6
837.8274	799.9678	65535	64690.75
837.9724	802.0339	65535	64691.1
838.1175	804.0993	65535	64679.8
838.2626	806.1641	65535	64689.95
838.4076	808.2282	65535	64691.05
838.5527	810.2916	65535	64686.3
838.6978	812.3544	65535	64689.9
838.8428	814.4164	65535	64690.25
838.9879	816.4778	65535	64687.8
839.133	818.5385	65535	64689.7
839.2781	820.5986	65535	64689
839.4232	822.658	65535	64687.5
839.5682	824.7166	65535	64687.95
839.7133	826.7747	65535	64688.7
839.8584	828.832	65535	64686.55
840.0035	830.8886	65535	64686.4
840.1486	832.9446	65535	64684.5
840.2937	834.9999	65535	64688.95
840.4388	837.0545	65535	64682.3
840.5839	839.1085	65535	64687
840.729	841.1618	65535	64683.65
840.8741	843.2143	65533.45	64685.3
841.0192	845.2662	65532.7	64682.95
841.1643	847.3175	65535	64684.2
841.3095	849.368	65516	64669.25
841.4546	851.4179	65535	64687.65
841.5997	853.467	65528.85	64679.1
841.7448	855.5155	65535	64684.5
841.8899	857.5633	65526.4	64675
842.0351	859.6105	65521.45	64668.6
842.1802	861.6569	65529.55	64678.05
842.3253	863.7027	65498.7	64647.05
842.4704	865.7478	65517.6	64665.95
842.6156	867.7922	65512.95	64663.6
842.7607	869.8359	65525.1	64673.25
842.9058	871.8789	65471.9	64618.65
843.0509	873.9212	65509.25	64627.1
843.1961	875.9629	65515.15	64663.15
843.3412	878.0039	65484.1	64631.65
843.4863	880.0441	65460.75	64607.6
843.6315	882.0837	65485.85	64632.15
843.7766	884.1226	65490.1	64634.05
843.9218	886.1609	65493.6	64640.65
844.0669	888.1984	65455.85	64605.35
844.212	890.2352	65513.65	64661.25
844.3572	892.2714	65453.75	64596.75
844.5023	894.3069	65506.95	64652.3
844.6475	896.3416	65439.8	64584.95
844.7926	898.3757	65406.2	64550.8
844.9377	900.4091	65185.45	64328.85
845.0829	902.4418	65488.15	64629.45
845.228	904.4739	65378.8	64522.3
845.3732	906.5052	65398.7	64541.7
845.5183	908.5358	65311.4	64456.7
845.6635	910.5658	65293.1	64437.4
845.8086	912.595	65318.55	64462.75
845.9538	914.6236	64990.65	64135.9
846.0989	916.6515	65440	64584.5
846.2441	918.6786	65011.7	64154.8
846.3892	920.7051	65154.7	64296
846.5344	922.7309	65055.25	64199.25
846.6795	924.756	65144.6	64289.05
846.8246	926.7804	64985.2	64126.8
846.9698	928.8041	64552.8	63694.2
847.1149	930.8272	64936.45	64077.05
847.2601	932.8495	65000.8	64140.8
847.4052	934.8711	64708.85	63850.45
847.5504	936.892	64443.15	63583.9
847.6955	938.9123	64765.85	63907.35
847.8407	940.9318	64574.65	63716.65
847.9858	942.9506	64555.5	63695.85
848.131	944.9688	64639.55	63780.8
848.2761	946.9862	64085.1	63225.9
848.4213	949.003	64379.3	63520.2
848.5664	951.019	63831.6	62972.05
848.7115	953.0344	63966.4	63106.85
848.8567	955.0491	63893.25	63032.75
849.0018	957.063	64049.55	63191.2
849.147	959.0763	64092.5	63233.9
849.2921	961.0888	63619.45	62757.7
849.4373	963.1007	63936.45	63075.1
849.5824	965.1119	63958.9	63100.65
849.7275	967.1223	63588.95	62728.7
849.8727	969.1321	63994.5	63135
850.0178	971.1412	63464.3	62606.5
850.1629	973.1495	63248.85	62389.35
850.3081	975.1572	63627.4	62718.4
850.4532	977.1641	63311.6	62451.05
850.5983	979.1704	63254.5	62390.6
850.7435	981.1759	63339.15	62474.7
850.8886	983.1808	62981.25	62119.25
851.0337	985.1849	62925.05	62058.25
851.1788	987.1884	63003.35	62138.3
851.324	989.1911	63218.7	62353.25
851.4691	991.1932	62276.95	61414.85
851.6142	993.1945	62526.6	61664.25
851.7593	995.1951	62851.95	61989.85
851.9045	997.1951	62356.4	61486
852.0496	999.1943	62251.35	61390.85
852.1947	1001.1928	62060.9	61198.4
852.3398	1003.1906	62232.6	61371.05
852.4849	1005.1877	61546.8	60683.05
852.63	1007.1841	61410.1	60546.65
852.7751	1009.1798	61532.5	60670.15
852.9202	1011.1748	61633.85	60771.6
853.0653	1013.1691	61595.4	60730.15
853.2104	1015.1627	60123.7	59260.55
853.3555	1017.1556	60888.9	60025
853.5006	1019.1477	61155.6	60290.35
853.6457	1021.1392	60486.1	59623.25
853.7908	1023.1299	59562.1	58696.95
853.9359	1025.12	60196.55	59331.6
854.081	1027.1093	59685.25	58821.35
854.2261	1029.0979	59625.5	58763.45
854.3712	1031.0859	59548.65	58685.15
854.5163	1033.0731	58899.15	58032.05
854.6613	1035.0596	59287.55	58423.7
854.8064	1037.0454	59184.5	58319.45
854.9515	1039.0304	58868.5	58003.15
855.0965	1041.0148	57977.1	57111.4
855.2416	1042.9985	58254.95	57390.45
855.3867	1044.9814	58801.7	57937.7
855.5317	1046.9636	57849.4	56982.55
855.6768	1048.9452	58013.8	57150.45
855.8219	1050.926	57841.55	56977.35
855.9669	1052.9061	57855.05	56988.9
856.112	1054.8855	57923.9	57060.8
856.257	1056.8642	57429.7	56564.35
856.4021	1058.8421	57062.3	56192
856.5471	1060.8194	57158.7	56293.25
856.6921	1062.7959	56829.1	55963.35
856.8372	1064.7717	57343.55	56474.8
856.9822	1066.7469	56989.6	56121.05
857.1272	1068.7213	57054.9	56186.1
857.2723	1070.695	56705.9	55839.35
857.4173	1072.6679	56291.6	55423.75
857.5623	1074.6402	56685.25	55819.3
857.7073	1076.6117	56303.15	55431.15
857.8523	1078.5826	56304.65	55437.4
857.9973	1080.5527	56371.55	55501.85
858.1423	1082.5221	55869.6	55002.7
858.2873	1084.4908	55942.05	55072.1
858.4323	1086.4587	55631.95	54765
858.5773	1088.426	55600.05	54731.55
858.7223	1090.3925	55419.15	54545.45
858.8673	1092.3584	55329.4	54461.2
859.0123	1094.3235	54885.8	54017.5
859.1573	1096.2879	54960.75	54093.8
859.3022	1098.2515	55141.15	54271.8
859.4472	1100.2145	54911.1	54043.85
859.5922	1102.1767	54700.6	53829.75
859.7371	1104.1382	54879.75	54010.35
859.8821	1106.099	54719.35	53847.45
860.027	1108.0591	54597.7	53728.3
860.172	1110.0185	54060.9	53190.3
860.3169	1111.9771	54658.45	53788.3
860.4619	1113.9351	54465.95	53597.2
860.6068	1115.8923	54340.05	53469.6
860.7517	1117.8488	54200.35	53330.35
860.8967	1119.8045	53849.1	52979.95
861.0416	1121.7596	53870.75	53000.7
861.1865	1123.7139	53485.8	52615.55
861.3314	1125.6675	53375.4	52506.1
861.4763	1127.6204	53207.55	52337.1
861.6212	1129.5726	52895.75	52022.75
861.7661	1131.524	53138.5	52270.25
861.911	1133.4748	53067.9	52199
862.0559	1135.4248	52626.45	51755.05
862.2008	1137.3741	52580.35	51709.9
862.3457	1139.3226	52424.5	51551.55
862.4905	1141.2705	52400.65	51531.1
862.6354	1143.2176	52214.95	51339.3
862.7803	1145.164	51964.35	51091.4
862.9251	1147.1097	52090.75	51220.15
863.07	1149.0546	51975.85	51103.05
863.2148	1150.9989	52062.1	51191.85
863.3597	1152.9424	51720.05	50849
863.5045	1154.8852	51799.3	50927.6
863.6493	1156.8272	51548.45	50678
863.7942	1158.7686	51930.3	51052.75
863.939	1160.7092	51312.9	50441.65
864.0838	1162.6491	51207.85	50336.4
864.2286	1164.5883	51370.15	50499.35
864.3734	1166.5267	51051.15	50179.25
864.5182	1168.4644	51250.95	50379.2
864.663	1170.4014	51054.2	50179.15
864.8078	1172.3377	51246.8	50376.7
864.9526	1174.2732	51341.2	50470.1
865.0974	1176.2081	51100.55	50229.2
865.2421	1178.1421	51135.45	50260.05
865.3869	1180.0755	51470.05	50600.75
865.5317	1182.0082	51351.5	50480.1
865.6764	1183.9401	51341.75	50469
865.8212	1185.8713	50931.3	50059.1
865.9659	1187.8017	50703.55	49832.55
866.1106	1189.7315	50598.45	49727.3
866.2554	1191.6605	50200.25	49328.8
866.4001	1193.5888	49952.65	49080.05
866.5448	1195.5163	49664.1	48793.05
866.6895	1197.4432	49631.5	48756.95
866.8342	1199.3693	49445.75	48575.2
866.9789	1201.2947	49286.8	48410.25
867.1236	1203.2193	49229.5	48354.25
867.2683	1205.1432	48921.15	48047.1
867.413	1207.0664	48808.45	47934.35
867.5576	1208.9889	48734.8	47859.35
867.7023	1210.9106	48574.6	47700.3
867.847	1212.8316	48392.4	47519.4
867.9916	1214.7519	48379.7	47498.15
868.1363	1216.6715	48217.9	47345.9
868.2809	1218.5903	48205.95	47331.85
868.4255	1220.5084	48081.3	47208.6
868.5701	1222.4257	48083.15	47209.7
868.7148	1224.3424	47826.2	46953.55
868.8594	1226.2583	47767.15	46886.65
