Software Version:	3.9.2.0
Unit SN:	10000200
Spectrometer SN:	6960
Date:	3/6/2024 10:03:19 AM
Data Line Index:	25
Spectral Points:	2048
Integration time (ms):	125
Averages:	20
Delay (ms):	30
Sequence Number:	1
Processing:	dark subtract
Laser Power (mW):	300
Laser Current (mA):	826
Laser Diode Temp (C):	25.1
Laser Case Temp (C):	24.7
System Temp (C):	24.5
Spectrometer Temp (C):	22.1
CCD Temp (C):	0.001
Secondary Temp (C):	20.01
Heatsink Temp (C):	18.577
CCDPCB Temp (C):	31.16
SecondaryPCB Temp (C):	26.147

Wavelength	RamanShift	Raw Counts	Dark Subtracted
787.061	30.1047	737.95	330.2
787.2016	32.3739	750.1	345.25
787.3422	34.6426	771.65	365.6
787.4828	36.9109	791.15	384
787.6235	39.1787	828.3	417.35
787.7642	41.4461	853.45	437.35
787.9049	43.7131	884.4	463.5
788.0456	45.9796	908.05	483.75
788.1863	48.2456	945.6	517.4
788.3271	50.5112	975.2	544
788.4679	52.7764	1012.25	578.45
788.6087	55.0411	1045.05	606.05
788.7496	57.3054	1092.3	647.6
788.8904	59.5692	1127.75	682.3
789.0313	61.8326	1173.9	725.95
789.1722	64.0955	1227.9	778.1
789.3132	66.3579	1287.3	830.15
789.4541	68.6199	1365.45	905.2
789.5951	70.8815	1499.6	1035.95
789.7361	73.1426	1785.2	1316.5
789.8771	75.4032	2529.25	2058.65
790.0181	77.6634	4418.85	3943.1
790.1592	79.9231	9169.2	8689.65
790.3003	82.1824	22916.9	22424.55
790.4414	84.4412	44614.3	44107.9
790.5825	86.6995	55236.4	54711.75
790.7237	88.9574	59366.25	58823.3
790.8648	91.2148	61256.95	60702.1
791.006	93.4717	61914.7	61352.5
791.1472	95.7282	62192.5	61626.3
791.2885	97.9842	62290.5	61720.25
791.4297	100.2398	62331.45	61759.35
791.571	102.4949	62291.6	61716.75
791.7123	104.7495	62330.6	61754.15
791.8536	107.0036	62272	61692.7
791.9949	109.2573	62361.05	61784.2
792.1363	111.5105	62274.65	61692.05
792.2777	113.7632	62332.6	61750.65
792.4191	116.0154	62348.15	61751.7
792.5605	118.2672	62390.7	61805.2
792.7019	120.5185	62394.95	61808.55
792.8434	122.7693	62393.7	61802.2
792.9849	125.0197	62362.15	61764.95
793.1264	127.2696	62446.35	61847.4
793.2679	129.519	62471.75	61868.45
793.4094	131.7679	62513.45	61907.8
793.551	134.0163	62378.35	61766.25
793.6926	136.2642	62415.9	61804.15
793.8342	138.5117	62514.75	61899.85
793.9758	140.7587	62499.4	61885.1
794.1175	143.0052	62514.05	61894.9
794.2591	145.2512	62442.05	61821.75
794.4008	147.4967	62503.15	61882.4
794.5425	149.7417	62483.55	61857.7
794.6842	151.9863	62490.5	61862.95
794.826	154.2304	62426.65	61797
794.9677	156.4739	62481.55	61840.65
795.1095	158.717	62491.4	61852.9
795.2513	160.9596	62477.5	61836.95
795.3931	163.2017	62421.05	61777.2
795.535	165.4433	62496.25	61847.8
795.6768	167.6844	62435.65	61786.45
795.8187	169.925	62462.9	61812.1
795.9606	172.1651	62439.05	61784.35
796.1025	174.4047	62421.75	61764.65
796.2445	176.6439	62444.7	61787.25
796.3864	178.8825	62459.5	61800.3
796.5284	181.1206	62467.25	61799.6
796.6704	183.3582	62462.8	61790.1
796.8124	185.5954	62420.05	61749.55
796.9544	187.832	62463.15	61786.3
797.0965	190.0681	62453.5	61774.25
797.2386	192.3037	62499.6	61816.05
797.3806	194.5388	62555.6	61869.15
797.5228	196.7734	62433.5	61745.55
797.6649	199.0075	62522.05	61831.65
797.807	201.2411	62555.2	61865
797.9492	203.4742	62566.8	61872.6
798.0914	205.7068	62577.45	61883.15
798.2336	207.9389	62602.45	61904.95
798.3758	210.1704	62586.35	61889.95
798.518	212.4015	62638.8	61951.95
798.6603	214.632	62569.6	61891.3
798.8025	216.862	62629.35	61954.9
798.9448	219.0915	62650.7	61973.15
799.0871	221.3205	62618.45	61935.65
799.2294	223.549	62673.1	62000.2
799.3718	225.777	62679.5	62003.25
799.5141	228.0044	62693.9	62014.4
799.6565	230.2314	62705	62023.05
799.7989	232.4578	62702.75	62017.85
799.9413	234.6837	62699.9	62003.7
800.0837	236.909	62804.05	62106.7
800.2262	239.1339	62695.65	61973.75
800.3687	241.3582	62738.5	62029.45
800.5111	243.582	62735.9	62000.5
800.6536	245.8053	62744.95	62018.05
800.7961	248.0281	62747.85	62026.15
800.9387	250.2503	62762.35	62035.35
801.0812	252.472	62727.6	61999.5
801.2238	254.6932	62737.75	62009.25
801.3664	256.9139	62753.85	62023.45
801.509	259.134	62796.1	62063.4
801.6516	261.3536	62694.9	61966.7
801.7942	263.5727	62791.25	62057.05
801.9369	265.7912	62758.85	62025.65
802.0795	268.0092	62773.6	62041.75
802.2222	270.2267	62779.6	62044.55
802.3649	272.4436	62754.65	62021.35
802.5076	274.6601	62780.8	62038.25
802.6504	276.8759	62791.6	62051.65
802.7931	279.0913	62778.65	62038.7
802.9359	281.3061	62769.25	62027.75
803.0787	283.5204	62796.75	62051.15
803.2215	285.7341	62778.35	62026.35
803.3643	287.9473	62834.2	62075.05
803.5071	290.16	62785	62031.75
803.6499	292.3721	62866.7	62121.25
803.7928	294.5837	62774.05	62027.05
803.9357	296.7947	62754.9	62009.75
804.0786	299.0052	62819.95	62071.25
804.2215	301.2152	62780.1	62027.45
804.3644	303.4246	62845.85	62096.65
804.5074	305.6334	62810.05	62062.6
804.6503	307.8418	62768.85	62015.85
804.7933	310.0495	62801.35	62043.3
804.9363	312.2568	62765.05	62010.65
805.0793	314.4635	62768.05	62011.95
805.2223	316.6696	62765.3	62004.55
805.3653	318.8752	62785.9	62017.25
805.5084	321.0802	62691.6	61927.15
805.6514	323.2847	62733.8	61971.1
805.7945	325.4887	62745.95	61982.45
805.9376	327.692	62715	61951.35
806.0807	329.8949	62757.5	61987.75
806.2238	332.0972	62724.35	61953.95
806.367	334.2989	62729.65	61956.45
806.5101	336.5001	62761.3	61987.1
806.6533	338.7007	62718.3	61944.8
806.7965	340.9008	62736.5	61961.9
806.9397	343.1003	62724.8	61947.7
807.0829	345.2992	62764.05	61987.4
807.2261	347.4976	62713.9	61934.65
807.3693	349.6955	62733.3	61951.85
807.5126	351.8927	62733.5	61949.15
807.6559	354.0895	62741.35	61946.55
807.7991	356.2856	62749.4	61963.45
807.9424	358.4812	62749.75	61962.75
808.0857	360.6763	62734.25	61945.85
808.2291	362.8707	62741.5	61950.6
808.3724	365.0646	62733.7	61941.1
808.5158	367.258	62731.55	61940.7
808.6591	369.4508	62718.15	61922.6
808.8025	371.643	62710.4	61912.3
808.9459	373.8346	62717.35	61917.8
809.0893	376.0257	62701.9	61899.1
809.2327	378.2162	62694.8	61895.8
809.3762	380.4062	62696.1	61893.9
809.5196	382.5956	62689.25	61887.8
809.6631	384.7844	62687.7	61894.1
809.8066	386.9726	62685.3	61893.05
809.9501	389.1603	62687.55	61895.5
810.0936	391.3474	62662.65	61837
810.2371	393.5339	62692.5	61897.1
810.3806	395.7199	62626.3	61833
810.5241	397.9052	62620.25	61827.6
810.6677	400.09	62618	61824.75
810.8113	402.2743	62661.3	61864.6
810.9548	404.4579	62650.2	61855.8
811.0984	406.641	62628.3	61827.75
811.2421	408.8235	62650.35	61848.75
811.3857	411.0054	62648.85	61845.45
811.5293	413.1868	62657.2	61854.65
811.673	415.3675	62655.85	61845.95
811.8166	417.5477	62659.3	61849.6
811.9603	419.7273	62654.75	61839.9
812.104	421.9064	62611.65	61793.1
812.2477	424.0848	62628.7	61816.6
812.3914	426.2627	62639.45	61824
812.5351	428.4399	62611.35	61797.9
812.6788	430.6166	62584.8	61764.2
812.8226	432.7928	62577.8	61757.15
812.9663	434.9683	62568.5	61749.75
813.1101	437.1432	62537.3	61716.8
813.2539	439.3176	62522.6	61705.9
813.3977	441.4914	62523.35	61707.8
813.5415	443.6645	62529.55	61710.85
813.6853	445.8371	62486.05	61665
813.8291	448.0091	62448.85	61630.25
813.973	450.1806	62438.05	61615.7
814.1168	452.3514	62435.2	61612.8
814.2607	454.5216	62425.9	61595.2
814.4046	456.6913	62393.5	61568.35
814.5485	458.8603	62411.8	61587.2
814.6924	461.0288	62403.75	61583.2
814.8363	463.1967	62396.1	61576.25
814.9802	465.3639	62408.5	61585.85
815.1241	467.5306	62379.2	61555.45
815.2681	469.6967	62386.75	61564.55
815.412	471.8622	62370	61549.8
815.556	474.0271	62376.45	61552.6
815.7	476.1914	62375.65	61546.85
815.844	478.3551	62360	61532.15
815.988	480.5182	62383.3	61556.35
816.132	482.6807	62378.7	61555.15
816.276	484.8426	62383.6	61561.8
816.4201	487.0039	62398.65	61575.4
816.5641	489.1647	62404.45	61575.15
816.7082	491.3248	62401.9	61572.1
816.8522	493.4843	62414	61588.3
816.9963	495.6432	62412.3	61585.65
817.1404	497.8015	62396.45	61559.95
817.2845	499.9592	62409.9	61576.15
817.4286	502.1163	62381.15	61547.25
817.5727	504.2728	62359.5	61527.1
817.7168	506.4287	62390.05	61561.95
817.861	508.5839	62356.4	61523.15
818.0051	510.7386	62355.45	61523.2
818.1493	512.8927	62366.25	61529.05
818.2935	515.0461	62354.45	61517.35
818.4377	517.199	62350.85	61513.5
818.5818	519.3512	62369.8	61527.7
818.726	521.5029	62352.75	61510.9
818.8703	523.6539	62366.75	61524.8
819.0145	525.8043	62331	61494.4
819.1587	527.9541	62336.95	61494
819.303	530.1033	62332.95	61489.55
819.4472	532.2519	62337.4	61495.3
819.5915	534.3999	62327	61482.8
819.7357	536.5472	62327.75	61485.05
819.88	538.694	62316.6	61475.1
820.0243	540.8401	62343.45	61500.35
820.1686	542.9856	62337.95	61490.5
820.3129	545.1305	62307.9	61454.85
820.4572	547.2748	62334.8	61483.45
820.6016	549.4185	62317.05	61465.15
820.7459	551.5615	62311.3	61458
820.8902	553.704	62319	61468.8
821.0346	555.8458	62291.7	61443.25
821.1789	557.987	62289.85	61441.8
821.3233	560.1276	62296.2	61447.95
821.4677	562.2675	62291.25	61441.8
821.6121	564.4069	62290.05	61440.55
821.7565	566.5456	62292.75	61447.2
821.9009	568.6837	62287.1	61441.9
822.0453	570.8212	62271.75	61423.8
822.1897	572.958	62256.1	61406.15
822.3342	575.0942	62239.85	61391.35
822.4786	577.2299	62219.95	61372.6
822.6231	579.3648	62198.4	61354.1
822.7675	581.4992	62175.1	61334.75
822.912	583.6329	62184	61343.6
823.0565	585.766	62175.35	61330
823.201	587.8985	62137.9	61290.35
823.3454	590.0304	62138.35	61265.45
823.4899	592.1616	62116.4	61261.5
823.6345	594.2922	62098.85	61238.15
823.779	596.4222	62076.25	61216.9
823.9235	598.5515	62075.6	61217.2
824.068	600.6802	62072.9	61215.4
824.2126	602.8083	62041.7	61188.45
824.3571	604.9358	62043.2	61183.45
824.5017	607.0626	62037.9	61180.1
824.6462	609.1888	62013.55	61151.3
824.7908	611.3144	62010.1	61145.95
824.9354	613.4393	61983.95	61125
825.08	615.5636	61977.75	61113.85
825.2246	617.6873	61980.3	61118.25
825.3692	619.8103	61993.2	61129.5
825.5138	621.9327	61968.65	61106.85
825.6584	624.0544	61949.9	61092.6
825.803	626.1756	61973.7	61114.25
825.9477	628.2961	61945.25	61081.6
826.0923	630.4159	61964.1	61101.55
826.237	632.5351	61955.75	61093.7
826.3816	634.6537	61949.8	61086.7
826.5263	636.7716	61938.1	61072.8
826.6709	638.8889	61935.3	61070.6
826.8156	641.0056	61946.8	61081.8
826.9603	643.1216	61936.6	61067.25
827.105	645.237	61922.2	61053.5
827.2497	647.3518	61913.05	61048.65
827.3944	649.4659	61927.75	61065.75
827.5391	651.5793	61912.95	61052.9
827.6838	653.6922	61903.5	61042
827.8285	655.8043	61885.45	61021.5
827.9733	657.9159	61897.75	61030.6
828.118	660.0268	61875.25	61008.5
828.2627	662.137	61860.05	60991.05
828.4075	664.2466	61880.25	61007.2
828.5522	666.3556	61850.55	60984.9
828.697	668.4639	61840	60971.25
828.8418	670.5716	61849.5	60981.1
828.9865	672.6786	61846.8	60977.9
829.1313	674.785	61830.7	60955.2
829.2761	676.8907	61797.55	60929.15
829.4209	678.9958	61820.2	60950.7
829.5657	681.1002	61800.65	60931.15
829.7105	683.204	61786.9	60910.2
829.8553	685.3072	61766.95	60893.65
830.0001	687.4097	61763.2	60892.1
830.1449	689.5115	61756.65	60881.85
830.2898	691.6127	61773.45	60898.4
830.4346	693.7132	61760.7	60887.9
830.5794	695.8131	61749.15	60856.95
830.7243	697.9123	61758.3	60882.5
830.8691	700.0109	61736.45	60858.3
831.014	702.1089	61698.75	60824.95
831.1588	704.2061	61704	60830.8
831.3037	706.3028	61716.85	60840.1
831.4486	708.3987	61727.85	60850.9
831.5935	710.4941	61695.45	60822.1
831.7383	712.5887	61698.05	60820
831.8832	714.6827	61678.75	60801.85
832.0281	716.7761	61708	60829.4
832.173	718.8688	61691.6	60814.8
832.3179	720.9608	61663.3	60780.8
832.4628	723.0522	61684.65	60801.8
832.6077	725.1429	61633.9	60755.35
832.7527	727.233	61652.95	60772
832.8976	729.3224	61583.7	60703.8
833.0425	731.4112	61614.05	60732.65
833.1874	733.4993	61603.95	60723.7
833.3324	735.5867	61604.15	60721.7
833.4773	737.6735	61557.25	60677.6
833.6222	739.7596	61523.1	60643.45
833.7672	741.845	61484.85	60605.75
833.9122	743.9298	61555.8	60672.9
834.0571	746.014	61500.75	60618.9
834.2021	748.0974	61423.45	60539.75
834.347	750.1802	61502.85	60620.5
834.492	752.2624	61397.6	60514.4
834.637	754.3439	61380.35	60495.4
834.782	756.4247	61408.85	60516.65
834.9269	758.5048	61304.6	60422.45
835.0719	760.5843	61315.75	60430.1
835.2169	762.6631	61329.5	60447.3
835.3619	764.7413	61278	60393.05
835.5069	766.8188	61292	60404.7
835.6519	768.8956	61343	60458.45
835.7969	770.9718	61324.7	60437.8
835.9419	773.0473	61270	60385.5
836.0869	775.1221	61181.55	60294.4
836.232	777.1962	61148.4	60263.05
836.377	779.2697	61047.25	60160.55
836.522	781.3426	61117.8	60213.7
836.667	783.4147	61096.95	60211.95
836.8121	785.4862	61081.1	60195
836.9571	787.557	60963.2	60078.65
837.1021	789.6271	61085.75	60195.85
837.2472	791.6966	61007.7	60120.3
837.3922	793.7654	60894.7	60008
837.5373	795.8335	60900.3	60013.7
837.6823	797.901	60882.95	59994.65
837.8274	799.9678	60836.1	59948.2
837.9724	802.0339	60806.2	59918.95
838.1175	804.0993	60828.05	59927.4
838.2626	806.1641	60765.85	59875.5
838.4076	808.2282	60734	59845.1
838.5527	810.2916	60717.05	59826.95
838.6978	812.3544	60766.05	59881.2
838.8428	814.4164	60685.15	59798.1
838.9879	816.4778	60693.1	59802.4
839.133	818.5385	60666.5	59776.25
839.2781	820.5986	60646.95	59758.75
839.4232	822.658	60679.75	59787.35
839.5682	824.7166	60653.15	59764.9
839.7133	826.7747	60589.8	59700.75
839.8584	828.832	60628.95	59736.85
840.0035	830.8886	60655.45	59762
840.1486	832.9446	60650.4	59759.2
840.2937	834.9999	60473.7	59586.25
840.4388	837.0545	60549.25	59653.9
840.5839	839.1085	60557.15	59664.5
840.729	841.1618	60524.7	59628.2
840.8741	843.2143	60425.5	59534.3
841.0192	845.2662	60416.55	59523.5
841.1643	847.3175	60431.35	59539.9
841.3095	849.368	60303.6	59408.35
841.4546	851.4179	60373.8	59481.15
841.5997	853.467	60261.75	59367.1
841.7448	855.5155	60314.85	59420.5
841.8899	857.5633	60236.8	59345.8
842.0351	859.6105	60193.1	59299.15
842.1802	861.6569	60234.3	59343.15
842.3253	863.7027	60164.05	59266.65
842.4704	865.7478	60164.15	59268.7
842.6156	867.7922	60151.95	59256.45
842.7607	869.8359	60200.25	59303.95
842.9058	871.8789	60071.85	59178.6
843.0509	873.9212	60119.1	59191.85
843.1961	875.9629	60108.95	59212.9
843.3412	878.0039	60079.25	59186.75
843.4863	880.0441	60052.9	59161.85
843.6315	882.0837	60068.45	59175.6
843.7766	884.1226	60038.85	59142.65
843.9218	886.1609	60049.45	59154.9
844.0669	888.1984	59995.15	59099.9
844.212	890.2352	60063.9	59169.45
844.3572	892.2714	59981.8	59083.7
844.5023	894.3069	60033.4	59139.8
844.6475	896.3416	59948.25	59052.7
844.7926	898.3757	59935	59037.25
844.9377	900.4091	59808.75	58913.7
845.0829	902.4418	59933.6	59034.25
845.228	904.4739	59828.35	58929.3
845.3732	906.5052	59857.55	58961.2
845.5183	908.5358	59820.3	58925.2
845.6635	910.5658	59781.45	58880.95
845.8086	912.595	59773.3	58876.25
845.9538	914.6236	59651.95	58753.55
846.0989	916.6515	59778.4	58879.15
846.2441	918.6786	59600.95	58704.65
846.3892	920.7051	59628.55	58732.25
846.5344	922.7309	59606.8	58710.4
846.6795	924.756	59607.85	58708.1
846.8246	926.7804	59547.75	58646.85
846.9698	928.8041	59386.95	58487.7
847.1149	930.8272	59443.95	58543.65
847.2601	932.8495	59472.4	58574.1
847.4052	934.8711	59354.2	58454.9
847.5504	936.892	59272.8	58374.45
847.6955	938.9123	59335.35	58435.7
847.8407	940.9318	59230.45	58331.15
847.9858	942.9506	59213.75	58316.8
848.131	944.9688	59221.8	58323
848.2761	946.9862	59076.6	58175.75
848.4213	949.003	59064	58166.55
848.5664	951.019	58961.9	58060
848.7115	953.0344	58979.6	58081.7
848.8567	955.0491	58932.1	58032.25
849.0018	957.063	58945.1	58047.75
849.147	959.0763	58948.65	58050.55
849.2921	961.0888	58898.25	57996.9
849.4373	963.1007	58926.55	58027.65
849.5824	965.1119	58921.05	58024.25
849.7275	967.1223	58833.4	57938.15
849.8727	969.1321	58898.8	58004.9
850.0178	971.1412	58807.05	57910.05
850.1629	973.1495	58782.55	57884.9
850.3081	975.1572	58806.3	57867.75
850.4532	977.1641	58755.95	57855.9
850.5983	979.1704	58679.85	57781.1
850.7435	981.1759	58682.25	57778.5
850.8886	983.1808	58623.85	57723.8
851.0337	985.1849	58596.95	57685.25
851.1788	987.1884	58579.7	57679.95
851.324	989.1911	58615.25	57715.35
851.4691	991.1932	58501.95	57601.75
851.6142	993.1945	58465.55	57565.95
851.7593	995.1951	58453.25	57555.25
851.9045	997.1951	58373.65	57466.25
852.0496	999.1943	58353.75	57454.85
852.1947	1001.1928	58306.65	57403.9
852.3398	1003.1906	58272.9	57372.35
852.4849	1005.1877	58150.85	57247.35
852.63	1007.1841	58109.75	57207.9
852.7751	1009.1798	58100.15	57201.05
852.9202	1011.1748	58061.6	57160.7
853.0653	1013.1691	58030.5	57129.2
853.2104	1015.1627	57704.25	56803.75
853.3555	1017.1556	57814.6	56914.4
853.5006	1019.1477	57836.3	56934.85
853.6457	1021.1392	57663.7	56766.85
853.7908	1023.1299	57442.45	56544.8
853.9359	1025.12	57556.65	56659.75
854.081	1027.1093	57414.9	56524.45
854.2261	1029.0979	57370.45	56482
854.3712	1031.0859	57328.15	56437.45
854.5163	1033.0731	57186.1	56289.1
854.6613	1035.0596	57232.3	56335.4
854.8064	1037.0454	57153.7	56256.2
854.9515	1039.0304	57097.85	56195.05
855.0965	1041.0148	56884	55983.7
855.2416	1042.9985	56878.8	55976
855.3867	1044.9814	56998.1	56100.3
855.5317	1046.9636	56778.75	55875.55
855.6768	1048.9452	56764.5	55866.1
855.8219	1050.926	56717.75	55821.15
855.9669	1052.9061	56713.1	55811.15
856.112	1054.8855	56693.75	55792.75
856.257	1056.8642	56603.35	55700.95
856.4021	1058.8421	56518.9	55613.75
856.5471	1060.8194	56508.6	55609.9
856.6921	1062.7959	56452.1	55551.3
856.8372	1064.7717	56503.95	55600
856.9822	1066.7469	56461.95	55560.3
857.1272	1068.7213	56474.65	55568.45
857.2723	1070.695	56370.3	55469.4
857.4173	1072.6679	56241.9	55340.25
857.5623	1074.6402	56318.9	55416.95
857.7073	1076.6117	56241.1	55335.25
857.8523	1078.5826	56184.05	55283.6
857.9973	1080.5527	56190.35	55287.65
858.1423	1082.5221	56092.85	55189.6
858.2873	1084.4908	56063.8	55165.35
858.4323	1086.4587	56016.7	55116.25
858.5773	1088.426	55982.2	55079.95
858.7223	1090.3925	55963.95	55060.75
858.8673	1092.3584	55938.55	55036.8
859.0123	1094.3235	55824.15	54922.8
859.1573	1096.2879	55810.1	54905.25
859.3022	1098.2515	55821.9	54919.3
859.4472	1100.2145	55759.45	54861.3
859.5922	1102.1767	55726.05	54822.05
859.7371	1104.1382	55730.85	54830.1
859.8821	1106.099	55679	54776
860.027	1108.0591	55610.5	54707.85
860.172	1110.0185	55511.7	54609.25
860.3169	1111.9771	55621.1	54719.9
860.4619	1113.9351	55536.2	54636.7
860.6068	1115.8923	55444.35	54541.45
860.7517	1117.8488	55382.85	54477.95
860.8967	1119.8045	55257.75	54355.3
861.0416	1121.7596	55281.6	54379.55
861.1865	1123.7139	55225.65	54326.4
861.3314	1125.6675	55174.75	54275.75
861.4763	1127.6204	55199	54296.9
861.6212	1129.5726	55034.45	54133.25
861.7661	1131.524	55099.15	54196.35
861.911	1133.4748	55058.4	54158.2
862.0559	1135.4248	54915.25	54014.7
862.2008	1137.3741	54942.6	54038.1
862.3457	1139.3226	54908.3	54004.55
862.4905	1141.2705	54865.9	53961.85
862.6354	1143.2176	54801.35	53894.55
862.7803	1145.164	54658.5	53754.05
862.9251	1147.1097	54716.15	53813.05
863.07	1149.0546	54687.7	53785.75
863.2148	1150.9989	54685.8	53782.6
863.3597	1152.9424	54559.65	53656.65
863.5045	1154.8852	54644.35	53741.1
863.6493	1156.8272	54517.4	53614.3
863.7942	1158.7686	54615.5	53708.65
863.939	1160.7092	54401.65	53499.3
864.0838	1162.6491	54375.3	53470.1
864.2286	1164.5883	54399	53494.6
864.3734	1166.5267	54325	53420.4
864.5182	1168.4644	54358.85	53459.75
864.663	1170.4014	54320.6	53415.05
864.8078	1172.3377	54353.95	53456.3
864.9526	1174.2732	54383.95	53482.55
865.0974	1176.2081	54312.85	53410.6
865.2421	1178.1421	54316.3	53411.15
865.3869	1180.0755	54400.05	53497.95
