Software Version:	3.9.2.0
Unit SN:	10000200
Spectrometer SN:	6960
Date:	3/6/2024 9:58:37 AM
Data Line Index:	25
Spectral Points:	2048
Integration time (ms):	125
Averages:	20
Delay (ms):	30
Sequence Number:	1
Processing:	dark subtract
Laser Power (mW):	305
Laser Current (mA):	826
Laser Diode Temp (C):	25.1
Laser Case Temp (C):	24.6
System Temp (C):	24.4
Spectrometer Temp (C):	22
CCD Temp (C):	-0.008
Secondary Temp (C):	20.032
Heatsink Temp (C):	18.227
CCDPCB Temp (C):	30.971
SecondaryPCB Temp (C):	26.025

Wavelength	RamanShift	Raw Counts	Dark Subtracted
787.061	30.1047	678.7	269.15
787.2016	32.3739	693.25	286.45
787.3422	34.6426	707.45	300.25
787.4828	36.9109	725.4	315.8
787.6235	39.1787	750.8	339
787.7642	41.4461	777	359.05
787.9049	43.7131	799.85	377.2
788.0456	45.9796	831.9	409
788.1863	48.2456	856.05	429.55
788.3271	50.5112	884.15	452.85
788.4679	52.7764	912.35	478.9
788.6087	55.0411	940.7	502.5
788.7496	57.3054	979	534.2
788.8904	59.5692	1008.55	563
789.0313	61.8326	1050.15	601
789.1722	64.0955	1091.95	640.55
789.3132	66.3579	1146.75	690.8
789.4541	68.6199	1218.5	758.3
789.5951	70.8815	1315.2	848.9
789.7361	73.1426	1567.5	1100.85
789.8771	75.4032	2202.1	1730.75
790.0181	77.6634	3788.95	3312.9
790.1592	79.9231	7749.85	7268.45
790.3003	82.1824	17853.3	17364.6
790.4414	84.4412	37748.7	37243.85
790.5825	86.6995	52193.6	51666.25
790.7237	88.9574	57210.35	56669.45
790.8648	91.2148	60009.25	59460.55
791.006	93.4717	60883.6	60322.1
791.1472	95.7282	61293.95	60732.95
791.2885	97.9842	61489.4	60924.35
791.4297	100.2398	61488.15	60921.55
791.571	102.4949	61468.95	60900.2
791.7123	104.7495	61499.8	60924.15
791.8536	107.0036	61370.15	60797.65
791.9949	109.2573	61607.8	61032.35
792.1363	111.5105	61463.75	60889.2
792.2777	113.7632	61473.2	60897.8
792.4191	116.0154	61592.7	60998.1
792.5605	118.2672	61742.5	61159.95
792.7019	120.5185	61756.7	61170.7
792.8434	122.7693	61772.25	61182.9
792.9849	125.0197	61554.65	60961.85
793.1264	127.2696	61987.75	61389.85
793.2679	129.519	61918.55	61323.2
793.4094	131.7679	62082.1	61478.65
793.551	134.0163	61680.95	61076.3
793.6926	136.2642	61867.75	61260.05
793.8342	138.5117	62122.3	61513
793.9758	140.7587	62003.4	61391.25
794.1175	143.0052	62009.85	61397.85
794.2591	145.2512	61810.35	61192.45
794.4008	147.4967	62082.95	61467.35
794.5425	149.7417	62017.55	61395.85
794.6842	151.9863	62014.9	61388.25
794.826	154.2304	61841.55	61213.25
794.9677	156.4739	61983.85	61347.15
795.1095	158.717	62152.55	61520.05
795.2513	160.9596	62030.55	61392.75
795.3931	163.2017	61827.65	61189.4
795.535	165.4433	62062.05	61418.65
795.6768	167.6844	61944.4	61299
795.8187	169.925	62069.2	61423.95
795.9606	172.1651	61952.7	61302.05
796.1025	174.4047	62029.1	61375.3
796.2445	176.6439	61998.3	61343.85
796.3864	178.8825	61934.75	61277
796.5284	181.1206	62127.05	61464.45
796.6704	183.3582	62140.55	61473.7
796.8124	185.5954	62025.55	61353.9
796.9544	187.832	62052.1	61379.45
797.0965	190.0681	61932	61257.05
797.2386	192.3037	62180.95	61503.45
797.3806	194.5388	62400.95	61715.85
797.5228	196.7734	61824.4	61139.7
797.6649	199.0075	62352.95	61668.7
797.807	201.2411	62191.35	61507.85
797.9492	203.4742	62471.7	61783.25
798.0914	205.7068	62415.6	61720.7
798.2336	207.9389	62392.85	61697.15
798.3758	210.1704	62389.65	61703.1
798.518	212.4015	62556	61877.8
798.6603	214.632	62324.35	61655.5
798.8025	216.862	62568.15	61895.6
798.9448	219.0915	62454.95	61782.4
799.0871	221.3205	62426.25	61753.9
799.2294	223.549	62636.8	61962.65
799.3718	225.777	62601.65	61930.25
799.5141	228.0044	62704.6	62025.25
799.6565	230.2314	62629.95	61949.45
799.7989	232.4578	62610.8	61928.25
799.9413	234.6837	62652.25	61958.85
800.0837	236.909	63040.8	62345.25
800.2262	239.1339	62519.7	61803.25
800.3687	241.3582	62751.75	62047.75
800.5111	243.582	62763.25	62025.85
800.6536	245.8053	62759.6	62038.6
800.7961	248.0281	62791.5	62074.6
800.9387	250.2503	62857.7	62138.2
801.0812	252.472	62683.45	61959.3
801.2238	254.6932	62806.15	62086.85
801.3664	256.9139	62764.5	62041.9
801.509	259.134	63105.85	62379.55
801.6516	261.3536	62721.95	61998.6
801.7942	263.5727	62916	62187.55
801.9369	265.7912	62795.65	62067.8
802.0795	268.0092	62841.75	62114.35
802.2222	270.2267	62899.65	62170.25
802.3649	272.4436	62748.5	62015.95
802.5076	274.6601	62912.8	62172.2
802.6504	276.8759	63007.45	62268.55
802.7931	279.0913	62892.9	62155.05
802.9359	281.3061	62938.1	62198.75
803.0787	283.5204	62962.85	62219.65
803.2215	285.7341	62937.5	62195.2
803.3643	287.9473	63097.05	62341.25
803.5071	290.16	62979.1	62227.7
803.6499	292.3721	63045.75	62304.25
803.7928	294.5837	62925.9	62182.2
803.9357	296.7947	62822.55	62077.5
804.0786	299.0052	63092.1	62349.45
804.2215	301.2152	62965.3	62217.3
804.3644	303.4246	63101.35	62359.3
804.5074	305.6334	63103	62360.15
804.6503	307.8418	62879.95	62128.95
804.7933	310.0495	62906.65	62156.75
804.9363	312.2568	62884.55	62131.55
805.0793	314.4635	62877.8	62124.05
805.2223	316.6696	62994	62238.95
805.3653	318.8752	63090.05	62324.2
805.5084	321.0802	62721.65	61963.6
805.6514	323.2847	62879.4	62117.85
805.7945	325.4887	62873.65	62113.5
805.9376	327.692	62801.1	62037.35
806.0807	329.8949	62896.95	62136.95
806.2238	332.0972	62822.75	62058.65
806.367	334.2989	62885.85	62119.65
806.5101	336.5001	63020.45	62249.65
806.6533	338.7007	62737.9	61968.45
806.7965	340.9008	62888.4	62119.1
806.9397	343.1003	62889	62116.5
807.0829	345.2992	63001.4	62230.95
807.2261	347.4976	62849.3	62073.95
807.3693	349.6955	62922.65	62141.65
807.5126	351.8927	62800.7	62020.45
807.6559	354.0895	62945.75	62156.45
807.7991	356.2856	62924.4	62142.35
807.9424	358.4812	63033.7	62250.7
808.0857	360.6763	62819	62038
808.2291	362.8707	63024.9	62240.75
808.3724	365.0646	62906.55	62117.5
808.5158	367.258	62895.05	62106.7
808.6591	369.4508	62785.15	61990.95
808.8025	371.643	62988.4	62196.1
808.9459	373.8346	62900.2	62106.25
809.0893	376.0257	62900.85	62102.3
809.2327	378.2162	62848.4	62052.25
809.3762	380.4062	62707.15	61905.95
809.5196	382.5956	62836.85	62043.35
809.6631	384.7844	62814.5	62024.7
809.8066	386.9726	62880.05	62090.65
809.9501	389.1603	62883.45	62096.3
810.0936	391.3474	62718.35	61895
810.2371	393.5339	62855.15	62063.95
810.3806	395.7199	62647.95	61859.25
810.5241	397.9052	62687.3	61899.9
810.6677	400.09	62722.35	61932.35
810.8113	402.2743	62846.25	62051.1
810.9548	404.4579	62695.5	61905.95
811.0984	406.641	62691.3	61896.65
811.2421	408.8235	62797.95	62002.45
811.3857	411.0054	62791.3	61992.2
811.5293	413.1868	62813.15	62007.9
811.673	415.3675	62782.5	61977.3
811.8166	417.5477	62775.75	61968.25
811.9603	419.7273	62748.7	61942.05
812.104	421.9064	62737.1	61922.05
812.2477	424.0848	62759.1	61946.9
812.3914	426.2627	62843.55	62032.85
812.5351	428.4399	62651.8	61843.4
812.6788	430.6166	62514.55	61698.1
812.8226	432.7928	62698.75	61880.55
812.9663	434.9683	62539.1	61721.6
813.1101	437.1432	62537.6	61719.5
813.2539	439.3176	62684.1	61870.85
813.3977	441.4914	62456.75	61646.6
813.5415	443.6645	62518.05	61707.45
813.6853	445.8371	62501.25	61682.9
813.8291	448.0091	62394.35	61578.6
813.973	450.1806	62349.15	61533.05
814.1168	452.3514	62366.5	61550.1
814.2607	454.5216	62246.95	61420.3
814.4046	456.6913	62371.05	61549.2
814.5485	458.8603	62388	61569.65
814.6924	461.0288	62234.9	61417.7
814.8363	463.1967	62389.95	61573.15
814.9802	465.3639	62388.5	61568.15
815.1241	467.5306	62104.15	61284.05
815.2681	469.6967	62245.3	61424.15
815.412	471.8622	62320.3	61500.6
815.556	474.0271	62235.2	61415.65
815.7	476.1914	62246.7	61423.5
815.844	478.3551	62265.25	61446.65
815.988	480.5182	62395.95	61571.45
816.132	482.6807	62202.5	61382.35
816.276	484.8426	62210.35	61393.4
816.4201	487.0039	62377.25	61559.1
816.5641	489.1647	62363.8	61540.4
816.7082	491.3248	62193.85	61368.15
816.8522	493.4843	62416.6	61593.9
816.9963	495.6432	62413.9	61588.2
817.1404	497.8015	62183.2	61351.55
817.2845	499.9592	62304.15	61472.2
817.4286	502.1163	62317.2	61485.15
817.5727	504.2728	62309.75	61480.15
817.7168	506.4287	62300.3	61476.95
817.861	508.5839	62165.9	61341.35
818.0051	510.7386	62236.95	61407.75
818.1493	512.8927	62279.1	61444.6
818.2935	515.0461	62223.55	61390.55
818.4377	517.199	62331.55	61497.35
818.5818	519.3512	62229.2	61394.1
818.726	521.5029	62193.75	61352.6
818.8703	523.6539	62248	61411.8
819.0145	525.8043	62054.25	61217.8
819.1587	527.9541	62213.65	61374.45
819.303	530.1033	62183.15	61344.1
819.4472	532.2519	62133.15	61295.05
819.5915	534.3999	62238.4	61395.25
819.7357	536.5472	62303.15	61465.8
819.88	538.694	62055.45	61219.15
820.0243	540.8401	62180.95	61338.5
820.1686	542.9856	62165.75	61319.95
820.3129	545.1305	62240.1	61392
820.4572	547.2748	62149.9	61302.6
820.6016	549.4185	62144	61291.85
820.7459	551.5615	62247.35	61396.15
820.8902	553.704	62169.2	61320.45
821.0346	555.8458	62076.9	61231.25
821.1789	557.987	62102.95	61261
821.3233	560.1276	62158.1	61310.3
821.4677	562.2675	62119.1	61271.55
821.6121	564.4069	62110.5	61266.1
821.7565	566.5456	62216.55	61369.25
821.9009	568.6837	62052.5	61208.6
822.0453	570.8212	62136.8	61290.95
822.1897	572.958	61917.4	61070.65
822.3342	575.0942	62079.25	61237.75
822.4786	577.2299	61901.3	61056.5
822.6231	579.3648	61882.7	61040.1
822.7675	581.4992	61825.3	60984.3
822.912	583.6329	61796.75	60961.65
823.0565	585.766	61772.95	60931.45
823.201	587.8985	61835.9	60995.3
823.3454	590.0304	61607.8	60751.45
823.4899	592.1616	61764	60912
823.6345	594.2922	61679.6	60827.9
823.779	596.4222	61553.35	60700.3
823.9235	598.5515	61580.85	60725.3
824.068	600.6802	61621.3	60763.85
824.2126	602.8083	61458.7	60606.9
824.3571	604.9358	61455.25	60599.65
824.5017	607.0626	61583.4	60726.45
824.6462	609.1888	61409.55	60549.5
824.7908	611.3144	61494.15	60635.2
824.9354	613.4393	61425	60566.6
825.08	615.5636	61348.25	60486.45
825.2246	617.6873	61427.85	60570.7
825.3692	619.8103	61319.95	60459.05
825.5138	621.9327	61396.75	60535.6
825.6584	624.0544	61433	60577
825.803	626.1756	61361	60504.45
825.9477	628.2961	61342.1	60481.85
826.0923	630.4159	61259.25	60396.75
826.237	632.5351	61237.4	60373.1
826.3816	634.6537	61449.15	60588.6
826.5263	636.7716	61193	60327.4
826.6709	638.8889	61245.4	60380.45
826.8156	641.0056	61265.85	60399.65
826.9603	643.1216	61264.4	60400.25
827.105	645.237	61303	60437.5
827.2497	647.3518	61164.65	60304.3
827.3944	649.4659	61233.2	60371.85
827.5391	651.5793	61207.75	60347.35
827.6838	653.6922	61206.65	60346.5
827.8285	655.8043	61071.2	60211.3
827.9733	657.9159	61296.35	60432.25
828.118	660.0268	60882.25	60018.7
828.2627	662.137	61095.95	60229.5
828.4075	664.2466	61133	60265.9
828.5522	666.3556	61056	60189.15
828.697	668.4639	61051.15	60182.6
828.8418	670.5716	60999.35	60140.45
828.9865	672.6786	61051.6	60183.4
829.1313	674.785	60901.4	60029.7
829.2761	676.8907	60884.05	60018.65
829.4209	678.9958	60962.05	60094.65
829.5657	681.1002	60977.8	60112.25
829.7105	683.204	60824.5	59947.2
829.8553	685.3072	60761.2	59889.5
830.0001	687.4097	60832.1	59960.5
830.1449	689.5115	60793.45	59922.4
830.2898	691.6127	60876.1	60008.65
830.4346	693.7132	60739.55	59871.4
830.5794	695.8131	60767.25	59872.35
830.7243	697.9123	60793.5	59921.8
830.8691	700.0109	60818.4	59946.5
831.014	702.1089	60606.25	59734.6
831.1588	704.2061	60693.6	59820.3
831.3037	706.3028	60688	59813.85
831.4486	708.3987	60677.45	59804.25
831.5935	710.4941	60629.4	59756.45
831.7383	712.5887	60699.6	59827.85
831.8832	714.6827	60607.9	59730.8
832.0281	716.7761	60673.95	59799.1
832.173	718.8688	60709.25	59834.75
832.3179	720.9608	60601	59718.9
832.4628	723.0522	60603.7	59721.7
832.6077	725.1429	60500.95	59622.25
832.7527	727.233	60734.2	59858.95
832.8976	729.3224	60377.15	59500.8
833.0425	731.4112	60459.45	59581.05
833.1874	733.4993	60445.2	59566.8
833.3324	735.5867	60422.3	59544.25
833.4773	737.6735	60366.55	59485
833.6222	739.7596	60293.7	59411.75
833.7672	741.845	60246.25	59368.1
833.9122	743.9298	60315.7	59436.35
834.0571	746.014	60203.1	59325.9
834.2021	748.0974	60130	59248.2
834.347	750.1802	60231.05	59350.05
834.492	752.2624	60011.75	59131.7
834.637	754.3439	60009.45	59124.7
834.782	756.4247	60026.1	59136.25
834.9269	758.5048	59924.3	59043
835.0719	760.5843	59928.85	59044.3
835.2169	762.6631	59923.05	59039.2
835.3619	764.7413	59891.75	59008.6
835.5069	766.8188	59931.45	59047.7
835.6519	768.8956	59953.35	59068.7
835.7969	770.9718	59937.6	59057.95
835.9419	773.0473	59842.85	58958.1
836.0869	775.1221	59757.4	58874.1
836.232	777.1962	59722.85	58839.1
836.377	779.2697	59648.3	58761.8
836.522	781.3426	59652.1	58749.8
836.667	783.4147	59636.15	58748.55
836.8121	785.4862	59602.95	58721.05
836.9571	787.557	59526.8	58643
837.1021	789.6271	59566.55	58682.5
837.2472	791.6966	59465.15	58579.65
837.3922	793.7654	59387.65	58503.2
837.5373	795.8335	59362.4	58478
837.6823	797.901	59336.6	58451.95
837.8274	799.9678	59261.9	58371.9
837.9724	802.0339	59266.1	58377.8
838.1175	804.0993	59260.3	58365.1
838.2626	806.1641	59175.25	58286.7
838.4076	808.2282	59146.4	58261.1
838.5527	810.2916	59138.05	58250.95
838.6978	812.3544	59146.6	58261.6
838.8428	814.4164	59047.95	58161.9
838.9879	816.4778	59054.1	58163.6
839.133	818.5385	59024.55	58135.3
839.2781	820.5986	59016.65	58126.05
839.4232	822.658	59011.75	58123
839.5682	824.7166	58980.95	58092.95
839.7133	826.7747	58948.9	58061.65
839.8584	828.832	59000.3	58109.55
840.0035	830.8886	58970.1	58077.5
840.1486	832.9446	58981.95	58091.25
840.2937	834.9999	58856.15	57968.1
840.4388	837.0545	58863.3	57970.65
840.5839	839.1085	58855.8	57961.4
840.729	841.1618	58816.7	57922.65
840.8741	843.2143	58712.75	57824.05
841.0192	845.2662	58662.4	57768.7
841.1643	847.3175	58722.95	57830.9
841.3095	849.368	58600.8	57710.6
841.4546	851.4179	58601.95	57710.15
841.5997	853.467	58545.6	57654.4
841.7448	855.5155	58529.6	57640
841.8899	857.5633	58468.95	57578.15
842.0351	859.6105	58411.5	57516.8
842.1802	861.6569	58389.6	57496.25
842.3253	863.7027	58373.8	57478.45
842.4704	865.7478	58386.9	57493.15
842.6156	867.7922	58357.4	57466.05
842.7607	869.8359	58327.4	57433.4
842.9058	871.8789	58260.3	57368.05
843.0509	873.9212	58300.05	57375.5
843.1961	875.9629	58216.15	57323.65
843.3412	878.0039	58230.25	57336.3
843.4863	880.0441	58221.2	57328.45
843.6315	882.0837	58191.75	57297.5
843.7766	884.1226	58203.5	57308.2
843.9218	886.1609	58196.85	57301.25
844.0669	888.1984	58153.6	57259.65
844.212	890.2352	58213	57321.25
844.3572	892.2714	58127.2	57228.3
844.5023	894.3069	58131.5	57233.85
844.6475	896.3416	58059.35	57165.3
844.7926	898.3757	58028.5	57131.7
844.9377	900.4091	57957.45	57063.6
845.0829	902.4418	57958.55	57055.4
845.228	904.4739	57896.05	56997.65
845.3732	906.5052	57943.05	57045.1
845.5183	908.5358	57883.85	56988.65
845.6635	910.5658	57815.5	56918.05
845.8086	912.595	57804.25	56910.35
845.9538	914.6236	57724.25	56825.75
846.0989	916.6515	57787.65	56891.4
846.2441	918.6786	57676.2	56777.85
846.3892	920.7051	57642.95	56744.85
846.5344	922.7309	57682.3	56787.7
846.6795	924.756	57588.85	56691.45
846.8246	926.7804	57595.7	56697.1
846.9698	928.8041	57471.85	56572.8
847.1149	930.8272	57497.15	56598.45
847.2601	932.8495	57420.85	56523
847.4052	934.8711	57416.4	56517.3
847.5504	936.892	57323.95	56428.95
847.6955	938.9123	57268.35	56371.5
847.8407	940.9318	57237.35	56339.6
847.9858	942.9506	57204.3	56304.5
848.131	944.9688	57174.9	56276.5
848.2761	946.9862	57088.2	56190.45
848.4213	949.003	57065.7	56166.05
848.5664	951.019	56998.2	56100
848.7115	953.0344	57000.8	56102.4
848.8567	955.0491	56972.2	56076.95
849.0018	957.063	56983.8	56084.95
849.147	959.0763	56963.8	56063.55
849.2921	961.0888	56901.45	56002.35
849.4373	963.1007	56897.3	55999.3
849.5824	965.1119	56894.1	55999.95
849.7275	967.1223	56859.1	55968.1
849.8727	969.1321	56836.1	55945.75
850.0178	971.1412	56815.65	55919.1
850.1629	973.1495	56752.85	55856.2
850.3081	975.1572	56757.4	55821.75
850.4532	977.1641	56702	55802.1
850.5983	979.1704	56657.35	55758.15
850.7435	981.1759	56623.5	55721.7
850.8886	983.1808	56628.45	55727.1
851.0337	985.1849	56599.9	55689.6
851.1788	987.1884	56563.9	55663.15
851.324	989.1911	56546.9	55646.85
851.4691	991.1932	56498.15	55600.6
851.6142	993.1945	56451.1	55553.6
851.7593	995.1951	56395.7	55495.75
851.9045	997.1951	56393.1	55487.05
852.0496	999.1943	56310.2	55410.25
852.1947	1001.1928	56250.5	55350.8
852.3398	1003.1906	56233	55333.6
852.4849	1005.1877	56179.3	55279.7
852.63	1007.1841	56140.15	55240.15
852.7751	1009.1798	56066.05	55168.45
852.9202	1011.1748	56030.3	55131.4
853.0653	1013.1691	55993.3	55092.7
853.2104	1015.1627	55802.3	54900.55
853.3555	1017.1556	55819.6	54917.2
853.5006	1019.1477	55808.05	54906.85
853.6457	1021.1392	55695.4	54798.25
853.7908	1023.1299	55512.45	54618.4
853.9359	1025.12	55574.05	54679
854.081	1027.1093	55466.4	54578.15
854.2261	1029.0979	55429.15	54542.35
854.3712	1031.0859	55359.7	54467.25
854.5163	1033.0731	55249.65	54355.6
854.6613	1035.0596	55262.45	54364.65
854.8064	1037.0454	55208.7	54310.3
854.9515	1039.0304	55116.55	54217.5
855.0965	1041.0148	54902.3	54002.35
855.2416	1042.9985	54928.75	54028.3
855.3867	1044.9814	55021	54122.15
855.5317	1046.9636	54823	53922.65
855.6768	1048.9452	54828.05	53928.55
855.8219	1050.926	54764.55	53864.85
855.9669	1052.9061	54699.85	53799.15
856.112	1054.8855	54702	53802.5
856.257	1056.8642	54569.9	53671.45
856.4021	1058.8421	54552.35	53650.25
856.5471	1060.8194	54568.25	53666.7
856.6921	1062.7959	54429.25	53531.6
856.8372	1064.7717	54529.2	53628.6
856.9822	1066.7469	54458.65	53556.1
857.1272	1068.7213	54447.35	53544.65
857.2723	1070.695	54365.35	53463.75
857.4173	1072.6679	54274.4	53371.4
857.5623	1074.6402	54307.7	53407.9
857.7073	1076.6117	54175.7	53268.9
857.8523	1078.5826	54183.3	53282.45
857.9973	1080.5527	54175.95	53268.25
858.1423	1082.5221	54054.25	53152.9
858.2873	1084.4908	54110.7	53209.3
858.4323	1086.4587	54011.6	53110.45
858.5773	1088.426	53970.65	53069.95
858.7223	1090.3925	53914.6	53009.2
858.8673	1092.3584	53887.85	52987.95
859.0123	1094.3235	53751.3	52852.15
859.1573	1096.2879	53760.95	52861.05
859.3022	1098.2515	53782.85	52880.55
859.4472	1100.2145	53710.2	52808.8
859.5922	1102.1767	53699.05	52797.1
859.7371	1104.1382	53674.8	52774.4
859.8821	1106.099	53608.1	52703
860.027	1108.0591	53605.7	52704.75
860.172	1110.0185	53354.65	52453.75
860.3169	1111.9771	53578.3	52677.2
860.4619	1113.9351	53430.7	52527.75
860.6068	1115.8923	53315.9	52413.35
860.7517	1117.8488	53178.9	52275.2
860.8967	1119.8045	53026.3	52127.35
861.0416	1121.7596	53105.45	52203.4
861.1865	1123.7139	53006.75	52107
861.3314	1125.6675	52991	52091.1
861.4763	1127.6204	52933.65	52032.6
861.6212	1129.5726	52740.5	51838.25
861.7661	1131.524	52822.7	51922.65
861.911	1133.4748	52823.05	51920.2
862.0559	1135.4248	52641.5	51737.05
862.2008	1137.3741	52611.9	51712.1
862.3457	1139.3226	52582.5	51676.8
862.4905	1141.2705	52548.3	51644.2
862.6354	1143.2176	52509.9	51601.85
862.7803	1145.164	52299.2	51395.2
862.9251	1147.1097	52347.75	51443.8
863.07	1149.0546	52323.5	51420.1
863.2148	1150.9989	52382.95	51479.1
863.3597	1152.9424	52123.25	51221.15
863.5045	1154.8852	52289.05	51386.25
863.6493	1156.8272	52126.05	51223.75
863.7942	1158.7686	52292.05	51384
863.939	1160.7092	51973.1	51069.45
864.0838	1162.6491	51956.45	51052.8
864.2286	1164.5883	52005.35	51103.2
864.3734	1166.5267	51883.7	50981.1
864.5182	1168.4644	51968.4	51067.45
864.663	1170.4014	51895.6	50990.45
864.8078	1172.3377	52009.95	51111.9
864.9526	1174.2732	52063	51160.7
865.0974	1176.2081	51972.65	51072.1
865.2421	1178.1421	51903.9	50998.95
865.3869	1180.0755	52074.4	51172.35
865.5317	1182.0082	51947.25	51045.15
