Software Version:	3.9.2.0
Unit SN:	10000200
Spectrometer SN:	6960
Date:	3/6/2024 9:39:31 AM
Data Line Index:	25
Spectral Points:	2048
Integration time (ms):	125
Averages:	20
Delay (ms):	30
Sequence Number:	1
Processing:	dark subtract
Laser Power (mW):	300
Laser Current (mA):	822
Laser Diode Temp (C):	25
Laser Case Temp (C):	23.9
System Temp (C):	23.7
Spectrometer Temp (C):	21.4
CCD Temp (C):	-0.034
Secondary Temp (C):	20.008
Heatsink Temp (C):	17.096
CCDPCB Temp (C):	30.805
SecondaryPCB Temp (C):	25.491

Wavelength	RamanShift	Raw Counts	Dark Subtracted
787.061	30.1047	467.35	60.75
787.2016	32.3739	472.35	66.7
787.3422	34.6426	472.7	67.35
787.4828	36.9109	480.2	73.6
787.6235	39.1787	488.75	77.95
787.7642	41.4461	496.6	78.1
787.9049	43.7131	506.2	87.2
788.0456	45.9796	511.3	89.7
788.1863	48.2456	519	93.7
788.3271	50.5112	531.25	102.95
788.4679	52.7764	539.45	107.15
788.6087	55.0411	552.5	116.4
788.7496	57.3054	562.9	121.65
788.8904	59.5692	568.2	124.55
789.0313	61.8326	580.55	134.6
789.1722	64.0955	592.95	142.7
789.3132	66.3579	610.85	158.4
789.4541	68.6199	629.85	172.65
789.5951	70.8815	658.25	195.5
789.7361	73.1426	728.55	261.85
789.8771	75.4032	891.4	422.05
790.0181	77.6634	1306.55	834.7
790.1592	79.9231	2268.3	1793.55
790.3003	82.1824	4336.85	3859.2
790.4414	84.4412	7983.75	7498.25
790.5825	86.6995	12919.65	12426.75
790.7237	88.9574	17813.75	17315.5
790.8648	91.2148	21390.5	20888.7
791.006	93.4717	23293.6	22786.7
791.1472	95.7282	24196.6	23689.5
791.2885	97.9842	24630.95	24121.85
791.4297	100.2398	24783	24269.1
791.571	102.4949	24843.9	24328.65
791.7123	104.7495	24884.65	24363.75
791.8536	107.0036	24846.6	24325.3
791.9949	109.2573	24897.5	24377.85
792.1363	111.5105	24908.5	24385.65
792.2777	113.7632	24896.05	24373.55
792.4191	116.0154	24905.7	24370.8
792.5605	118.2672	25019.6	24491.5
792.7019	120.5185	25063.25	24533.7
792.8434	122.7693	25078.65	24542.8
792.9849	125.0197	25122	24582.15
793.1264	127.2696	25162.5	24621
793.2679	129.519	25276.4	24731.85
793.4094	131.7679	25303.1	24758.25
793.551	134.0163	25356.9	24810.35
793.6926	136.2642	25432	24876.45
793.8342	138.5117	25466.85	24911.4
793.9758	140.7587	25474.75	24918.9
794.1175	143.0052	25518.3	24959.4
794.2591	145.2512	25514.1	24950.1
794.4008	147.4967	25486.2	24923
794.5425	149.7417	25470.55	24902.5
794.6842	151.9863	25461.4	24891.05
794.826	154.2304	25533.5	24959.05
794.9677	156.4739	25450.05	24868.55
795.1095	158.717	25499.8	24921.7
795.2513	160.9596	25521	24937.3
795.3931	163.2017	25542.2	24955.6
795.535	165.4433	25572	24987.8
795.6768	167.6844	25587.6	24997.95
795.8187	169.925	25588.85	24995.2
795.9606	172.1651	25547	24951.3
796.1025	174.4047	25601.45	25000.65
796.2445	176.6439	25582.05	24981.7
796.3864	178.8825	25605.65	24999.65
796.5284	181.1206	25643.2	25034.1
796.6704	183.3582	25648.25	25035.75
796.8124	185.5954	25690.1	25074.6
796.9544	187.832	25707.45	25090.3
797.0965	190.0681	25793.55	25174.6
797.2386	192.3037	25827.9	25205.4
797.3806	194.5388	25842.55	25216.95
797.5228	196.7734	25910.95	25282.1
797.6649	199.0075	26008.65	25376.2
797.807	201.2411	26115.9	25486
797.9492	203.4742	26163.6	25531.3
798.0914	205.7068	26256.45	25620
798.2336	207.9389	26314.8	25677.75
798.3758	210.1704	26378.1	25746.55
798.518	212.4015	26352.15	25729.9
798.6603	214.632	26434.05	25816.95
798.8025	216.862	26493.1	25877.35
798.9448	219.0915	26526.35	25908.45
799.0871	221.3205	26578.45	25959.9
799.2294	223.549	26626.9	26011.45
799.3718	225.777	26670.85	26053.05
799.5141	228.0044	26721.7	26097.2
799.6565	230.2314	26778	26153
799.7989	232.4578	26743.9	26113.1
799.9413	234.6837	26772.4	26132.25
800.0837	236.909	26809.3	26166.6
800.2262	239.1339	26854.4	26189.45
800.3687	241.3582	26872.4	26222.85
800.5111	243.582	26888.95	26208.5
800.6536	245.8053	26952.25	26284.9
800.7961	248.0281	26974.45	26310.3
800.9387	250.2503	26989.75	26324.15
801.0812	252.472	27020.4	26351.45
801.2238	254.6932	27070.6	26404.45
801.3664	256.9139	27044.25	26373.7
801.509	259.134	27064.15	26387
801.6516	261.3536	27100.85	26430.85
801.7942	263.5727	27169.2	26496.1
801.9369	265.7912	27182.65	26509.45
802.0795	268.0092	27198.5	26523.2
802.2222	270.2267	27256	26583.1
802.3649	272.4436	27285.8	26607.9
802.5076	274.6601	27313.2	26625.3
802.6504	276.8759	27293.05	26608.65
802.7931	279.0913	27374	26692.25
802.9359	281.3061	27347	26663
803.0787	283.5204	27437.05	26751.05
803.2215	285.7341	27462.6	26773.4
803.3643	287.9473	27539.6	26838.9
803.5071	290.16	27470	26777.05
803.6499	292.3721	27459.2	26771.5
803.7928	294.5837	27470.65	26780.8
803.9357	296.7947	27438.9	26751.25
804.0786	299.0052	27423.5	26733.9
804.2215	301.2152	27374.2	26679.8
804.3644	303.4246	27429.05	26738.05
804.5074	305.6334	27412	26718.6
804.6503	307.8418	27406.85	26710.55
804.7933	310.0495	27352.7	26653.5
804.9363	312.2568	27317.3	26619.55
805.0793	314.4635	27240.1	26540.25
805.2223	316.6696	27202.95	26501.4
805.3653	318.8752	27086.25	26375.75
805.5084	321.0802	27046.1	26342.3
805.6514	323.2847	27086.05	26378.85
805.7945	325.4887	27081.4	26374.95
805.9376	327.692	27083.45	26375.1
806.0807	329.8949	27161.05	26449
806.2238	332.0972	27144.25	26432.6
806.367	334.2989	27212.7	26499.6
806.5101	336.5001	27216.6	26503.6
806.6533	338.7007	27174.3	26458.85
806.7965	340.9008	27187.85	26470.55
806.9397	343.1003	27142.75	26422.9
807.0829	345.2992	27131.6	26411.4
807.2261	347.4976	27118.85	26397
807.3693	349.6955	27127.6	26401.65
807.5126	351.8927	27152.85	26426
807.6559	354.0895	27079.65	26343.4
807.7991	356.2856	27053.75	26325.75
807.9424	358.4812	27019.65	26289.9
808.0857	360.6763	27074.55	26342.95
808.2291	362.8707	26975.8	26240.9
808.3724	365.0646	27080.05	26343.7
808.5158	367.258	27030.65	26290.2
808.6591	369.4508	26981.8	26239
808.8025	371.643	27007	26266.1
808.9459	373.8346	26969.1	26226.9
809.0893	376.0257	26931.4	26186.55
809.2327	378.2162	26916.5	26172.15
809.3762	380.4062	26973.6	26230.9
809.5196	382.5956	26885.7	26145.55
809.6631	384.7844	26856.1	26119.5
809.8066	386.9726	26789.95	26054.5
809.9501	389.1603	26758.75	26024.05
810.0936	391.3474	26753.3	25970
810.2371	393.5339	26717.1	25980.1
810.3806	395.7199	26619.9	25883.25
810.5241	397.9052	26644.15	25906.45
810.6677	400.09	26584.05	25843.9
810.8113	402.2743	26626.05	25885.1
810.9548	404.4579	26580.85	25836.1
811.0984	406.641	26720.55	25973.5
811.2421	408.8235	26668.05	25918.7
811.3857	411.0054	26746.85	25995.55
811.5293	413.1868	26877.05	26124.55
811.673	415.3675	26854.75	26097.9
811.8166	417.5477	26852.1	26095.2
811.9603	419.7273	26753.7	25996.55
812.104	421.9064	26627.7	25861.85
812.2477	424.0848	26521.75	25760.2
812.3914	426.2627	26461.8	25700.65
812.5351	428.4399	26398	25636.4
812.6788	430.6166	26327.7	25563.55
812.8226	432.7928	26241.6	25473.55
812.9663	434.9683	26153.75	25388.2
813.1101	437.1432	26153.4	25384.2
813.2539	439.3176	26006.2	25239.65
813.3977	441.4914	25906.05	25137.5
813.5415	443.6645	25953	25185.7
813.6853	445.8371	25852.6	25082.35
813.8291	448.0091	25723.5	24955.5
813.973	450.1806	25675.4	24905.35
814.1168	452.3514	25589.8	24815.75
814.2607	454.5216	25609.55	24829.5
814.4046	456.6913	25466.9	24693.35
814.5485	458.8603	25479.25	24704.5
814.6924	461.0288	25493.55	24720.35
814.8363	463.1967	25432.45	24658.45
814.9802	465.3639	25457.45	24682.35
815.1241	467.5306	25390.05	24613.7
815.2681	469.6967	25359.65	24583.2
815.412	471.8622	25224.2	24449.05
815.556	474.0271	25273.35	24498.65
815.7	476.1914	25274.4	24495.2
815.844	478.3551	25243.15	24466.4
815.988	480.5182	25261.05	24482.6
816.132	482.6807	25271	24490.35
816.276	484.8426	25279.4	24498.35
816.4201	487.0039	25346	24566.95
816.5641	489.1647	25364.7	24582.4
816.7082	491.3248	25384.85	24602.35
816.8522	493.4843	25398.1	24616.2
816.9963	495.6432	25356.25	24572.6
817.1404	497.8015	25264	24476.2
817.2845	499.9592	25273.05	24486.25
817.4286	502.1163	25202.85	24417.2
817.5727	504.2728	25154.9	24366.95
817.7168	506.4287	25188.65	24403.7
817.861	508.5839	25103.3	24315.25
818.0051	510.7386	25082.25	24294.25
818.1493	512.8927	25117.05	24320.45
818.2935	515.0461	25096.2	24307.25
818.4377	517.199	25076.4	24284.3
818.5818	519.3512	25088.2	24296.5
818.726	521.5029	25108.35	24310.15
818.8703	523.6539	25088.2	24292.95
819.0145	525.8043	25096.7	24303
819.1587	527.9541	25030.85	24233.8
819.303	530.1033	24904.1	24108.9
819.4472	532.2519	24847.8	24052.1
819.5915	534.3999	24857.3	24060.25
819.7357	536.5472	24855.8	24058.75
819.88	538.694	24839.65	24044.8
820.0243	540.8401	24875.5	24078.7
820.1686	542.9856	24865.8	24069.5
820.3129	545.1305	24848.25	24049.65
820.4572	547.2748	24852.1	24054.05
820.6016	549.4185	24817.6	24017
820.7459	551.5615	24769.2	23970.6
820.8902	553.704	24763.3	23964.7
821.0346	555.8458	24679.15	23880.9
821.1789	557.987	24730.35	23929.7
821.3233	560.1276	24721.4	23921.6
821.4677	562.2675	24776.1	23980.45
821.6121	564.4069	24787	23987.95
821.7565	566.5456	24733	23931.95
821.9009	568.6837	24709.3	23906.6
822.0453	570.8212	24599.9	23798.7
822.1897	572.958	24545.45	23738.35
822.3342	575.0942	24431.55	23628
822.4786	577.2299	24383.75	23579.35
822.6231	579.3648	24308.5	23505.55
822.7675	581.4992	24183.95	23378.45
822.912	583.6329	24114.75	23308.75
823.0565	585.766	24066.5	23262
823.201	587.8985	24048.9	23243.1
823.3454	590.0304	24031.2	23213.15
823.4899	592.1616	24007.7	23195.9
823.6345	594.2922	23993.35	23186.3
823.779	596.4222	23866.8	23057.2
823.9235	598.5515	23812.05	23000.5
824.068	600.6802	23752.95	22943.1
824.2126	602.8083	23599.8	22791.3
824.3571	604.9358	23560.1	22747.6
824.5017	607.0626	23536.3	22725.15
824.6462	609.1888	23496.05	22682.1
824.7908	611.3144	23502.85	22688.7
824.9354	613.4393	23468.75	22656.3
825.08	615.5636	23514.85	22700.4
825.2246	617.6873	23524.4	22710.45
825.3692	619.8103	23541.3	22726.6
825.5138	621.9327	23443.15	22624
825.6584	624.0544	23426.15	22612.8
825.803	626.1756	23366.8	22551.95
825.9477	628.2961	23302.7	22486.95
826.0923	630.4159	23253.8	22438.6
826.237	632.5351	23228.55	22410.75
826.3816	634.6537	23194.85	22376.45
826.5263	636.7716	23191.05	22369.45
826.6709	638.8889	23134.2	22313.55
826.8156	641.0056	23168.75	22349.05
826.9603	643.1216	23149.95	22329.55
827.105	645.237	23173.95	22350.9
827.2497	647.3518	23134.5	22313.45
827.3944	649.4659	23083.35	22263.05
827.5391	651.5793	23013.55	22194.05
827.6838	653.6922	22972.3	22151.65
827.8285	655.8043	22963.2	22142.6
827.9733	657.9159	22919.7	22094.65
828.118	660.0268	22878.45	22053.35
828.2627	662.137	22847.5	22024.9
828.4075	664.2466	22846.85	22020.3
828.5522	666.3556	22814.05	21988.4
828.697	668.4639	22700.7	21873.4
828.8418	670.5716	22755.3	21929.35
828.9865	672.6786	22748.25	21921.8
829.1313	674.785	22647.9	21819.15
829.2761	676.8907	22550.15	21723.3
829.4209	678.9958	22534.5	21711.7
829.5657	681.1002	22477.1	21649.35
829.7105	683.204	22466.8	21638
829.8553	685.3072	22452.15	21621.15
830.0001	687.4097	22386.2	21558.65
830.1449	689.5115	22367.45	21537.05
830.2898	691.6127	22381.8	21554.5
830.4346	693.7132	22298.8	21468.7
830.5794	695.8131	22331.15	21489.05
830.7243	697.9123	22296.95	21466.2
830.8691	700.0109	22306.35	21476.1
831.014	702.1089	22278.9	21447.35
831.1588	704.2061	22263.25	21433.9
831.3037	706.3028	22239.3	21405.3
831.4486	708.3987	22222.35	21390.85
831.5935	710.4941	22201.95	21370.4
831.7383	712.5887	22211.8	21378.7
831.8832	714.6827	22171.75	21336.5
832.0281	716.7761	22142.3	21308.75
832.173	718.8688	22122.9	21287.6
832.3179	720.9608	22094.5	21257.55
832.4628	723.0522	22111.15	21271.1
832.6077	725.1429	22032.7	21197.6
832.7527	727.233	22041.3	21205.85
832.8976	729.3224	22140.35	21304.6
833.0425	731.4112	22087.65	21251.45
833.1874	733.4993	22074.7	21237.25
833.3324	735.5867	21935.9	21098.9
833.4773	737.6735	21928.8	21090.45
833.6222	739.7596	21820.35	20982.55
833.7672	741.845	21749.15	20910.65
833.9122	743.9298	21697.95	20860.2
834.0571	746.014	21675.55	20835.8
834.2021	748.0974	21674.75	20835
834.347	750.1802	21608.7	20769.3
834.492	752.2624	21540.3	20702.2
834.637	754.3439	21433.75	20592.6
834.782	756.4247	21395.45	20547.55
834.9269	758.5048	21323.05	20481.85
835.0719	760.5843	21329.75	20488.6
835.2169	762.6631	21289.1	20448.95
835.3619	764.7413	21243.25	20404.65
835.5069	766.8188	21269.7	20428.05
835.6519	768.8956	21256.45	20414.3
835.7969	770.9718	21278.5	20440.6
835.9419	773.0473	21218.3	20379.55
836.0869	775.1221	21161.3	20321.05
836.232	777.1962	21079.85	20237.45
836.377	779.2697	21077.1	20234.4
836.522	781.3426	21130.85	20268.55
836.667	783.4147	21093.35	20250.55
836.8121	785.4862	21056.8	20216.75
836.9571	787.557	20969.6	20125.45
837.1021	789.6271	20906.85	20063.55
837.2472	791.6966	20786.7	19943.95
837.3922	793.7654	20689.25	19845.95
837.5373	795.8335	20630.5	19788.65
837.6823	797.901	20575.45	19731.75
837.8274	799.9678	20510.9	19665.45
837.9724	802.0339	20460.55	19616.7
838.1175	804.0993	20479.55	19626.15
838.2626	806.1641	20398.7	19555
838.4076	808.2282	20331.9	19485
838.5527	810.2916	20310.35	19465.1
838.6978	812.3544	20287.35	19441.9
838.8428	814.4164	20253.05	19408.1
838.9879	816.4778	20267.15	19419.9
839.133	818.5385	20238.65	19393.95
839.2781	820.5986	20247.35	19401.95
839.4232	822.658	20245.3	19399.65
839.5682	824.7166	20210.45	19363.4
839.7133	826.7747	20297.2	19453.1
839.8584	828.832	20299.45	19451.95
840.0035	830.8886	20208.75	19359.75
840.1486	832.9446	20243.05	19393.6
840.2937	834.9999	20153.8	19305.45
840.4388	837.0545	20092.8	19241.9
840.5839	839.1085	20003.6	19156.5
840.729	841.1618	19928.7	19075.85
840.8741	843.2143	19896.55	19048.3
841.0192	845.2662	19800.6	18950.6
841.1643	847.3175	19798.5	18951.55
841.3095	849.368	19733.7	18884.95
841.4546	851.4179	19677.85	18830.2
841.5997	853.467	19631.55	18782.1
841.7448	855.5155	19612.6	18763.8
841.8899	857.5633	19573.35	18723.2
842.0351	859.6105	19529.65	18680.1
842.1802	861.6569	19529.65	18678.55
842.3253	863.7027	19500.9	18649.7
842.4704	865.7478	19440.9	18589.4
842.6156	867.7922	19414.1	18563.45
842.7607	869.8359	19360.4	18508.85
842.9058	871.8789	19357.9	18505.15
843.0509	873.9212	19354.4	18473.5
843.1961	875.9629	19290.95	18438.45
843.3412	878.0039	19296.9	18444.3
843.4863	880.0441	19259.75	18409.55
843.6315	882.0837	19271.35	18418.9
843.7766	884.1226	19259.05	18406.75
843.9218	886.1609	19258.95	18407.6
844.0669	888.1984	19304.15	18452.7
844.212	890.2352	19391.05	18540.25
844.3572	892.2714	19319.9	18463.55
844.5023	894.3069	19293.4	18438.95
844.6475	896.3416	19164.1	18310.3
844.7926	898.3757	19151.15	18295.9
844.9377	900.4091	19110.6	18255.85
845.0829	902.4418	19099.05	18241.9
845.228	904.4739	18999.55	18145.9
845.3732	906.5052	19001.35	18146.5
845.5183	908.5358	19030.35	18178.1
845.6635	910.5658	18928.1	18072.35
845.8086	912.595	18880.75	18023.5
845.9538	914.6236	18809.35	17955
846.0989	916.6515	18772.3	17916.1
846.2441	918.6786	18714	17856.1
846.3892	920.7051	18726.1	17867.5
846.5344	922.7309	18729.85	17875.4
846.6795	924.756	18615.35	17758.25
846.8246	926.7804	18639.55	17783.8
846.9698	928.8041	18515.1	17656.1
847.1149	930.8272	18564.8	17707.35
847.2601	932.8495	18443.5	17584.65
847.4052	934.8711	18444.65	17586.55
847.5504	936.892	18400.55	17541.95
847.6955	938.9123	18353.6	17494.45
847.8407	940.9318	18345.45	17486.15
847.9858	942.9506	18297.25	17440.5
848.131	944.9688	18202.7	17346.95
848.2761	946.9862	18154.45	17295.1
848.4213	949.003	18052.05	17194.8
848.5664	951.019	18020.7	17162.4
848.7115	953.0344	17971.1	17113
848.8567	955.0491	17963.9	17105.65
849.0018	957.063	17923.4	17064.9
849.147	959.0763	17941	17082.95
849.2921	961.0888	17893.5	17033.35
849.4373	963.1007	17864.9	17006
849.5824	965.1119	17850.4	16996.35
849.7275	967.1223	17825.05	16966.1
849.8727	969.1321	17762.85	16903.55
850.0178	971.1412	17778.85	16920.9
850.1629	973.1495	17696.65	16837.55
850.3081	975.1572	17721.5	16815.7
850.4532	977.1641	17697.4	16837.65
850.5983	979.1704	17621.85	16762.05
850.7435	981.1759	17584.35	16725
850.8886	983.1808	17582.95	16720.35
851.0337	985.1849	17521.65	16650.65
851.1788	987.1884	17471.1	16609.6
851.324	989.1911	17458.8	16594.75
851.4691	991.1932	17396.3	16533.55
851.6142	993.1945	17337.7	16481.4
851.7593	995.1951	17249.85	16388.65
851.9045	997.1951	17243.1	16377
852.0496	999.1943	17176.3	16315.65
852.1947	1001.1928	17133.05	16269.25
852.3398	1003.1906	17045.25	16184.6
852.4849	1005.1877	17057.4	16195.6
852.63	1007.1841	16984.1	16123.1
852.7751	1009.1798	16963.15	16102
852.9202	1011.1748	16901	16038.6
853.0653	1013.1691	16858.6	15997.8
853.2104	1015.1627	16764.1	15902.1
853.3555	1017.1556	16669.7	15806.75
853.5006	1019.1477	16598.5	15735
853.6457	1021.1392	16496.45	15635.65
853.7908	1023.1299	16461.2	15599.25
853.9359	1025.12	16370.6	15504.7
854.081	1027.1093	16287.65	15428.8
854.2261	1029.0979	16302.9	15441.75
854.3712	1031.0859	16277.8	15415.85
854.5163	1033.0731	16215.1	15350.75
854.6613	1035.0596	16176.05	15313.85
854.8064	1037.0454	16111.3	15245.3
854.9515	1039.0304	16098.8	15235.65
855.0965	1041.0148	15982.7	15118.95
855.2416	1042.9985	15929	15062.35
855.3867	1044.9814	15899.9	15037.05
855.5317	1046.9636	15862.65	14998.25
855.6768	1048.9452	15795.7	14933.2
855.8219	1050.926	15821.65	14959
855.9669	1052.9061	15789.8	14927.1
856.112	1054.8855	15733.65	14870.6
856.257	1056.8642	15700.55	14836.45
856.4021	1058.8421	15692.95	14823.55
856.5471	1060.8194	15651.6	14785.9
856.6921	1062.7959	15609.5	14745.35
856.8372	1064.7717	15565	14696.75
856.9822	1066.7469	15535.2	14669.05
857.1272	1068.7213	15522.3	14653.65
857.2723	1070.695	15515	14648
857.4173	1072.6679	15440.8	14575.5
857.5623	1074.6402	15425.55	14560.55
857.7073	1076.6117	15469.5	14600.6
857.8523	1078.5826	15458.1	14594
857.9973	1080.5527	15353.2	14485.2
858.1423	1082.5221	15271.05	14406.25
858.2873	1084.4908	15247.6	14383.75
858.4323	1086.4587	15202.9	14336.75
858.5773	1088.426	15161.95	14294.8
858.7223	1090.3925	15107.7	14237.55
858.8673	1092.3584	15094	14229.05
859.0123	1094.3235	15027.6	14163.85
859.1573	1096.2879	14992.4	14125.65
859.3022	1098.2515	14982.15	14117.25
859.4472	1100.2145	15033.2	14168.15
859.5922	1102.1767	14988.9	14119.7
859.7371	1104.1382	14991.85	14125.6
859.8821	1106.099	15002.4	14133.75
860.027	1108.0591	14961.75	14097.35
860.172	1110.0185	14979.55	14112.3
860.3169	1111.9771	15015.6	14149.95
860.4619	1113.9351	14960.7	14093.75
860.6068	1115.8923	14946.25	14079.3
860.7517	1117.8488	14931.9	14061.95
860.8967	1119.8045	14868.05	14001.95
861.0416	1121.7596	14763.55	13894.1
861.1865	1123.7139	14666.7	13798.8
861.3314	1125.6675	14616.3	13750.25
861.4763	1127.6204	14609.95	13742.9
861.6212	1129.5726	14572.55	13703.3
861.7661	1131.524	14563.65	13696.7
861.911	1133.4748	14521.35	13652.35
862.0559	1135.4248	14447.7	13579.75
862.2008	1137.3741	14360.4	13492.5
862.3457	1139.3226	14339.3	13470.05
862.4905	1141.2705	14318.85	13450.9
862.6354	1143.2176	14266.95	13394.3
862.7803	1145.164	14263.95	13394.45
862.9251	1147.1097	14226.05	13357.05
863.07	1149.0546	14224.9	13355.7
863.2148	1150.9989	14183.45	13315.1
863.3597	1152.9424	14152.45	13284.4
863.5045	1154.8852	14126.05	13256.9
863.6493	1156.8272	14125.5	13258.75
863.7942	1158.7686	14125.6	13251.05
863.939	1160.7092	14055.95	13185.4
864.0838	1162.6491	14007.65	13136.35
864.2286	1164.5883	14010.95	13141.55
864.3734	1166.5267	13999.8	13130.65
864.5182	1168.4644	14001.35	13132.7
864.663	1170.4014	13997.75	13124
864.8078	1172.3377	13993.3	13124.45
864.9526	1174.2732	14015.3	13146.1
865.0974	1176.2081	14071.6	13203.4
865.2421	1178.1421	14139.8	13268.15
865.3869	1180.0755	14163.7	13296.65
865.5317	1182.0082	14195.3	13327.1
865.6764	1183.9401	14114.9	13245.85
865.8212	1185.8713	14044.75	13175.35
