Software Version:	3.9.2.0
Unit SN:	10000200
Spectrometer SN:	6960
Date:	3/6/2024 9:50:05 AM
Data Line Index:	25
Spectral Points:	2048
Integration time (ms):	125
Averages:	20
Delay (ms):	30
Sequence Number:	1
Processing:	dark subtract
Laser Power (mW):	300
Laser Current (mA):	823
Laser Diode Temp (C):	25.1
Laser Case Temp (C):	24.3
System Temp (C):	24.1
Spectrometer Temp (C):	21.7
CCD Temp (C):	-0.013
Secondary Temp (C):	20.001
Heatsink Temp (C):	18.183
CCDPCB Temp (C):	30.471
SecondaryPCB Temp (C):	25.991

Wavelength	RamanShift	Raw Counts	Dark Subtracted
787.061	30.1047	446.7	36.7
787.2016	32.3739	445.4	41.95
787.3422	34.6426	448.8	43.25
787.4828	36.9109	453.25	45.15
787.6235	39.1787	458.9	46.75
787.7642	41.4461	469.85	52.85
787.9049	43.7131	473.2	51.55
788.0456	45.9796	479.7	56.8
788.1863	48.2456	492.2	65.85
788.3271	50.5112	495.55	63.8
788.4679	52.7764	501.25	68.1
788.6087	55.0411	511.75	77.1
788.7496	57.3054	519	76.8
788.8904	59.5692	526.25	81.75
789.0313	61.8326	529	84.05
789.1722	64.0955	542.8	91.6
789.3132	66.3579	556.1	101.25
789.4541	68.6199	568.25	110.25
789.5951	70.8815	593.9	133
789.7361	73.1426	635.3	168.9
789.8771	75.4032	740.45	269.4
790.0181	77.6634	1017	543.7
790.1592	79.9231	1658.5	1180.6
790.3003	82.1824	3011.15	2526.05
790.4414	84.4412	5352.5	4855.6
790.5825	86.6995	8573.75	8062.8
790.7237	88.9574	11759.45	11239.2
790.8648	91.2148	14143.15	13613.25
791.006	93.4717	15448.55	14914.3
791.1472	95.7282	16004	15466.15
791.2885	97.9842	16325.75	15784.1
791.4297	100.2398	16435.1	15890.95
791.571	102.4949	16463.65	15916.85
791.7123	104.7495	16441.8	15892.85
791.8536	107.0036	16427.8	15877.05
791.9949	109.2573	16438.7	15888.5
792.1363	111.5105	16459.8	15909.55
792.2777	113.7632	16407.2	15852.05
792.4191	116.0154	16452.8	15886.25
792.5605	118.2672	16511.8	15950.05
792.7019	120.5185	16514.95	15954.7
792.8434	122.7693	16528.55	15963.35
792.9849	125.0197	16579.95	16011.9
793.1264	127.2696	16572.1	16000.2
793.2679	129.519	16647.3	16071.6
793.4094	131.7679	16665.55	16088.5
793.551	134.0163	16665.2	16083.7
793.6926	136.2642	16732.15	16150.4
793.8342	138.5117	16715.85	16128.15
793.9758	140.7587	16727.85	16140.55
794.1175	143.0052	16753.35	16160.75
794.2591	145.2512	16733.3	16142.2
794.4008	147.4967	16703.85	16109.2
794.5425	149.7417	16682.7	16086.35
794.6842	151.9863	16701.7	16102.45
794.826	154.2304	16723.4	16118.2
794.9677	156.4739	16690.3	16081.45
795.1095	158.717	16743.6	16137.5
795.2513	160.9596	16752.2	16139.15
795.3931	163.2017	16731.25	16116.65
795.535	165.4433	16757.3	16138.45
795.6768	167.6844	16750.85	16132.15
795.8187	169.925	16751.15	16127.45
795.9606	172.1651	16701.65	16074.1
796.1025	174.4047	16674.45	16044.4
796.2445	176.6439	16692.3	16058.45
796.3864	178.8825	16721.95	16086.8
796.5284	181.1206	16751.9	16112.9
796.6704	183.3582	16758.9	16118.2
796.8124	185.5954	16770.4	16126.75
796.9544	187.832	16782.2	16131.85
797.0965	190.0681	16834.85	16181.3
797.2386	192.3037	16860.6	16210.3
797.3806	194.5388	16831	16172.6
797.5228	196.7734	16888	16231.8
797.6649	199.0075	16956.35	16295.1
797.807	201.2411	17063.4	16405.35
797.9492	203.4742	17062.95	16402.85
798.0914	205.7068	17130.25	16463.2
798.2336	207.9389	17132.7	16463.3
798.3758	210.1704	17173.95	16508.75
798.518	212.4015	17163.15	16509.75
798.6603	214.632	17183.3	16536.35
798.8025	216.862	17247.15	16601.2
798.9448	219.0915	17191.4	16544.65
799.0871	221.3205	17257.85	16606.2
799.2294	223.549	17308.85	16662.45
799.3718	225.777	17319.85	16673.15
799.5141	228.0044	17366.2	16713
799.6565	230.2314	17380.55	16723.45
799.7989	232.4578	17392.6	16733.5
799.9413	234.6837	17391.75	16723.4
800.0837	236.909	17416.5	16747.1
800.2262	239.1339	17431.7	16738.15
800.3687	241.3582	17432.5	16753.25
800.5111	243.582	17440.45	16731.05
800.6536	245.8053	17501.2	16803.5
800.7961	248.0281	17494.8	16803.6
800.9387	250.2503	17478	16782.75
801.0812	252.472	17482.45	16783.1
801.2238	254.6932	17568.85	16872.5
801.3664	256.9139	17477.8	16778.2
801.509	259.134	17554.8	16852.15
801.6516	261.3536	17539.6	16839.3
801.7942	263.5727	17598.95	16893.65
801.9369	265.7912	17571.4	16869.15
802.0795	268.0092	17641.15	16934.45
802.2222	270.2267	17648.55	16943.95
802.3649	272.4436	17649.75	16947.4
802.5076	274.6601	17661.65	16943.9
802.6504	276.8759	17638.85	16926.95
802.7931	279.0913	17701.6	16986.95
802.9359	281.3061	17687.5	16971.35
803.0787	283.5204	17720.85	17004.4
803.2215	285.7341	17752.9	17032.75
803.3643	287.9473	17803.7	17075.6
803.5071	290.16	17770.65	17048.2
803.6499	292.3721	17763.55	17048.05
803.7928	294.5837	17756.25	17039.65
803.9357	296.7947	17698.1	16978.9
804.0786	299.0052	17715.1	16995.2
804.2215	301.2152	17661.85	16940.2
804.3644	303.4246	17682.8	16960.25
804.5074	305.6334	17651.75	16931.8
804.6503	307.8418	17682.65	16958.85
804.7933	310.0495	17662.8	16936.15
804.9363	312.2568	17646.85	16920.75
805.0793	314.4635	17578.8	16850.1
805.2223	316.6696	17517.55	16786.05
805.3653	318.8752	17469.4	16729.55
805.5084	321.0802	17450.8	16718.45
805.6514	323.2847	17457.2	16722.05
805.7945	325.4887	17443.6	16707.85
805.9376	327.692	17431.8	16695.1
806.0807	329.8949	17493.15	16751.15
806.2238	332.0972	17455.65	16715.65
806.367	334.2989	17492.1	16747.45
806.5101	336.5001	17485.7	16740.85
806.6533	338.7007	17483.75	16739.45
806.7965	340.9008	17500.6	16756.5
806.9397	343.1003	17456	16711
807.0829	345.2992	17421.8	16674
807.2261	347.4976	17418.75	16667.9
807.3693	349.6955	17399.8	16647.35
807.5126	351.8927	17431.45	16676.4
807.6559	354.0895	17372.5	16608.55
807.7991	356.2856	17398.6	16643.2
807.9424	358.4812	17366.05	16609.35
808.0857	360.6763	17392.4	16632.05
808.2291	362.8707	17341.7	16583.25
808.3724	365.0646	17352.45	16587.9
808.5158	367.258	17337.95	16571.65
808.6591	369.4508	17314.25	16542.85
808.8025	371.643	17354.5	16584.2
808.9459	373.8346	17303.2	16534.2
809.0893	376.0257	17282.25	16509
809.2327	378.2162	17278.85	16504.55
809.3762	380.4062	17265.95	16493.85
809.5196	382.5956	17245.35	16471.8
809.6631	384.7844	17232.65	16466.7
809.8066	386.9726	17177.05	16408.35
809.9501	389.1603	17111.6	16344.7
810.0936	391.3474	17151.85	16355.5
810.2371	393.5339	17119.5	16351.9
810.3806	395.7199	17036.45	16270.65
810.5241	397.9052	17069	16302.7
810.6677	400.09	17054.2	16285.3
810.8113	402.2743	17067.95	16301.15
810.9548	404.4579	17050.1	16280.95
811.0984	406.641	17123.45	16351.9
811.2421	408.8235	17111.55	16337.6
811.3857	411.0054	17119.55	16344.15
811.5293	413.1868	17234.15	16455.3
811.673	415.3675	17276.25	16497.9
811.8166	417.5477	17289.3	16509.4
811.9603	419.7273	17200.95	16416.45
812.104	421.9064	17114.15	16323
812.2477	424.0848	17008.35	16222.15
812.3914	426.2627	16965.95	16178.2
812.5351	428.4399	16895.55	16106.15
812.6788	430.6166	16859.3	16069.95
812.8226	432.7928	16810.75	16018.65
812.9663	434.9683	16728.45	15936
813.1101	437.1432	16722.65	15926.15
813.2539	439.3176	16658.8	15865
813.3977	441.4914	16622.95	15831.3
813.5415	443.6645	16605.15	15814.25
813.6853	445.8371	16519.9	15728.2
813.8291	448.0091	16470.35	15677.95
813.973	450.1806	16424	15631.5
814.1168	452.3514	16375.1	15578.3
814.2607	454.5216	16368.85	15563.9
814.4046	456.6913	16286.75	15486.15
814.5485	458.8603	16292	15493.4
814.6924	461.0288	16335.55	15538.25
814.8363	463.1967	16247.2	15450.7
814.9802	465.3639	16276.35	15475.3
815.1241	467.5306	16224.05	15421.55
815.2681	469.6967	16214.9	15414.95
815.412	471.8622	16191.15	15393.6
815.556	474.0271	16173.15	15373.35
815.7	476.1914	16139.85	15336.65
815.844	478.3551	16124.55	15322.6
815.988	480.5182	16138.65	15335.35
816.132	482.6807	16134.25	15332.8
816.276	484.8426	16153.85	15355
816.4201	487.0039	16146.05	15342.75
816.5641	489.1647	16197.1	15390.25
816.7082	491.3248	16253.95	15446.7
816.8522	493.4843	16213.8	15407.95
816.9963	495.6432	16201.3	15395
817.1404	497.8015	16159.55	15348.55
817.2845	499.9592	16127.25	15314.05
817.4286	502.1163	16125.1	15314.8
817.5727	504.2728	16026.15	15213.7
817.7168	506.4287	16091.05	15284.7
817.861	508.5839	16035.2	15227.75
818.0051	510.7386	16012.35	15201.75
818.1493	512.8927	16046.75	15230.85
818.2935	515.0461	16019.25	15208.45
818.4377	517.199	16003.45	15191.3
818.5818	519.3512	15994.55	15181.9
818.726	521.5029	16018.5	15199.05
818.8703	523.6539	16020.8	15204.45
819.0145	525.8043	16035.35	15218
819.1587	527.9541	16018.75	15200.85
819.303	530.1033	15940.95	15124.15
819.4472	532.2519	15908.65	15092.2
819.5915	534.3999	15873.5	15053.15
819.7357	536.5472	15842.9	15023.6
819.88	538.694	15831.85	15016.45
820.0243	540.8401	15847	15029.6
820.1686	542.9856	15874.75	15050.9
820.3129	545.1305	15833.75	15009.7
820.4572	547.2748	15862.7	15037.65
820.6016	549.4185	15849.75	15021.05
820.7459	551.5615	15825.25	14998.4
820.8902	553.704	15811.35	14988.55
821.0346	555.8458	15779.95	14956.7
821.1789	557.987	15793.8	14968.4
821.3233	560.1276	15754.9	14927.2
821.4677	562.2675	15835.35	15011.65
821.6121	564.4069	15826.3	15002.25
821.7565	566.5456	15794.1	14971.35
821.9009	568.6837	15778.7	14953.15
822.0453	570.8212	15734.7	14908.7
822.1897	572.958	15644.55	14816.5
822.3342	575.0942	15602.8	14777.7
822.4786	577.2299	15562.95	14737.3
822.6231	579.3648	15551.05	14726.55
822.7675	581.4992	15422.05	14600.25
822.912	583.6329	15387.4	14564.05
823.0565	585.766	15373.85	14550.95
823.201	587.8985	15354.15	14530.15
823.3454	590.0304	15347.9	14509.9
823.4899	592.1616	15337.6	14506.45
823.6345	594.2922	15279.45	14449.8
823.779	596.4222	15235.5	14403.6
823.9235	598.5515	15190.15	14356.9
824.068	600.6802	15116.5	14282.75
824.2126	602.8083	15073.5	14243.5
824.3571	604.9358	15078.95	14244.55
824.5017	607.0626	15027.6	14191.55
824.6462	609.1888	15001.65	14165.05
824.7908	611.3144	15003.4	14166.35
824.9354	613.4393	14976.75	14142.4
825.08	615.5636	14975.35	14136.75
825.2246	617.6873	15005.9	14168.2
825.3692	619.8103	15036.75	14196.55
825.5138	621.9327	14985.9	14144.75
825.6584	624.0544	14977.55	14141.6
825.803	626.1756	14946.25	14110.1
825.9477	628.2961	14910.5	14073.25
826.0923	630.4159	14842.85	14003.65
826.237	632.5351	14845.45	14006.15
826.3816	634.6537	14823.6	13983.35
826.5263	636.7716	14820.1	13975.8
826.6709	638.8889	14808.75	13963.6
826.8156	641.0056	14831.75	13988.8
826.9603	643.1216	14802.55	13958.05
827.105	645.237	14803.95	13961.4
827.2497	647.3518	14789.6	13948.15
827.3944	649.4659	14747.1	13907.5
827.5391	651.5793	14717.9	13875.05
827.6838	653.6922	14662.75	13819.5
827.8285	655.8043	14669.1	13827.35
827.9733	657.9159	14644.75	13800.75
828.118	660.0268	14607.15	13761.5
828.2627	662.137	14589.25	13741.5
828.4075	664.2466	14584.85	13735.85
828.5522	666.3556	14584.35	13735.7
828.697	668.4639	14541.5	13693
828.8418	670.5716	14527.35	13682.3
828.9865	672.6786	14503.8	13656.3
829.1313	674.785	14461.25	13611.8
829.2761	676.8907	14422.85	13572.15
829.4209	678.9958	14410.5	13563.2
829.5657	681.1002	14374.65	13525.75
829.7105	683.204	14367.05	13513.7
829.8553	685.3072	14334	13483.5
830.0001	687.4097	14304.35	13452.15
830.1449	689.5115	14310.9	13456.85
830.2898	691.6127	14322	13473.7
830.4346	693.7132	14278.7	13427.2
830.5794	695.8131	14276.2	13412.15
830.7243	697.9123	14293.5	13438.85
830.8691	700.0109	14276.65	13423.35
831.014	702.1089	14256.5	13404.9
831.1588	704.2061	14248.35	13396.45
831.3037	706.3028	14220.7	13365.65
831.4486	708.3987	14205.75	13353.85
831.5935	710.4941	14194.75	13341.2
831.7383	712.5887	14205.2	13350
831.8832	714.6827	14170.95	13314.95
832.0281	716.7761	14163	13309.2
832.173	718.8688	14184.3	13329.1
832.3179	720.9608	14180.95	13324.1
832.4628	723.0522	14161.05	13300.9
832.6077	725.1429	14107.8	13253.35
832.7527	727.233	14143.5	13284.35
832.8976	729.3224	14177	13319
833.0425	731.4112	14163.9	13306.6
833.1874	733.4993	14125.05	13266.5
833.3324	735.5867	14063.65	13207
833.4773	737.6735	14016.85	13157.7
833.6222	739.7596	13978.9	13118.05
833.7672	741.845	13936.75	13078.5
833.9122	743.9298	13921.3	13059.5
834.0571	746.014	13923.4	13062.9
834.2021	748.0974	13906.85	13045.1
834.347	750.1802	13881.6	13019.9
834.492	752.2624	13820.45	12960.4
834.637	754.3439	13726.15	12861.75
834.782	756.4247	13710.35	12838.75
834.9269	758.5048	13663.65	12803.15
835.0719	760.5843	13640.35	12777.65
835.2169	762.6631	13623.3	12761.3
835.3619	764.7413	13621.35	12758.65
835.5069	766.8188	13660.8	12800.1
835.6519	768.8956	13615.1	12749.5
835.7969	770.9718	13644	12781.75
835.9419	773.0473	13578.75	12718.5
836.0869	775.1221	13584.85	12724.2
836.232	777.1962	13507.25	12644.75
836.377	779.2697	13529	12663.25
836.522	781.3426	13514.55	12632.3
836.667	783.4147	13537.25	12673.5
836.8121	785.4862	13519.85	12657.05
836.9571	787.557	13463.55	12596.3
837.1021	789.6271	13389.8	12524.1
837.2472	791.6966	13308.45	12445.4
837.3922	793.7654	13252	12386.85
837.5373	795.8335	13219.55	12355.5
837.6823	797.901	13171.7	12308.9
837.8274	799.9678	13157.65	12291.75
837.9724	802.0339	13116.3	12251.2
838.1175	804.0993	13111.9	12237.15
838.2626	806.1641	13057.9	12190.15
838.4076	808.2282	13023.7	12156.6
838.5527	810.2916	13007.2	12139.75
838.6978	812.3544	13001.2	12137.95
838.8428	814.4164	13007.7	12144.25
838.9879	816.4778	13008.5	12140.65
839.133	818.5385	12965.9	12097.2
839.2781	820.5986	12943.2	12075.1
839.4232	822.658	12945.8	12080.6
839.5682	824.7166	12924.9	12057.45
839.7133	826.7747	13015	12147.05
839.8584	828.832	13009.95	12140.15
840.0035	830.8886	13021.6	12151.5
840.1486	832.9446	13014.45	12146.55
840.2937	834.9999	12942.35	12074.45
840.4388	837.0545	12905.05	12031.2
840.5839	839.1085	12848.95	11978.4
840.729	841.1618	12791.1	11916.75
840.8741	843.2143	12779.95	11910
841.0192	845.2662	12710.55	11842.45
841.1643	847.3175	12711.75	11843.9
841.3095	849.368	12668.3	11797.65
841.4546	851.4179	12649.65	11778.5
841.5997	853.467	12582.9	11712.35
841.7448	855.5155	12586.6	11715.1
841.8899	857.5633	12579.05	11707.2
842.0351	859.6105	12519.05	11646.95
842.1802	861.6569	12501.15	11628.8
842.3253	863.7027	12488.9	11616.55
842.4704	865.7478	12480.15	11608.85
842.6156	867.7922	12469.8	11597.95
842.7607	869.8359	12444.95	11572.95
842.9058	871.8789	12406.05	11532.3
843.0509	873.9212	12461.75	11557.6
843.1961	875.9629	12379.65	11507.7
843.3412	878.0039	12370.75	11495.5
843.4863	880.0441	12372.25	11498.65
843.6315	882.0837	12418.45	11545.8
843.7766	884.1226	12421.35	11546.2
843.9218	886.1609	12382.25	11509.55
844.0669	888.1984	12387.3	11514
844.212	890.2352	12411.1	11540.45
844.3572	892.2714	12393.15	11514.75
844.5023	894.3069	12408.3	11533.35
844.6475	896.3416	12320.85	11445.6
844.7926	898.3757	12301.3	11428.75
844.9377	900.4091	12249.05	11375.55
845.0829	902.4418	12245	11364.05
845.228	904.4739	12202.8	11323.75
845.3732	906.5052	12206.45	11329.4
845.5183	908.5358	12195.3	11319.5
845.6635	910.5658	12151.65	11273.05
845.8086	912.595	12118.15	11240.25
845.9538	914.6236	12049.85	11173.9
846.0989	916.6515	12055.15	11177.8
846.2441	918.6786	12006	11126
846.3892	920.7051	11984.4	11107
846.5344	922.7309	12052.25	11176
846.6795	924.756	11958.9	11082.65
846.8246	926.7804	11954.8	11077.75
846.9698	928.8041	11892.15	11013.85
847.1149	930.8272	11902.45	11024.5
847.2601	932.8495	11855.5	10976.3
847.4052	934.8711	11839.95	10962.1
847.5504	936.892	11802	10927.45
847.6955	938.9123	11784.2	10904.15
847.8407	940.9318	11784.8	10906.8
847.9858	942.9506	11721.95	10841.5
848.131	944.9688	11687.05	10809.75
848.2761	946.9862	11648.6	10770.05
848.4213	949.003	11551.6	10671.95
848.5664	951.019	11569.15	10691.1
848.7115	953.0344	11525.2	10644.85
848.8567	955.0491	11502	10621.4
849.0018	957.063	11493.85	10615.75
849.147	959.0763	11528.85	10650.05
849.2921	961.0888	11461.8	10582.8
849.4373	963.1007	11409.85	10532.75
849.5824	965.1119	11419.1	10543.45
849.7275	967.1223	11402	10526.4
849.8727	969.1321	11394.45	10519.95
850.0178	971.1412	11404.45	10526.65
850.1629	973.1495	11361.95	10485.05
850.3081	975.1572	11372.1	10445.65
850.4532	977.1641	11309	10428.7
850.5983	979.1704	11284.3	10403.95
850.7435	981.1759	11273.5	10388.6
850.8886	983.1808	11251.8	10368.85
851.0337	985.1849	11232	10340
851.1788	987.1884	11202.4	10319.7
851.324	989.1911	11184.45	10299.8
851.4691	991.1932	11157.35	10278.25
851.6142	993.1945	11109.45	10228.35
851.7593	995.1951	11055.6	10173.85
851.9045	997.1951	11052.15	10165.1
852.0496	999.1943	11005.9	10126.35
852.1947	1001.1928	10980.3	10097.75
852.3398	1003.1906	10920.2	10040
852.4849	1005.1877	10936.55	10054.1
852.63	1007.1841	10910.3	10030.15
852.7751	1009.1798	10888.55	10005.8
852.9202	1011.1748	10812	9932.75
853.0653	1013.1691	10777.65	9896.65
853.2104	1015.1627	10744.45	9862.65
853.3555	1017.1556	10672.75	9790.45
853.5006	1019.1477	10652.95	9771.25
853.6457	1021.1392	10569.55	9689.9
853.7908	1023.1299	10553.35	9672.8
853.9359	1025.12	10518.95	9638.05
854.081	1027.1093	10462.95	9587.55
854.2261	1029.0979	10450.45	9575.15
854.3712	1031.0859	10408.7	9532.05
854.5163	1033.0731	10420.95	9541.45
854.6613	1035.0596	10347.2	9468.55
854.8064	1037.0454	10325.5	9442.75
854.9515	1039.0304	10314.7	9433.85
855.0965	1041.0148	10269.1	9387.95
855.2416	1042.9985	10216.5	9332.6
855.3867	1044.9814	10186.1	9306.9
855.5317	1046.9636	10166.4	9283.3
855.6768	1048.9452	10125.3	9244.6
855.8219	1050.926	10139.2	9259.5
855.9669	1052.9061	10117.35	9237.65
856.112	1054.8855	10081.6	9201.55
856.257	1056.8642	10068.45	9187
856.4021	1058.8421	10053.3	9166.75
856.5471	1060.8194	10007.65	9124.45
856.6921	1062.7959	10005.7	9121.25
856.8372	1064.7717	9995.15	9112.2
856.9822	1066.7469	9976	9090.95
857.1272	1068.7213	9934.6	9051.2
857.2723	1070.695	9945.5	9062.1
857.4173	1072.6679	9907.8	9024
857.5623	1074.6402	9912.95	9030.4
857.7073	1076.6117	9908.15	9018.9
857.8523	1078.5826	9888.95	9005.3
857.9973	1080.5527	9821.55	8935.15
858.1423	1082.5221	9778.75	8892.4
858.2873	1084.4908	9758.1	8875.6
858.4323	1086.4587	9710.95	8826.6
858.5773	1088.426	9708.85	8824.7
858.7223	1090.3925	9666.6	8777.7
858.8673	1092.3584	9687.95	8803.95
859.0123	1094.3235	9621.05	8739.25
859.1573	1096.2879	9622.4	8738.75
859.3022	1098.2515	9623.85	8739.85
859.4472	1100.2145	9630.55	8745.5
859.5922	1102.1767	9582.15	8695.2
859.7371	1104.1382	9582.7	8698.25
859.8821	1106.099	9598.35	8713.4
860.027	1108.0591	9602.45	8719
860.172	1110.0185	9596.85	8710.2
860.3169	1111.9771	9618.6	8733.4
860.4619	1113.9351	9590.35	8705.5
860.6068	1115.8923	9588.65	8703.9
860.7517	1117.8488	9593.9	8710.5
860.8967	1119.8045	9522.45	8638.3
861.0416	1121.7596	9484.65	8598.75
861.1865	1123.7139	9399.05	8517.55
861.3314	1125.6675	9346.8	8464.25
861.4763	1127.6204	9361.25	8477.05
861.6212	1129.5726	9330.55	8443.65
861.7661	1131.524	9322.45	8438.15
861.911	1133.4748	9297.3	8411.75
862.0559	1135.4248	9233.85	8350.2
862.2008	1137.3741	9197.95	8313.85
862.3457	1139.3226	9168.75	8280.7
862.4905	1141.2705	9170.65	8285.5
862.6354	1143.2176	9123.25	8231.1
862.7803	1145.164	9104.2	8217.3
862.9251	1147.1097	9078.2	8191.7
863.07	1149.0546	9072.3	8185.65
863.2148	1150.9989	9062.9	8176.85
863.3597	1152.9424	9060.25	8176.55
863.5045	1154.8852	9049.6	8163.45
863.6493	1156.8272	8998.95	8113.45
863.7942	1158.7686	9042.65	8152.1
863.939	1160.7092	8965.1	8077.3
864.0838	1162.6491	8934.15	8047.95
864.2286	1164.5883	8942.5	8056.9
864.3734	1166.5267	8928.55	8039.4
864.5182	1168.4644	8941.7	8055.5
864.663	1170.4014	8924.05	8035.25
864.8078	1172.3377	8964	8080.1
864.9526	1174.2732	8950.95	8065.6
865.0974	1176.2081	8983.1	8095.4
865.2421	1178.1421	9000.85	8111.35
865.3869	1180.0755	9077.75	8193.9
865.5317	1182.0082	9052.5	8167.4
865.6764	1183.9401	9055.2	8169.05
865.8212	1185.8713	8974.6	8089.2
865.9659	1187.8017	8876.8	7990.2
866.1106	1189.7315	8824.7	7943.55
