Software Version:	3.9.2.0
Unit SN:	10000200
Spectrometer SN:	6960
Date:	3/6/2024 9:33:42 AM
Data Line Index:	25
Spectral Points:	2048
Integration time (ms):	125
Averages:	20
Delay (ms):	30
Sequence Number:	1
Processing:	dark subtract
Laser Power (mW):	305
Laser Current (mA):	825
Laser Diode Temp (C):	25.1
Laser Case Temp (C):	23.7
System Temp (C):	23.5
Spectrometer Temp (C):	21.1
CCD Temp (C):	-0.032
Secondary Temp (C):	20.007
Heatsink Temp (C):	17.806
CCDPCB Temp (C):	30.838
SecondaryPCB Temp (C):	25.491

Wavelength	RamanShift	Raw Counts	Dark Subtracted
787.061	30.1047	509.8	100.65
787.2016	32.3739	512.25	105.85
787.3422	34.6426	519.95	110.95
787.4828	36.9109	529.45	120.5
787.6235	39.1787	537.65	124.85
787.7642	41.4461	547.2	129
787.9049	43.7131	562.9	142.7
788.0456	45.9796	576.7	153.4
788.1863	48.2456	586.05	159.35
788.3271	50.5112	601.15	171.35
788.4679	52.7764	612.05	179.45
788.6087	55.0411	626.2	187.7
788.7496	57.3054	645.35	205.05
788.8904	59.5692	656.8	212.95
789.0313	61.8326	670.7	224.95
789.1722	64.0955	692.1	242.7
789.3132	66.3579	714.65	260.05
789.4541	68.6199	742.65	284.75
789.5951	70.8815	791.25	327.9
789.7361	73.1426	892.9	427.3
789.8771	75.4032	1161.35	692.15
790.0181	77.6634	1818.3	1345.9
790.1592	79.9231	3384.65	2909.2
790.3003	82.1824	6810.85	6332
790.4414	84.4412	12838.15	12353.15
790.5825	86.6995	20992.35	20498.55
790.7237	88.9574	28874.1	28372.2
790.8648	91.2148	34437.05	33931
791.006	93.4717	37390.2	36882.05
791.1472	95.7282	38642.25	38129.9
791.2885	97.9842	39335.3	38819.75
791.4297	100.2398	39590.65	39073.6
791.571	102.4949	39653.25	39134.5
791.7123	104.7495	39749.45	39225.85
791.8536	107.0036	39725.35	39201.25
791.9949	109.2573	39891.15	39369.3
792.1363	111.5105	39798.4	39271.55
792.2777	113.7632	39918.85	39389.65
792.4191	116.0154	39971.15	39432.3
792.5605	118.2672	40226.95	39695.05
792.7019	120.5185	40245.5	39711.85
792.8434	122.7693	40362.25	39823.8
792.9849	125.0197	40447.5	39904.55
793.1264	127.2696	40568.2	40020.75
793.2679	129.519	40741.2	40191.95
793.4094	131.7679	40988.95	40435.9
793.551	134.0163	40717.85	40165.05
793.6926	136.2642	40924.4	40367.85
793.8342	138.5117	41072.2	40511.05
793.9758	140.7587	41105.15	40546.15
794.1175	143.0052	41205.75	40640.65
794.2591	145.2512	41086.85	40522.95
794.4008	147.4967	41176.75	40610.2
794.5425	149.7417	41163.7	40593.5
794.6842	151.9863	41228.95	40654.2
794.826	154.2304	41144	40566.3
794.9677	156.4739	41150.95	40567.9
795.1095	158.717	41273.5	40689.75
795.2513	160.9596	41320.25	40731.75
795.3931	163.2017	41253.15	40666.05
795.535	165.4433	41306.3	40715.05
795.6768	167.6844	41303.25	40707.8
795.8187	169.925	41425.7	40827.3
795.9606	172.1651	41322.25	40718.95
796.1025	174.4047	41361.45	40758.2
796.2445	176.6439	41373.65	40768.4
796.3864	178.8825	41451.4	40844.65
796.5284	181.1206	41546.2	40933.6
796.6704	183.3582	41614.85	40998.5
796.8124	185.5954	41517.3	40899.75
796.9544	187.832	41696.45	41072.75
797.0965	190.0681	41734.5	41106.95
797.2386	192.3037	41893.1	41264.15
797.3806	194.5388	42038.5	41406.2
797.5228	196.7734	41846.25	41214.85
797.6649	199.0075	42153.85	41520.9
797.807	201.2411	42375.2	41741.6
797.9492	203.4742	42471.9	41832.7
798.0914	205.7068	42637	41995
798.2336	207.9389	42676.3	42036.7
798.3758	210.1704	42789.35	42158.45
798.518	212.4015	42847.7	42223.05
798.6603	214.632	42762.9	42143.7
798.8025	216.862	42932.35	42313.65
798.9448	219.0915	43006.25	42385.25
799.0871	221.3205	42992.95	42369.35
799.2294	223.549	43189	42568.15
799.3718	225.777	43235.65	42613.85
799.5141	228.0044	43320.8	42690.45
799.6565	230.2314	43440.9	42807.4
799.7989	232.4578	43418.15	42781.35
799.9413	234.6837	43454.1	42809.35
800.0837	236.909	43715.9	43069.85
800.2262	239.1339	43498.35	42830
800.3687	241.3582	43686.5	43033.35
800.5111	243.582	43663.2	42979.3
800.6536	245.8053	43779.65	43105.05
800.7961	248.0281	43745.75	43079.05
800.9387	250.2503	43838.95	43168.45
801.0812	252.472	43844.65	43173.55
801.2238	254.6932	43925.35	43253.75
801.3664	256.9139	43899.5	43223.65
801.509	259.134	44143.3	43465.95
801.6516	261.3536	43926.1	43251.6
801.7942	263.5727	44148.7	43471.05
801.9369	265.7912	44041.65	43363.3
802.0795	268.0092	44189.45	43512.1
802.2222	270.2267	44193.45	43513.95
802.3649	272.4436	44254.05	43571.9
802.5076	274.6601	44291.3	43599.65
802.6504	276.8759	44320.05	43634
802.7931	279.0913	44391.15	43700.85
802.9359	281.3061	44377.45	43688.4
803.0787	283.5204	44500.05	43808.9
803.2215	285.7341	44577.35	43884.65
803.3643	287.9473	44713.1	44007.45
803.5071	290.16	44625.15	43926.9
803.6499	292.3721	44809.25	44119.55
803.7928	294.5837	44451.85	43758.15
803.9357	296.7947	44433.2	43741.6
804.0786	299.0052	44565.75	43871.65
804.2215	301.2152	44470.3	43770.75
804.3644	303.4246	44552.05	43857.35
804.5074	305.6334	44545.55	43847.55
804.6503	307.8418	44471.65	43773.4
804.7933	310.0495	44488.7	43788.85
804.9363	312.2568	44442.4	43739.35
805.0793	314.4635	44293.05	43587.85
805.2223	316.6696	44284.05	43578.6
805.3653	318.8752	44260	43545.2
805.5084	321.0802	44011.4	43302.3
805.6514	323.2847	44140.5	43428.95
805.7945	325.4887	44086.45	43376.45
805.9376	327.692	44046.65	43334.9
806.0807	329.8949	44267.9	43553.95
806.2238	332.0972	44202.9	43489.05
806.367	334.2989	44358.25	43638.65
806.5101	336.5001	44287	43566.8
806.6533	338.7007	44234.5	43515.6
806.7965	340.9008	44346.45	43625.8
806.9397	343.1003	44243.9	43519.95
807.0829	345.2992	44266.4	43542.8
807.2261	347.4976	44167.25	43442.7
807.3693	349.6955	44145.05	43416.55
807.5126	351.8927	44284.15	43555.15
807.6559	354.0895	44183.3	43441.65
807.7991	356.2856	44232.6	43500.95
807.9424	358.4812	44120.4	43385.5
808.0857	360.6763	44180.7	43444.25
808.2291	362.8707	44164.1	43424.3
808.3724	365.0646	44200.55	43459.3
808.5158	367.258	44098.1	43354.05
808.6591	369.4508	44003.8	43258.4
808.8025	371.643	44148.2	43401.65
808.9459	373.8346	44026	43279.4
809.0893	376.0257	44023.8	43272.8
809.2327	378.2162	43968.1	43219.1
809.3762	380.4062	43977.85	43228.9
809.5196	382.5956	43911.2	43168
809.6631	384.7844	43885.2	43145.5
809.8066	386.9726	43771.9	43034.45
809.9501	389.1603	43733.45	42996.8
810.0936	391.3474	43697.65	42911.15
810.2371	393.5339	43704	42961.05
810.3806	395.7199	43555.8	42815.65
810.5241	397.9052	43540.4	42798.7
810.6677	400.09	43534.55	42790.75
810.8113	402.2743	43590.6	42844.9
810.9548	404.4579	43535.75	42791.2
811.0984	406.641	43622.35	42872.9
811.2421	408.8235	43669.3	42919.1
811.3857	411.0054	43682.35	42927.2
811.5293	413.1868	43711.9	42953.35
811.673	415.3675	43736.85	42977.1
811.8166	417.5477	43759.3	42998.05
811.9603	419.7273	43720.8	42955.6
812.104	421.9064	43557.85	42786.05
812.2477	424.0848	43406.75	42643
812.3914	426.2627	43292.2	42527.05
812.5351	428.4399	43177.4	42411.55
812.6788	430.6166	43085.6	42315.65
812.8226	432.7928	43022.05	42248.2
812.9663	434.9683	42848.7	42077.45
813.1101	437.1432	42862.65	42087.7
813.2539	439.3176	42769.05	41998.9
813.3977	441.4914	42520.45	41748.1
813.5415	443.6645	42529.5	41755.6
813.6853	445.8371	42371.75	41600.35
813.8291	448.0091	42227.45	41454.95
813.973	450.1806	42108.1	41333.45
814.1168	452.3514	42002.1	41223
814.2607	454.5216	42049.15	41262.9
814.4046	456.6913	41811.1	41031.85
814.5485	458.8603	41896.25	41118.95
814.6924	461.0288	41863.5	41086.05
814.8363	463.1967	41786	41009.55
814.9802	465.3639	41866.05	41086.85
815.1241	467.5306	41787.6	41007.35
815.2681	469.6967	41694.3	40915.8
815.412	471.8622	41542.65	40761.7
815.556	474.0271	41553.5	40772.15
815.7	476.1914	41534.35	40752.1
815.844	478.3551	41453.45	40672.35
815.988	480.5182	41571	40787.3
816.132	482.6807	41538.65	40753.05
816.276	484.8426	41570.45	40785.85
816.4201	487.0039	41657.55	40873.95
816.5641	489.1647	41681.25	40894.9
816.7082	491.3248	41748.75	40961.1
816.8522	493.4843	41634.25	40846.7
816.9963	495.6432	41649.25	40860.8
817.1404	497.8015	41497.5	40706.75
817.2845	499.9592	41561.65	40772.6
817.4286	502.1163	41465.2	40674.3
817.5727	504.2728	41334.7	40539.75
817.7168	506.4287	41423.85	40632.7
817.861	508.5839	41310.15	40519.25
818.0051	510.7386	41214.6	40422.35
818.1493	512.8927	41245.25	40445.15
818.2935	515.0461	41284.75	40488.4
818.4377	517.199	41241.1	40446.4
818.5818	519.3512	41231.9	40436.85
818.726	521.5029	41227.4	40426.8
818.8703	523.6539	41215.8	40417.6
819.0145	525.8043	41235.3	40434.4
819.1587	527.9541	41184.35	40384.85
819.303	530.1033	41075.5	40276.15
819.4472	532.2519	40953.7	40153.05
819.5915	534.3999	40868.7	40066.45
819.7357	536.5472	40892.85	40091.45
819.88	538.694	40844.1	40044.6
820.0243	540.8401	40855.75	40055.9
820.1686	542.9856	40944.8	40144.2
820.3129	545.1305	40861.25	40057.95
820.4572	547.2748	40891.15	40087.7
820.6016	549.4185	40857.3	40054.95
820.7459	551.5615	40790	39986.55
820.8902	553.704	40783.45	39978.55
821.0346	555.8458	40686.5	39883.45
821.1789	557.987	40721.4	39918
821.3233	560.1276	40712.5	39908.1
821.4677	562.2675	40782.5	39979.05
821.6121	564.4069	40732.05	39929.6
821.7565	566.5456	40652.1	39847.9
821.9009	568.6837	40637.65	39830.5
822.0453	570.8212	40447.1	39642.05
822.1897	572.958	40298.6	39487.2
822.3342	575.0942	40233.8	39425.85
822.4786	577.2299	40172.15	39360.85
822.6231	579.3648	40035.75	39224.2
822.7675	581.4992	39784.15	38973.3
822.912	583.6329	39689.5	38877.95
823.0565	585.766	39662.3	38854.65
823.201	587.8985	39597.8	38790.9
823.3454	590.0304	39513.95	38689.3
823.4899	592.1616	39501	38685.75
823.6345	594.2922	39430.5	38615.75
823.779	596.4222	39277.15	38463.45
823.9235	598.5515	39182.95	38368.15
824.068	600.6802	39105.65	38291.15
824.2126	602.8083	38940.1	38124.85
824.3571	604.9358	38958.5	38142.9
824.5017	607.0626	38741.5	37923.5
824.6462	609.1888	38771	37953.7
824.7908	611.3144	38676.05	37859.35
824.9354	613.4393	38600.55	37782.7
825.08	615.5636	38585.3	37767.95
825.2246	617.6873	38666.1	37848.9
825.3692	619.8103	38694.7	37873.95
825.5138	621.9327	38547	37723.95
825.6584	624.0544	38527	37707.65
825.803	626.1756	38475.05	37653.05
825.9477	628.2961	38390.55	37567.95
826.0923	630.4159	38326.1	37505.8
826.237	632.5351	38309.2	37487.55
826.3816	634.6537	38215.05	37391.15
826.5263	636.7716	38179.85	37356.75
826.6709	638.8889	38198.9	37376.3
826.8156	641.0056	38213.7	37388.4
826.9603	643.1216	38105.4	37280.4
827.105	645.237	38152.5	37326.35
827.2497	647.3518	38013.9	37188.55
827.3944	649.4659	38058.2	37233.15
827.5391	651.5793	37963.4	37138.05
827.6838	653.6922	37882.55	37057.85
827.8285	655.8043	37821.1	36994.2
827.9733	657.9159	37804.95	36977.35
828.118	660.0268	37633.15	36801.35
828.2627	662.137	37573.2	36744.6
828.4075	664.2466	37597.85	36768.95
828.5522	666.3556	37594.45	36767.6
828.697	668.4639	37453.85	36620.3
828.8418	670.5716	37464.5	36634.8
828.9865	672.6786	37460.45	36630.2
829.1313	674.785	37296.25	36464.2
829.2761	676.8907	37204.6	36373.05
829.4209	678.9958	37168.7	36339
829.5657	681.1002	37102.45	36269.15
829.7105	683.204	37042.7	36207.3
829.8553	685.3072	36973.45	36139.55
830.0001	687.4097	36922.5	36088.15
830.1449	689.5115	36880.95	36044.8
830.2898	691.6127	36906.4	36073.7
830.4346	693.7132	36752.65	35917.35
830.5794	695.8131	36812.65	35955.8
830.7243	697.9123	36804.55	35968.35
830.8691	700.0109	36713.2	35878.7
831.014	702.1089	36653.6	35819.1
831.1588	704.2061	36637.9	35802.5
831.3037	706.3028	36656.6	35820.1
831.4486	708.3987	36591.9	35756.1
831.5935	710.4941	36535.45	35700.45
831.7383	712.5887	36519.3	35684.3
831.8832	714.6827	36494.35	35652.3
832.0281	716.7761	36468.1	35630.55
832.173	718.8688	36415.6	35574.95
832.3179	720.9608	36336.55	35494.9
832.4628	723.0522	36391.2	35546.95
832.6077	725.1429	36267.1	35427.5
832.7527	727.233	36227.5	35387.3
832.8976	729.3224	36341.85	35503.65
833.0425	731.4112	36251.6	35409.7
833.1874	733.4993	36165.85	35322.3
833.3324	735.5867	35964.9	35124.05
833.4773	737.6735	35935.05	35092.9
833.6222	739.7596	35818.9	34976.25
833.7672	741.845	35752.75	34909.55
833.9122	743.9298	35660.3	34813.5
834.0571	746.014	35594.4	34751.7
834.2021	748.0974	35548.6	34703.35
834.347	750.1802	35426.15	34581.5
834.492	752.2624	35347.35	34504.6
834.637	754.3439	35226.95	34383
834.782	756.4247	35090.9	34237.45
834.9269	758.5048	34988.75	34144.95
835.0719	760.5843	34930.35	34087.25
835.2169	762.6631	34849.05	34004.9
835.3619	764.7413	34771.75	33928
835.5069	766.8188	34853.2	34006.35
835.6519	768.8956	34775	33928.1
835.7969	770.9718	34816.05	33973.45
835.9419	773.0473	34676.65	33832.35
836.0869	775.1221	34638.35	33792.25
836.232	777.1962	34480.45	33633.65
836.377	779.2697	34456.15	33608.65
836.522	781.3426	34411.35	33543.85
836.667	783.4147	34381.95	33534.3
836.8121	785.4862	34389.55	33544.75
836.9571	787.557	34225.7	33377.45
837.1021	789.6271	34137.25	33291.05
837.2472	791.6966	33953.6	33106.7
837.3922	793.7654	33756.65	32908.7
837.5373	795.8335	33748.5	32900.15
837.6823	797.901	33648	32798.4
837.8274	799.9678	33606.1	32756.15
837.9724	802.0339	33538.7	32690.45
838.1175	804.0993	33527.4	32669.6
838.2626	806.1641	33409.35	32557.1
838.4076	808.2282	33272.8	32423.3
838.5527	810.2916	33280.25	32426.75
838.6978	812.3544	33250.45	32403.2
838.8428	814.4164	33120.15	32272.35
838.9879	816.4778	33128.75	32277.65
839.133	818.5385	33025.8	32173.9
839.2781	820.5986	33033.85	32184.85
839.4232	822.658	33047.25	32193.1
839.5682	824.7166	32961.75	32110.65
839.7133	826.7747	33065.9	32216.35
839.8584	828.832	33059.15	32206.5
840.0035	830.8886	32942.6	32090.7
840.1486	832.9446	32929	32075.05
840.2937	834.9999	32848.6	31998.2
840.4388	837.0545	32753.3	31895.05
840.5839	839.1085	32643.3	31789.8
840.729	841.1618	32521.15	31665.75
840.8741	843.2143	32477.2	31624
841.0192	845.2662	32307.95	31455.1
841.1643	847.3175	32307.2	31454.8
841.3095	849.368	32185.35	31332.55
841.4546	851.4179	32114.35	31261.15
841.5997	853.467	31970.8	31114.45
841.7448	855.5155	31998.35	31144.8
841.8899	857.5633	31938.4	31082.5
842.0351	859.6105	31838.1	30981.65
842.1802	861.6569	31787.45	30933.1
842.3253	863.7027	31683.6	30829.2
842.4704	865.7478	31698.25	30845.45
842.6156	867.7922	31645.55	30792.15
842.7607	869.8359	31573.25	30716.35
842.9058	871.8789	31556.7	30699.55
843.0509	873.9212	31502.95	30613.05
843.1961	875.9629	31378.8	30523.8
843.3412	878.0039	31391.6	30533.45
843.4863	880.0441	31328.55	30471.85
843.6315	882.0837	31367.4	30511
843.7766	884.1226	31337.55	30479.75
843.9218	886.1609	31335.15	30479
844.0669	888.1984	31349.9	30493.9
844.212	890.2352	31396.35	30536.55
844.3572	892.2714	31291.45	30428.95
844.5023	894.3069	31275.4	30415.85
844.6475	896.3416	31108.1	30248.55
844.7926	898.3757	31029.95	30170.25
844.9377	900.4091	30989.25	30128.95
845.0829	902.4418	30967.55	30103.8
845.228	904.4739	30831.85	29971.95
845.3732	906.5052	30824.95	29967
845.5183	908.5358	30776.7	29917.35
845.6635	910.5658	30713.2	29852.25
845.8086	912.595	30612.45	29753.1
845.9538	914.6236	30503.85	29644.2
846.0989	916.6515	30458.2	29596.55
846.2441	918.6786	30365.6	29504.4
846.3892	920.7051	30338.7	29477.5
846.5344	922.7309	30336.45	29475.35
846.6795	924.756	30233.2	29373.35
846.8246	926.7804	30255.6	29393.1
846.9698	928.8041	30005	29142.95
847.1149	930.8272	30057.95	29197.9
847.2601	932.8495	29866.8	29003.25
847.4052	934.8711	29871.35	29008.4
847.5504	936.892	29735.35	28873.6
847.6955	938.9123	29653.1	28787.6
847.8407	940.9318	29621.5	28757.85
847.9858	942.9506	29495.05	28632.75
848.131	944.9688	29369.3	28508.4
848.2761	946.9862	29352.25	28490.35
848.4213	949.003	29203.85	28341.4
848.5664	951.019	29152.95	28290.25
848.7115	953.0344	29043.3	28179.85
848.8567	955.0491	29023.6	28158.6
849.0018	957.063	28991.75	28128.2
849.147	959.0763	29032	28168.55
849.2921	961.0888	28837.7	27970.55
849.4373	963.1007	28824.2	27961.65
849.5824	965.1119	28815.1	27952.4
849.7275	967.1223	28750.75	27889.65
849.8727	969.1321	28698.55	27835.85
850.0178	971.1412	28682.25	27818.95
850.1629	973.1495	28553.25	27688.7
850.3081	975.1572	28556.95	27644.75
850.4532	977.1641	28460.85	27596.65
850.5983	979.1704	28363.1	27497.6
850.7435	981.1759	28304.7	27436.1
850.8886	983.1808	28275.9	27410.9
851.0337	985.1849	28197.1	27326.1
851.1788	987.1884	28089.3	27222.1
851.324	989.1911	28059.15	27190.85
851.4691	991.1932	28047.8	27181.1
851.6142	993.1945	27894.95	27029.25
851.7593	995.1951	27763.05	26895.95
851.9045	997.1951	27747.3	26874
852.0496	999.1943	27613.2	26748.8
852.1947	1001.1928	27542.8	26677.8
852.3398	1003.1906	27437.5	26570.35
852.4849	1005.1877	27418	26552.45
852.63	1007.1841	27331.1	26464.95
852.7751	1009.1798	27243.95	26376.8
852.9202	1011.1748	27122.35	26256.75
853.0653	1013.1691	27024.45	26156.35
853.2104	1015.1627	26938.35	26070.25
853.3555	1017.1556	26772.7	25906.55
853.5006	1019.1477	26658.95	25789.95
853.6457	1021.1392	26522.55	25658
853.7908	1023.1299	26429.9	25561.6
853.9359	1025.12	26340.35	25472.05
854.081	1027.1093	26204.15	25338.8
854.2261	1029.0979	26129.5	25264.25
854.3712	1031.0859	26054.4	25187.45
854.5163	1033.0731	26022	25153.8
854.6613	1035.0596	25912.8	25046.6
854.8064	1037.0454	25773.35	24906.35
854.9515	1039.0304	25721.8	24851.95
855.0965	1041.0148	25598.25	24730.5
855.2416	1042.9985	25536.4	24667.5
855.3867	1044.9814	25528.05	24660.85
855.5317	1046.9636	25412	24541.6
855.6768	1048.9452	25295.8	24426.75
855.8219	1050.926	25275.25	24407.7
855.9669	1052.9061	25202.35	24334.7
856.112	1054.8855	25161.55	24293.95
856.257	1056.8642	25109.95	24244.8
856.4021	1058.8421	25121.25	24249.2
856.5471	1060.8194	25002.85	24132.7
856.6921	1062.7959	24900.2	24031.7
856.8372	1064.7717	24879.65	24008.35
856.9822	1066.7469	24813.35	23942.3
857.1272	1068.7213	24782.9	23909.35
857.2723	1070.695	24764.1	23894
857.4173	1072.6679	24664.85	23794.85
857.5623	1074.6402	24678.2	23807.6
857.7073	1076.6117	24725.05	23850.55
857.8523	1078.5826	24634.45	23762.3
857.9973	1080.5527	24512.35	23639.1
858.1423	1082.5221	24386.65	23516.7
858.2873	1084.4908	24345.9	23477.1
858.4323	1086.4587	24279.9	23409.5
858.5773	1088.426	24204.95	23334.7
858.7223	1090.3925	24099.9	23227.15
858.8673	1092.3584	24105.05	23234.15
859.0123	1094.3235	23983.95	23115.35
859.1573	1096.2879	23918.4	23046.2
859.3022	1098.2515	23951.4	23081.1
859.4472	1100.2145	23948.75	23080.15
859.5922	1102.1767	23838.7	22964.05
859.7371	1104.1382	23824.45	22951.25
859.8821	1106.099	23832.9	22959.8
860.027	1108.0591	23785.3	22915
860.172	1110.0185	23760.85	22888.15
860.3169	1111.9771	23746.7	22875.8
860.4619	1113.9351	23706.2	22834.45
860.6068	1115.8923	23708.55	22836.35
860.7517	1117.8488	23683.6	22810.9
860.8967	1119.8045	23570.25	22699.8
861.0416	1121.7596	23498.8	22625.55
861.1865	1123.7139	23271.2	22399.15
861.3314	1125.6675	23207	22335.6
861.4763	1127.6204	23227.8	22358.1
861.6212	1129.5726	23099.85	22225.2
861.7661	1131.524	23109.1	22239.5
861.911	1133.4748	23044.2	22171.9
862.0559	1135.4248	22910.65	22037.05
862.2008	1137.3741	22836.65	21962.95
862.3457	1139.3226	22790.7	21917.7
862.4905	1141.2705	22752.25	21880
862.6354	1143.2176	22622.35	21743.75
862.7803	1145.164	22600.3	21727.5
862.9251	1147.1097	22585.65	21713.1
863.07	1149.0546	22539.4	21665.1
863.2148	1150.9989	22469.7	21595.55
863.3597	1152.9424	22503.1	21630.6
863.5045	1154.8852	22432.9	21559.05
863.6493	1156.8272	22398.55	21526.3
863.7942	1158.7686	22410.5	21531.1
863.939	1160.7092	22312.3	21438.7
864.0838	1162.6491	22224.9	21349.35
864.2286	1164.5883	22191.3	21317.95
864.3734	1166.5267	22170	21295.2
864.5182	1168.4644	22158.95	21283.4
864.663	1170.4014	22116.4	21236.4
864.8078	1172.3377	22185.25	21313.95
864.9526	1174.2732	22170.4	21296.35
865.0974	1176.2081	22201.4	21326.95
865.2421	1178.1421	22258.25	21380.45
865.3869	1180.0755	22378.05	21505
