Software Version:	3.9.2.0
Unit SN:	10000200
Spectrometer SN:	6960
Date:	3/6/2024 10:02:27 AM
Data Line Index:	25
Spectral Points:	2048
Integration time (ms):	125
Averages:	20
Delay (ms):	30
Sequence Number:	1
Processing:	dark subtract
Laser Power (mW):	305
Laser Current (mA):	826
Laser Diode Temp (C):	25.1
Laser Case Temp (C):	24.7
System Temp (C):	24.5
Spectrometer Temp (C):	22.1
CCD Temp (C):	-0.003
Secondary Temp (C):	20.003
Heatsink Temp (C):	18.452
CCDPCB Temp (C):	31.794
SecondaryPCB Temp (C):	26.28

Wavelength	RamanShift	Raw Counts	Dark Subtracted
787.061	30.1047	674.9	267.7
787.2016	32.3739	687.6	279.7
787.3422	34.6426	708.55	301.1
787.4828	36.9109	721.3	310.55
787.6235	39.1787	747.2	334.05
787.7642	41.4461	772.5	354.35
787.9049	43.7131	797.7	377.25
788.0456	45.9796	823.2	399.5
788.1863	48.2456	851.6	423.65
788.3271	50.5112	876.2	444.65
788.4679	52.7764	905.85	470.15
788.6087	55.0411	931.75	492.9
788.7496	57.3054	969.45	525.05
788.8904	59.5692	1003.25	559.85
789.0313	61.8326	1034.9	588.15
789.1722	64.0955	1084.05	631.85
789.3132	66.3579	1136.9	680.85
789.4541	68.6199	1198.7	738.65
789.5951	70.8815	1314.55	849.45
789.7361	73.1426	1555.25	1086.3
789.8771	75.4032	2162.55	1690.2
790.0181	77.6634	3723.4	3246.65
790.1592	79.9231	7620.6	7140.15
790.3003	82.1824	17763.55	17272.45
790.4414	84.4412	36638.5	36132.9
790.5825	86.6995	50240.6	49713.45
790.7237	88.9574	56208.65	55665.65
790.8648	91.2148	59317.85	58763.8
791.006	93.4717	60179.5	59613.45
791.1472	95.7282	60597.35	60030.7
791.2885	97.9842	60794.45	60223.6
791.4297	100.2398	60808.75	60234.85
791.571	102.4949	60823.35	60250.05
791.7123	104.7495	60835.35	60253.5
791.8536	107.0036	60722.15	60140.3
791.9949	109.2573	60930.8	60347.85
792.1363	111.5105	60823.75	60237.85
792.2777	113.7632	60863.45	60276.4
792.4191	116.0154	60957	60361.8
792.5605	118.2672	61097.05	60503.55
792.7019	120.5185	61099	60506.85
792.8434	122.7693	61090.2	60494.1
792.9849	125.0197	60927.05	60325.5
793.1264	127.2696	61310.4	60707.2
793.2679	129.519	61254.6	60645.85
793.4094	131.7679	61400.45	60792.1
793.551	134.0163	61057.5	60446.05
793.6926	136.2642	61209.55	60593.8
793.8342	138.5117	61405.75	60787.9
793.9758	140.7587	61316.5	60698.9
794.1175	143.0052	61326.7	60703.05
794.2591	145.2512	61147.05	60518.95
794.4008	147.4967	61391.9	60767.15
794.5425	149.7417	61318.75	60696.1
794.6842	151.9863	61331.1	60701.5
794.826	154.2304	61225.7	60590.9
794.9677	156.4739	61304.45	60661.25
795.1095	158.717	61453.75	60809.35
795.2513	160.9596	61341.9	60697.65
795.3931	163.2017	61191.9	60544.65
795.535	165.4433	61379.65	60730.25
795.6768	167.6844	61285.85	60632.5
795.8187	169.925	61370.8	60716.25
795.9606	172.1651	61282.85	60625.55
796.1025	174.4047	61356.4	60698.8
796.2445	176.6439	61353.45	60692.8
796.3864	178.8825	61288.75	60622.35
796.5284	181.1206	61453.6	60782.75
796.6704	183.3582	61398.8	60723.75
796.8124	185.5954	61348.35	60670.15
796.9544	187.832	61367	60685.75
797.0965	190.0681	61279.65	60596.65
797.2386	192.3037	61453.55	60767.05
797.3806	194.5388	61640.6	60952.3
797.5228	196.7734	61206.15	60517.25
797.6649	199.0075	61632.7	60939.7
797.807	201.2411	61493.1	60800.65
797.9492	203.4742	61703.3	61006.5
798.0914	205.7068	61655.3	60953.65
798.2336	207.9389	61655.85	60955.85
798.3758	210.1704	61630.15	60936.45
798.518	212.4015	61764.75	61080.7
798.6603	214.632	61591.95	60912.45
798.8025	216.862	61788.65	61112.25
798.9448	219.0915	61682.55	61005.35
799.0871	221.3205	61666.95	60986.65
799.2294	223.549	61836.6	61158.75
799.3718	225.777	61816.4	61138.8
799.5141	228.0044	61912.95	61228.75
799.6565	230.2314	61845.5	61157.6
799.7989	232.4578	61851	61159.65
799.9413	234.6837	61882.75	61183.7
800.0837	236.909	62199.7	61497.55
800.2262	239.1339	61780.95	61056.1
800.3687	241.3582	61960.7	61247.4
800.5111	243.582	61967.9	61224.7
800.6536	245.8053	61967.55	61237.2
800.7961	248.0281	61989.3	61266.65
800.9387	250.2503	62031.6	61302.05
801.0812	252.472	61893.1	61163.65
801.2238	254.6932	62016.1	61286.9
801.3664	256.9139	61946	61216.35
801.509	259.134	62238.2	61505.45
801.6516	261.3536	61917.1	61185.2
801.7942	263.5727	62079.25	61345.65
801.9369	265.7912	61995.65	61263.65
802.0795	268.0092	62036.2	61300.25
802.2222	270.2267	62066.65	61332.3
802.3649	272.4436	61941.9	61207.65
802.5076	274.6601	62079.5	61331.45
802.6504	276.8759	62146.4	61402.85
802.7931	279.0913	62053.8	61309.65
802.9359	281.3061	62113.6	61371.5
803.0787	283.5204	62100.3	61348.75
803.2215	285.7341	62081.5	61331.7
803.3643	287.9473	62257.95	61497.45
803.5071	290.16	62126.25	61370.65
803.6499	292.3721	62182.2	61433
803.7928	294.5837	62074.7	61325.05
803.9357	296.7947	61981.15	61232.95
804.0786	299.0052	62218.75	61467.5
804.2215	301.2152	62143.4	61387.95
804.3644	303.4246	62216.85	61465.3
804.5074	305.6334	62203.75	61455.75
804.6503	307.8418	62050	61291.25
804.7933	310.0495	62053.8	61294.35
804.9363	312.2568	62052.85	61294.45
805.0793	314.4635	62056.95	61296.55
805.2223	316.6696	62148.5	61386.5
805.3653	318.8752	62197.45	61424.3
805.5084	321.0802	61892.25	61130.4
805.6514	323.2847	62036.1	61272.5
805.7945	325.4887	62010.8	61244.25
805.9376	327.692	61966.8	61198.4
806.0807	329.8949	62071.45	61302.4
806.2238	332.0972	61968.3	61195.5
806.367	334.2989	62052.55	61277.75
806.5101	336.5001	62134.65	61360.75
806.6533	338.7007	61894.1	61121.9
806.7965	340.9008	62035.45	61258.8
806.9397	343.1003	62055.25	61272.45
807.0829	345.2992	62133.1	61353.1
807.2261	347.4976	61989.75	61213.55
807.3693	349.6955	62055.35	61269.8
807.5126	351.8927	61965.95	61182.25
807.6559	354.0895	62081.45	61283.55
807.7991	356.2856	62078.85	61290.45
807.9424	358.4812	62183.6	61397.25
808.0857	360.6763	61987.95	61195.7
808.2291	362.8707	62190.7	61399.85
808.3724	365.0646	62044.3	61250.6
808.5158	367.258	62040.05	61244.95
808.6591	369.4508	61922.45	61125.25
808.8025	371.643	62131.25	61330.45
808.9459	373.8346	62010.9	61209.25
809.0893	376.0257	62036.05	61229.95
809.2327	378.2162	62008.5	61207.9
809.3762	380.4062	61867.85	61065.8
809.5196	382.5956	61981.4	61178.95
809.6631	384.7844	61965.1	61169.75
809.8066	386.9726	62048.65	61251.25
809.9501	389.1603	62028.95	61236.2
810.0936	391.3474	61912.1	61082.5
810.2371	393.5339	62018.5	61221.35
810.3806	395.7199	61812.8	61021.05
810.5241	397.9052	61837.7	61039.8
810.6677	400.09	61886.95	61090.25
810.8113	402.2743	62030.95	61234.25
810.9548	404.4579	61876.35	61078.05
811.0984	406.641	61866.05	61067.15
811.2421	408.8235	61929.35	61124.5
811.3857	411.0054	61945.85	61141.55
811.5293	413.1868	61967.75	61158.8
811.673	415.3675	61920.75	61109.3
811.8166	417.5477	61934.75	61126.1
811.9603	419.7273	61924.6	61108.15
812.104	421.9064	61886.05	61062.5
812.2477	424.0848	61901.7	61084.2
812.3914	426.2627	62008	61190.8
812.5351	428.4399	61856.35	61041.55
812.6788	430.6166	61714.65	60892.85
812.8226	432.7928	61870.25	61045.15
812.9663	434.9683	61736.4	60915.25
813.1101	437.1432	61757.8	60936.2
813.2539	439.3176	61860.75	61042.35
813.3977	441.4914	61652.95	60838.15
813.5415	443.6645	61678.55	60859.1
813.6853	445.8371	61675.4	60855.75
813.8291	448.0091	61588.55	60763.95
813.973	450.1806	61539.05	60718.6
814.1168	452.3514	61564.3	60742.7
814.2607	454.5216	61449.25	60617.4
814.4046	456.6913	61565.45	60741.55
814.5485	458.8603	61578.05	60751.85
814.6924	461.0288	61449.85	60628.75
814.8363	463.1967	61554.8	60733.35
814.9802	465.3639	61555.75	60732.35
815.1241	467.5306	61324.6	60498.95
815.2681	469.6967	61439.95	60617.5
815.412	471.8622	61537.65	60714.55
815.556	474.0271	61437.4	60611.45
815.7	476.1914	61467.05	60637.15
815.844	478.3551	61474.6	60643.75
815.988	480.5182	61591	60763.65
816.132	482.6807	61436.2	60611.55
816.276	484.8426	61435.1	60611.6
816.4201	487.0039	61582.05	60756
816.5641	489.1647	61577.35	60747.4
816.7082	491.3248	61428.7	60597.25
816.8522	493.4843	61600.7	60772.95
816.9963	495.6432	61576.9	60747.75
817.1404	497.8015	61398.15	60563.65
817.2845	499.9592	61510.85	60671.95
817.4286	502.1163	61522	60683.3
817.5727	504.2728	61470.55	60634.5
817.7168	506.4287	61482.45	60652.35
817.861	508.5839	61387.05	60554.25
818.0051	510.7386	61453.05	60620.2
818.1493	512.8927	61484.8	60645.2
818.2935	515.0461	61441.05	60601.65
818.4377	517.199	61543.85	60703.3
818.5818	519.3512	61449.25	60606.8
818.726	521.5029	61425.2	60580.5
818.8703	523.6539	61443	60601.35
819.0145	525.8043	61297.15	60454.85
819.1587	527.9541	61429.8	60584.55
819.303	530.1033	61410.75	60567.9
819.4472	532.2519	61332.8	60487.9
819.5915	534.3999	61425.5	60578.85
819.7357	536.5472	61491.4	60647.35
819.88	538.694	61323.25	60481.95
820.0243	540.8401	61415.05	60572.65
820.1686	542.9856	61397.9	60549.2
820.3129	545.1305	61455.65	60604.3
820.4572	547.2748	61336.45	60484.35
820.6016	549.4185	61356.3	60503.65
820.7459	551.5615	61444.8	60591.55
820.8902	553.704	61400.55	60548.05
821.0346	555.8458	61294.7	60447
821.1789	557.987	61359.2	60511.85
821.3233	560.1276	61393.55	60542.4
821.4677	562.2675	61351.35	60501.2
821.6121	564.4069	61349.65	60498.35
821.7565	566.5456	61434	60582.25
821.9009	568.6837	61288.95	60437.45
822.0453	570.8212	61344	60491.95
822.1897	572.958	61179.55	60326.25
822.3342	575.0942	61316.85	60468.3
822.4786	577.2299	61191	60342.8
822.6231	579.3648	61166.3	60318.3
822.7675	581.4992	61136.75	60292.55
822.912	583.6329	61098.85	60254.4
823.0565	585.766	61108.35	60264.25
823.201	587.8985	61120.85	60271.4
823.3454	590.0304	60938.6	60062.9
823.4899	592.1616	61089.3	60230.9
823.6345	594.2922	61013.7	60159.5
823.779	596.4222	60930.9	60072.95
823.9235	598.5515	60958.5	60101.65
824.068	600.6802	60978.6	60121.85
824.2126	602.8083	60857.8	59999.85
824.3571	604.9358	60832.05	59974.8
824.5017	607.0626	60936.95	60076.45
824.6462	609.1888	60762.55	59898.55
824.7908	611.3144	60869.35	60009.25
824.9354	613.4393	60791.3	59927.75
825.08	615.5636	60715.25	59854.2
825.2246	617.6873	60799.95	59935.35
825.3692	619.8103	60674.5	59810.55
825.5138	621.9327	60790.85	59922.85
825.6584	624.0544	60794.55	59935.9
825.803	626.1756	60715.55	59857.55
825.9477	628.2961	60722.6	59856.95
826.0923	630.4159	60642	59778.25
826.237	632.5351	60613.7	59749.5
826.3816	634.6537	60804.75	59938.45
826.5263	636.7716	60579.95	59710.7
826.6709	638.8889	60662.25	59791.4
826.8156	641.0056	60645.45	59775.3
826.9603	643.1216	60657.15	59787.05
827.105	645.237	60733.85	59862.95
827.2497	647.3518	60569.1	59704.75
827.3944	649.4659	60632.9	59768.8
827.5391	651.5793	60596.6	59732.5
827.6838	653.6922	60643.8	59780.4
827.8285	655.8043	60469.3	59602.3
827.9733	657.9159	60697.95	59831.05
828.118	660.0268	60245.85	59375.25
828.2627	662.137	60489.2	59619.3
828.4075	664.2466	60508.8	59638.05
828.5522	666.3556	60441.35	59569.8
828.697	668.4639	60501.6	59632.55
828.8418	670.5716	60401.9	59532.85
828.9865	672.6786	60469	59599.65
829.1313	674.785	60323.15	59448.75
829.2761	676.8907	60322.45	59453
829.4209	678.9958	60369.2	59505.4
829.5657	681.1002	60387.15	59514.05
829.7105	683.204	60240.5	59361.85
829.8553	685.3072	60188.15	59315.35
830.0001	687.4097	60247.35	59371.5
830.1449	689.5115	60179.55	59304.35
830.2898	691.6127	60291.6	59417.25
830.4346	693.7132	60158.2	59283
830.5794	695.8131	60162	59268.95
830.7243	697.9123	60204.4	59327.15
830.8691	700.0109	60258.35	59380.85
831.014	702.1089	60051.6	59173.9
831.1588	704.2061	60098.45	59222.35
831.3037	706.3028	60121.95	59244.3
831.4486	708.3987	60138.05	59261.25
831.5935	710.4941	60031.85	59153.25
831.7383	712.5887	60123.5	59248.55
831.8832	714.6827	60023.4	59142.25
832.0281	716.7761	60106.85	59230.1
832.173	718.8688	60146.5	59266.8
832.3179	720.9608	60001.95	59117.45
832.4628	723.0522	60025.6	59141.55
832.6077	725.1429	59894.95	59012
832.7527	727.233	60180.95	59301.2
832.8976	729.3224	59740.55	58860.55
833.0425	731.4112	59874.5	58992.65
833.1874	733.4993	59871.7	58988.8
833.3324	735.5867	59888.4	59006.9
833.4773	737.6735	59783.3	58900.8
833.6222	739.7596	59703.6	58822.9
833.7672	741.845	59649.8	58769.4
833.9122	743.9298	59763.45	58880.8
834.0571	746.014	59616	58734.45
834.2021	748.0974	59539.35	58651.85
834.347	750.1802	59688.35	58801.7
834.492	752.2624	59437.9	58552.75
834.637	754.3439	59465.15	58577.25
834.782	756.4247	59469.55	58574.9
834.9269	758.5048	59349.85	58467.4
835.0719	760.5843	59386.7	58498
835.2169	762.6631	59352.2	58466.2
835.3619	764.7413	59319.4	58434.2
835.5069	766.8188	59320.15	58432
835.6519	768.8956	59350.8	58462.45
835.7969	770.9718	59312.2	58425.3
835.9419	773.0473	59212	58327
836.0869	775.1221	59162.3	58276.55
836.232	777.1962	59121.9	58233.5
836.377	779.2697	58999.15	58110.55
836.522	781.3426	59030.7	58123.1
836.667	783.4147	59050.7	58160.1
836.8121	785.4862	59011.65	58130
836.9571	787.557	58921.2	58032.6
837.1021	789.6271	58984.9	58097.65
837.2472	791.6966	58899.5	58011.45
837.3922	793.7654	58769.7	57881.25
837.5373	795.8335	58811.4	57925.05
837.6823	797.901	58812.25	57925.95
837.8274	799.9678	58744.25	57851.3
837.9724	802.0339	58680.65	57788.4
838.1175	804.0993	58649	57751.95
838.2626	806.1641	58590.1	57699.85
838.4076	808.2282	58574.9	57687.45
838.5527	810.2916	58578.45	57686.4
838.6978	812.3544	58584.35	57696.3
838.8428	814.4164	58465.15	57578.05
838.9879	816.4778	58479.5	57588.2
839.133	818.5385	58452.45	57560.55
839.2781	820.5986	58405.3	57514
839.4232	822.658	58429.2	57536.1
839.5682	824.7166	58452.25	57562.95
839.7133	826.7747	58350.65	57459.95
839.8584	828.832	58390.15	57498.25
840.0035	830.8886	58400.3	57507.25
840.1486	832.9446	58384.75	57490.7
840.2937	834.9999	58145.95	57255.35
840.4388	837.0545	58225.85	57330.35
840.5839	839.1085	58267.45	57375
840.729	841.1618	58235	57338
840.8741	843.2143	58047.3	57155.55
841.0192	845.2662	58026.6	57133.45
841.1643	847.3175	58042.3	57147.4
841.3095	849.368	57876.45	56982.6
841.4546	851.4179	58002.6	57109.75
841.5997	853.467	57830.7	56935.8
841.7448	855.5155	57881.3	56988.15
841.8899	857.5633	57769.2	56875.25
842.0351	859.6105	57695.95	56800.35
842.1802	861.6569	57734.9	56840.65
842.3253	863.7027	57631.5	56736.2
842.4704	865.7478	57681.8	56785.85
842.6156	867.7922	57640.05	56748.1
842.7607	869.8359	57614.05	56715.7
842.9058	871.8789	57481.5	56584.75
843.0509	873.9212	57554.35	56628.15
843.1961	875.9629	57510.75	56613.45
843.3412	878.0039	57491.05	56596.15
843.4863	880.0441	57469.55	56573.9
843.6315	882.0837	57433.85	56538.95
843.7766	884.1226	57425.1	56526.9
843.9218	886.1609	57428.05	56531.7
844.0669	888.1984	57373.8	56478.75
844.212	890.2352	57491.75	56594
844.3572	892.2714	57340.1	56440.15
844.5023	894.3069	57365.35	56468.25
844.6475	896.3416	57261.55	56363.95
844.7926	898.3757	57217.85	56318.6
844.9377	900.4091	57069.25	56169.2
845.0829	902.4418	57230.45	56327.45
845.228	904.4739	57091.6	56191.8
845.3732	906.5052	57102.5	56202.15
845.5183	908.5358	57057	56160.45
845.6635	910.5658	56974.35	56073.95
845.8086	912.595	56996.45	56098.6
845.9538	914.6236	56776.55	55878.3
846.0989	916.6515	56994.1	56097.25
846.2441	918.6786	56705.5	55806.35
846.3892	920.7051	56767.1	55865.5
846.5344	922.7309	56727.5	55828.45
846.6795	924.756	56718.3	55819.3
846.8246	926.7804	56633.35	55730.25
846.9698	928.8041	56405.45	55502.35
847.1149	930.8272	56503.45	55605.05
847.2601	932.8495	56474	55571.9
847.4052	934.8711	56366.3	55467.7
847.5504	936.892	56247.6	55347.3
847.6955	938.9123	56236.8	55337.6
847.8407	940.9318	56186.5	55285.05
847.9858	942.9506	56113.95	55213.85
848.131	944.9688	56120.7	55220.9
848.2761	946.9862	55927.65	55028.7
848.4213	949.003	55974.65	55073.85
848.5664	951.019	55811.05	54911.8
848.7115	953.0344	55776.9	54873.7
848.8567	955.0491	55722.55	54821.8
849.0018	957.063	55781.8	54881.3
849.147	959.0763	55812.25	54914.25
849.2921	961.0888	55675.85	54774.8
849.4373	963.1007	55745.85	54844.65
849.5824	965.1119	55676.4	54778.9
849.7275	967.1223	55581.5	54685.2
849.8727	969.1321	55631.9	54738.45
850.0178	971.1412	55547.9	54649.6
850.1629	973.1495	55459.1	54559.85
850.3081	975.1572	55447.5	54506.1
850.4532	977.1641	55422.7	54521.4
850.5983	979.1704	55375.2	54471.3
850.7435	981.1759	55349.05	54444.95
850.8886	983.1808	55297.55	54395.8
851.0337	985.1849	55254.45	54343.95
851.1788	987.1884	55242.75	54339.25
851.324	989.1911	55238.25	54334.6
851.4691	991.1932	55073	54171.75
851.6142	993.1945	55079.95	54181.85
851.7593	995.1951	55001.65	54100.9
851.9045	997.1951	54936.55	54029.4
852.0496	999.1943	54852.25	53950.5
852.1947	1001.1928	54750.2	53847
852.3398	1003.1906	54708.15	53804.95
852.4849	1005.1877	54601.5	53700.6
852.63	1007.1841	54524.05	53623.45
852.7751	1009.1798	54525.95	53625.8
852.9202	1011.1748	54473.7	53573.2
853.0653	1013.1691	54420.1	53516.4
853.2104	1015.1627	54182.5	53281.55
853.3555	1017.1556	54155.75	53255.55
853.5006	1019.1477	54138.4	53238
853.6457	1021.1392	53991.4	53093.35
853.7908	1023.1299	53800.1	52902.25
853.9359	1025.12	53909.1	53010.9
854.081	1027.1093	53774.6	52883.55
854.2261	1029.0979	53706.5	52817.25
854.3712	1031.0859	53601.65	52710.5
854.5163	1033.0731	53437.45	52540
854.6613	1035.0596	53488	52589.5
854.8064	1037.0454	53343.5	52442.75
854.9515	1039.0304	53267.45	52365.25
855.0965	1041.0148	53008.35	52109.45
855.2416	1042.9985	53025.75	52120.55
855.3867	1044.9814	53142.25	52242.95
855.5317	1046.9636	52861.25	51957.15
855.6768	1048.9452	52829.95	51928.65
855.8219	1050.926	52773.3	51874.2
855.9669	1052.9061	52761.3	51858.45
856.112	1054.8855	52733.4	51833.85
856.257	1056.8642	52616.2	51713.2
856.4021	1058.8421	52558.3	51653.35
856.5471	1060.8194	52521.05	51618.8
856.6921	1062.7959	52419.15	51517.8
856.8372	1064.7717	52493	51589.05
856.9822	1066.7469	52425.7	51523.85
857.1272	1068.7213	52377.7	51473.2
857.2723	1070.695	52323.8	51420.25
857.4173	1072.6679	52162.75	51260.8
857.5623	1074.6402	52237.3	51333.3
857.7073	1076.6117	52109.55	51202.6
857.8523	1078.5826	52067.6	51163.7
857.9973	1080.5527	52060.25	51155.15
858.1423	1082.5221	51946.25	51042.9
858.2873	1084.4908	51929.75	51028.35
858.4323	1086.4587	51822.8	50920.3
858.5773	1088.426	51803.1	50898.2
858.7223	1090.3925	51730.6	50823
858.8673	1092.3584	51686.3	50784.45
859.0123	1094.3235	51522.6	50620.7
859.1573	1096.2879	51454.8	50553.5
859.3022	1098.2515	51538.1	50637.45
859.4472	1100.2145	51411.55	50511.2
859.5922	1102.1767	51334	50428.3
859.7371	1104.1382	51389.1	50486.95
859.8821	1106.099	51352.9	50450.75
860.027	1108.0591	51261.25	50360.85
860.172	1110.0185	50965.25	50060.9
860.3169	1111.9771	51186.95	50284.8
860.4619	1113.9351	51066.6	50164.65
860.6068	1115.8923	50929.4	50026.2
860.7517	1117.8488	50776.05	49873.1
860.8967	1119.8045	50562.3	49659.2
861.0416	1121.7596	50656.05	49753.4
861.1865	1123.7139	50527.4	49626.4
861.3314	1125.6675	50470.35	49567.75
861.4763	1127.6204	50466.3	49564.6
861.6212	1129.5726	50214.85	49310.7
861.7661	1131.524	50293.1	49390.1
861.911	1133.4748	50298.35	49395.15
862.0559	1135.4248	50105.25	49200.3
862.2008	1137.3741	50070.2	49167.45
862.3457	1139.3226	50026.9	49123.8
862.4905	1141.2705	49957.05	49052.8
862.6354	1143.2176	49909	48999.35
862.7803	1145.164	49698.85	48795.8
862.9251	1147.1097	49727.3	48827.85
863.07	1149.0546	49717.55	48815.3
863.2148	1150.9989	49748.35	48845.45
863.3597	1152.9424	49540.85	48637.1
863.5045	1154.8852	49635.8	48732.85
863.6493	1156.8272	49477.4	48575.8
863.7942	1158.7686	49642.45	48733.7
863.939	1160.7092	49310.45	48406
864.0838	1162.6491	49287.2	48382.4
864.2286	1164.5883	49299.15	48399.05
864.3734	1166.5267	49149	48243.2
864.5182	1168.4644	49267.65	48364.4
864.663	1170.4014	49223.75	48317.35
864.8078	1172.3377	49275.75	48373.65
864.9526	1174.2732	49301.95	48399.8
865.0974	1176.2081	49217.4	48315.05
865.2421	1178.1421	49157.7	48251.6
865.3869	1180.0755	49322.65	48421.1
