Software Version:	3.9.2.0
Unit SN:	10000200
Spectrometer SN:	6960
Date:	3/6/2024 9:48:35 AM
Data Line Index:	25
Spectral Points:	2048
Integration time (ms):	125
Averages:	20
Delay (ms):	30
Sequence Number:	1
Processing:	dark subtract
Laser Power (mW):	305
Laser Current (mA):	823
Laser Diode Temp (C):	25.1
Laser Case Temp (C):	24.2
System Temp (C):	24.1
Spectrometer Temp (C):	21.6
CCD Temp (C):	-0.016
Secondary Temp (C):	20.01
Heatsink Temp (C):	18
CCDPCB Temp (C):	31.705
SecondaryPCB Temp (C):	25.891

Wavelength	RamanShift	Raw Counts	Dark Subtracted
787.061	30.1047	449.5	41.65
787.2016	32.3739	448.95	43.8
787.3422	34.6426	455.05	50
787.4828	36.9109	456.3	48
787.6235	39.1787	462.35	49.5
787.7642	41.4461	472	53.75
787.9049	43.7131	480.9	58.75
788.0456	45.9796	485.85	63.85
788.1863	48.2456	492.85	67.15
788.3271	50.5112	500.7	70.65
788.4679	52.7764	505.25	71.35
788.6087	55.0411	516.5	78.25
788.7496	57.3054	524.6	82.35
788.8904	59.5692	534.6	89.7
789.0313	61.8326	541.7	95.65
789.1722	64.0955	549	97.85
789.3132	66.3579	565.2	111.35
789.4541	68.6199	576.85	121.15
789.5951	70.8815	599.25	139.95
789.7361	73.1426	653.65	186.6
789.8771	75.4032	769.45	300.85
790.0181	77.6634	1061.8	589.05
790.1592	79.9231	1760.45	1281.95
790.3003	82.1824	3229.85	2745.65
790.4414	84.4412	5810	5315.6
790.5825	86.6995	9296.1	8792.85
790.7237	88.9574	12766.7	12250.6
790.8648	91.2148	15302.5	14778.75
791.006	93.4717	16723.55	16192.55
791.1472	95.7282	17337.9	16801.35
791.2885	97.9842	17673.25	17138.55
791.4297	100.2398	17795.35	17256.15
791.571	102.4949	17852.8	17312.1
791.7123	104.7495	17843.9	17297.65
791.8536	107.0036	17847.65	17300.95
791.9949	109.2573	17841.15	17297.3
792.1363	111.5105	17849.25	17301.55
792.2777	113.7632	17842.85	17295
792.4191	116.0154	17864.15	17304.45
792.5605	118.2672	17900.55	17346.25
792.7019	120.5185	17883.4	17328.4
792.8434	122.7693	17903.75	17343.6
792.9849	125.0197	17964.15	17399.65
793.1264	127.2696	17951.75	17384.95
793.2679	129.519	18049.3	17477.65
793.4094	131.7679	18057.5	17484.85
793.551	134.0163	18120.75	17546.15
793.6926	136.2642	18142.15	17563.25
793.8342	138.5117	18167.95	17584.5
793.9758	140.7587	18151.35	17569.7
794.1175	143.0052	18132.85	17546.1
794.2591	145.2512	18132.85	17547.2
794.4008	147.4967	18123.65	17535.25
794.5425	149.7417	18128.85	17536.8
794.6842	151.9863	18137.85	17541.1
794.826	154.2304	18133.4	17537.65
794.9677	156.4739	18101.95	17496.8
795.1095	158.717	18136	17530.1
795.2513	160.9596	18148.5	17540.8
795.3931	163.2017	18143.9	17530.65
795.535	165.4433	18182.65	17571.65
795.6768	167.6844	18193.9	17579.8
795.8187	169.925	18237.15	17619.6
795.9606	172.1651	18164.65	17543.95
796.1025	174.4047	18171.5	17544.85
796.2445	176.6439	18134.85	17508.25
796.3864	178.8825	18143	17512.5
796.5284	181.1206	18160.2	17527.45
796.6704	183.3582	18179.55	17543.9
796.8124	185.5954	18206.35	17567.2
796.9544	187.832	18224.05	17581.3
797.0965	190.0681	18271.55	17623.3
797.2386	192.3037	18293.95	17641.8
797.3806	194.5388	18288.45	17634.1
797.5228	196.7734	18323.55	17669.55
797.6649	199.0075	18394.5	17739.6
797.807	201.2411	18525.55	17870.4
797.9492	203.4742	18566.95	17911.75
798.0914	205.7068	18639.5	17974.4
798.2336	207.9389	18615.1	17950.95
798.3758	210.1704	18665.75	18010.3
798.518	212.4015	18622.1	17975
798.6603	214.632	18692.7	18049
798.8025	216.862	18716.2	18075.95
798.9448	219.0915	18700.65	18056.5
799.0871	221.3205	18790.15	18143.65
799.2294	223.549	18801.7	18160.6
799.3718	225.777	18823.6	18180.15
799.5141	228.0044	18847.05	18198.1
799.6565	230.2314	18892.65	18240.5
799.7989	232.4578	18864.1	18209.5
799.9413	234.6837	18891.75	18229.85
800.0837	236.909	18918.2	18251.4
800.2262	239.1339	18943.6	18253.25
800.3687	241.3582	18941.8	18268.35
800.5111	243.582	18936	18230.25
800.6536	245.8053	18987.2	18294.85
800.7961	248.0281	19010.85	18320.9
800.9387	250.2503	19026.1	18333.3
801.0812	252.472	19053.8	18359.75
801.2238	254.6932	19069.9	18376
801.3664	256.9139	19040.25	18346.95
801.509	259.134	19067.45	18367.2
801.6516	261.3536	19034.3	18338.05
801.7942	263.5727	19143.35	18445.1
801.9369	265.7912	19114.35	18414.05
802.0795	268.0092	19180.9	18479
802.2222	270.2267	19156.15	18457.5
802.3649	272.4436	19209.95	18509.3
802.5076	274.6601	19220.2	18508.25
802.6504	276.8759	19195.45	18484.75
802.7931	279.0913	19248.9	18539.95
802.9359	281.3061	19259.8	18551.3
803.0787	283.5204	19348.5	18636.95
803.2215	285.7341	19324.85	18608.65
803.3643	287.9473	19382.45	18655
803.5071	290.16	19354.05	18636.25
803.6499	292.3721	19326.7	18611.95
803.7928	294.5837	19318.4	18604
803.9357	296.7947	19303.2	18587.5
804.0786	299.0052	19278.1	18560.65
804.2215	301.2152	19207.85	18489.6
804.3644	303.4246	19274.9	18560.15
804.5074	305.6334	19226.6	18512.1
804.6503	307.8418	19233.25	18514.1
804.7933	310.0495	19251.9	18529.9
804.9363	312.2568	19185.05	18464.9
805.0793	314.4635	19098.55	18374
805.2223	316.6696	19076.3	18350
805.3653	318.8752	19040.5	18304.5
805.5084	321.0802	18977.65	18249.35
805.6514	323.2847	19038.1	18307.6
805.7945	325.4887	18969.55	18237.9
805.9376	327.692	18958	18222.1
806.0807	329.8949	19005.1	18272.75
806.2238	332.0972	19028	18290.65
806.367	334.2989	19044.85	18306.25
806.5101	336.5001	19062.7	18321.9
806.6533	338.7007	19040.4	18301.15
806.7965	340.9008	19035.7	18295.25
806.9397	343.1003	18967.35	18221.15
807.0829	345.2992	18987.9	18245.85
807.2261	347.4976	18952.5	18204.1
807.3693	349.6955	18939.55	18189.9
807.5126	351.8927	18974.8	18224.6
807.6559	354.0895	18909.4	18145.75
807.7991	356.2856	18947.55	18195.2
807.9424	358.4812	18891.25	18137.75
808.0857	360.6763	18916.65	18162.05
808.2291	362.8707	18910.2	18150.2
808.3724	365.0646	18914.9	18151.85
808.5158	367.258	18887.65	18123.7
808.6591	369.4508	18847.35	18080.3
808.8025	371.643	18902.75	18136.8
808.9459	373.8346	18850.35	18081.8
809.0893	376.0257	18834.05	18063.9
809.2327	378.2162	18792.45	18025.05
809.3762	380.4062	18797.3	18029.4
809.5196	382.5956	18750.2	17983.8
809.6631	384.7844	18727.25	17967
809.8066	386.9726	18677.95	17917.35
809.9501	389.1603	18644	17883.65
810.0936	391.3474	18651.25	17850.95
810.2371	393.5339	18629.1	17865.5
810.3806	395.7199	18571.6	17810.25
810.5241	397.9052	18581.55	17820.95
810.6677	400.09	18561.7	17798.7
810.8113	402.2743	18584.4	17820.35
810.9548	404.4579	18568.2	17802.7
811.0984	406.641	18625.1	17857.25
811.2421	408.8235	18640.55	17870.4
811.3857	411.0054	18684.55	17912.25
811.5293	413.1868	18752.7	17975.65
811.673	415.3675	18758.6	17980.5
811.8166	417.5477	18789.4	18009.3
811.9603	419.7273	18718.45	17938.65
812.104	421.9064	18593	17804.75
812.2477	424.0848	18537	17754.8
812.3914	426.2627	18443.65	17658.9
812.5351	428.4399	18401.05	17616.3
812.6788	430.6166	18333.35	17544.95
812.8226	432.7928	18291.75	17501.9
812.9663	434.9683	18230.8	17442.75
813.1101	437.1432	18188.2	17395.95
813.2539	439.3176	18141.9	17353.45
813.3977	441.4914	18086.85	17298.3
813.5415	443.6645	18056.25	17268.1
813.6853	445.8371	17983.4	17191.85
813.8291	448.0091	17903.25	17113.45
813.973	450.1806	17854.35	17062
814.1168	452.3514	17792.4	16999.95
814.2607	454.5216	17825.45	17024.15
814.4046	456.6913	17744.1	16949.5
814.5485	458.8603	17753.1	16957.7
814.6924	461.0288	17746.45	16954.3
814.8363	463.1967	17692.25	16897.8
814.9802	465.3639	17719.15	16924.15
815.1241	467.5306	17679.75	16884.9
815.2681	469.6967	17658.9	16862.3
815.412	471.8622	17601.35	16806.8
815.556	474.0271	17586.75	16791.05
815.7	476.1914	17614.1	16813.4
815.844	478.3551	17561.75	16763.7
815.988	480.5182	17580.45	16782.75
816.132	482.6807	17585.8	16788.4
816.276	484.8426	17576.95	16779
816.4201	487.0039	17648.25	16847.7
816.5641	489.1647	17649.55	16848.6
816.7082	491.3248	17693.05	16890.7
816.8522	493.4843	17636.15	16837.05
816.9963	495.6432	17656.1	16853.95
817.1404	497.8015	17602	16795.55
817.2845	499.9592	17577.7	16770.9
817.4286	502.1163	17546.45	16737.15
817.5727	504.2728	17491.25	16681.2
817.7168	506.4287	17552.35	16750.15
817.861	508.5839	17471.35	16664.75
818.0051	510.7386	17445	16638.15
818.1493	512.8927	17420.45	16610.35
818.2935	515.0461	17453.05	16642.55
818.4377	517.199	17430.85	16620.95
818.5818	519.3512	17457.05	16644.75
818.726	521.5029	17436.8	16619.85
818.8703	523.6539	17456.4	16642
819.0145	525.8043	17481.65	16666.15
819.1587	527.9541	17416.55	16600.3
819.303	530.1033	17363.4	16545.9
819.4472	532.2519	17332.65	16519.35
819.5915	534.3999	17282.65	16465.95
819.7357	536.5472	17274.6	16458.65
819.88	538.694	17245.6	16430.4
820.0243	540.8401	17273.9	16457.05
820.1686	542.9856	17296.2	16478.25
820.3129	545.1305	17267.5	16445.9
820.4572	547.2748	17266.05	16445.15
820.6016	549.4185	17264.2	16443.05
820.7459	551.5615	17255.95	16434.35
820.8902	553.704	17215.1	16394.4
821.0346	555.8458	17192.85	16375.75
821.1789	557.987	17243.75	16425.65
821.3233	560.1276	17219.5	16398.3
821.4677	562.2675	17224.5	16402.4
821.6121	564.4069	17250.6	16428.15
821.7565	566.5456	17234.45	16413.25
821.9009	568.6837	17205.45	16381.65
822.0453	570.8212	17135.65	16313.95
822.1897	572.958	17056.75	16230.1
822.3342	575.0942	17041.05	16215.95
822.4786	577.2299	16975	16150.15
822.6231	579.3648	16903.7	16082
822.7675	581.4992	16833.75	16013.35
822.912	583.6329	16780.1	15959.15
823.0565	585.766	16749.2	15927.15
823.201	587.8985	16739.9	15918
823.3454	590.0304	16730.3	15890.75
823.4899	592.1616	16694.9	15862.5
823.6345	594.2922	16699.95	15870.75
823.779	596.4222	16621.55	15790.75
823.9235	598.5515	16574.55	15744.85
824.068	600.6802	16515.3	15684.1
824.2126	602.8083	16447.3	15617.75
824.3571	604.9358	16404.95	15574
824.5017	607.0626	16389.95	15558.55
824.6462	609.1888	16333.2	15499.7
824.7908	611.3144	16328	15491.7
824.9354	613.4393	16295	15461.8
825.08	615.5636	16327.5	15493.75
825.2246	617.6873	16360.7	15523.75
825.3692	619.8103	16387.7	15551.75
825.5138	621.9327	16336.55	15498.5
825.6584	624.0544	16291.35	15460.6
825.803	626.1756	16243.4	15409.9
825.9477	628.2961	16231.35	15392.65
826.0923	630.4159	16209.7	15377.2
826.237	632.5351	16204.35	15364.2
826.3816	634.6537	16147.55	15310.95
826.5263	636.7716	16102.1	15262.55
826.6709	638.8889	16126	15285.1
826.8156	641.0056	16156.65	15317.8
826.9603	643.1216	16092.8	15251.5
827.105	645.237	16130	15287.45
827.2497	647.3518	16076.5	15237.85
827.3944	649.4659	16085.85	15246.7
827.5391	651.5793	16033.35	15193.4
827.6838	653.6922	15974	15136.15
827.8285	655.8043	15965.7	15124.9
827.9733	657.9159	15972.9	15132.75
828.118	660.0268	15876.1	15031.65
828.2627	662.137	15852.25	15008.55
828.4075	664.2466	15868.8	15022.9
828.5522	666.3556	15870.05	15027.15
828.697	668.4639	15819.7	14973.45
828.8418	670.5716	15822.2	14980.4
828.9865	672.6786	15851.95	15004.45
829.1313	674.785	15791.6	14944.55
829.2761	676.8907	15715.5	14873
829.4209	678.9958	15703.7	14861.55
829.5657	681.1002	15663.4	14815.6
829.7105	683.204	15661.6	14810.15
829.8553	685.3072	15633.2	14782.3
830.0001	687.4097	15583.2	14733.2
830.1449	689.5115	15606.5	14757.05
830.2898	691.6127	15602.85	14756.1
830.4346	693.7132	15558.75	14712.4
830.5794	695.8131	15574.55	14712.35
830.7243	697.9123	15572.4	14722.55
830.8691	700.0109	15513.75	14663.8
831.014	702.1089	15521.05	14673.8
831.1588	704.2061	15511.2	14662.7
831.3037	706.3028	15509.95	14657.65
831.4486	708.3987	15514.25	14661.7
831.5935	710.4941	15504.8	14654.75
831.7383	712.5887	15456.9	14606.25
831.8832	714.6827	15473.6	14619.55
832.0281	716.7761	15426.4	14575.2
832.173	718.8688	15430.05	14576.6
832.3179	720.9608	15395.3	14539.15
832.4628	723.0522	15427.65	14571.1
832.6077	725.1429	15389.7	14534.25
832.7527	727.233	15374.35	14519.5
832.8976	729.3224	15416.95	14561.65
833.0425	731.4112	15361.35	14505.7
833.1874	733.4993	15352.25	14492.95
833.3324	735.5867	15304.5	14448.55
833.4773	737.6735	15260.6	14405.05
833.6222	739.7596	15242.35	14385.5
833.7672	741.845	15181.05	14323.55
833.9122	743.9298	15158.3	14298.85
834.0571	746.014	15151.2	14295.55
834.2021	748.0974	15102.35	14242.75
834.347	750.1802	15076.85	14219.35
834.492	752.2624	15055.25	14197.6
834.637	754.3439	14986.4	14125.3
834.782	756.4247	14963.5	14093.95
834.9269	758.5048	14925.3	14068.15
835.0719	760.5843	14883.85	14024.25
835.2169	762.6631	14788.35	13928.3
835.3619	764.7413	14822.2	13961.65
835.5069	766.8188	14892.25	14031.75
835.6519	768.8956	14866.95	14005
835.7969	770.9718	14872.55	14014.45
835.9419	773.0473	14824.7	13964.55
836.0869	775.1221	14788.05	13927.6
836.232	777.1962	14734.8	13873.05
836.377	779.2697	14727.05	13866.65
836.522	781.3426	14742.5	13859.25
836.667	783.4147	14721.6	13860.6
836.8121	785.4862	14731.9	13873.65
836.9571	787.557	14644.75	13783.25
837.1021	789.6271	14557.15	13693.75
837.2472	791.6966	14509.95	13644.55
837.3922	793.7654	14432.1	13569.65
837.5373	795.8335	14378.5	13517.45
837.6823	797.901	14337.35	13474.55
837.8274	799.9678	14324.2	13457.1
837.9724	802.0339	14315.95	13452.25
838.1175	804.0993	14298.2	13424.1
838.2626	806.1641	14227.25	13362.3
838.4076	808.2282	14175.15	13310.45
838.5527	810.2916	14191.05	13327.1
838.6978	812.3544	14151	13286.5
838.8428	814.4164	14114.85	13249.6
838.9879	816.4778	14172.1	13307.75
839.133	818.5385	14115.4	13250.95
839.2781	820.5986	14132.15	13266.9
839.4232	822.658	14137.1	13268.4
839.5682	824.7166	14136.15	13269
839.7133	826.7747	14182.6	13317.5
839.8584	828.832	14196.65	13327.2
840.0035	830.8886	14168.85	13302.45
840.1486	832.9446	14138.3	13271.3
840.2937	834.9999	14112.85	13249.75
840.4388	837.0545	14072.45	13200.4
840.5839	839.1085	14010.05	13143.6
840.729	841.1618	13953.55	13081.15
840.8741	843.2143	13888.05	13022.35
841.0192	845.2662	13818.8	12951.55
841.1643	847.3175	13815.25	12947.8
841.3095	849.368	13788.95	12918.45
841.4546	851.4179	13801.5	12934.5
841.5997	853.467	13709.9	12842.4
841.7448	855.5155	13707.8	12838.5
841.8899	857.5633	13692.3	12825.65
842.0351	859.6105	13669.05	12801.45
842.1802	861.6569	13638.85	12769.05
842.3253	863.7027	13615.1	12741.95
842.4704	865.7478	13613.45	12742.75
842.6156	867.7922	13572.8	12702.8
842.7607	869.8359	13536.15	12664.9
842.9058	871.8789	13521.8	12649.7
843.0509	873.9212	13557.35	12653.25
843.1961	875.9629	13497.35	12628.35
843.3412	878.0039	13494.6	12623.75
843.4863	880.0441	13474.75	12602.35
843.6315	882.0837	13491.2	12618.5
843.7766	884.1226	13478.15	12605.5
843.9218	886.1609	13482.85	12610.85
844.0669	888.1984	13501.8	12630.7
844.212	890.2352	13531.5	12659.35
844.3572	892.2714	13501.05	12623.85
844.5023	894.3069	13475.4	12602.05
844.6475	896.3416	13405.95	12532.4
844.7926	898.3757	13369.9	12498.25
844.9377	900.4091	13352.3	12477.95
845.0829	902.4418	13314.8	12437.8
845.228	904.4739	13281.65	12405.9
845.3732	906.5052	13309.2	12436.2
845.5183	908.5358	13275.25	12404.5
845.6635	910.5658	13265.65	12388.5
845.8086	912.595	13214.95	12340.95
845.9538	914.6236	13183.65	12310.05
846.0989	916.6515	13146.9	12274.4
846.2441	918.6786	13096.25	12222.55
846.3892	920.7051	13078.8	12202.75
846.5344	922.7309	13079.7	12204.45
846.6795	924.756	13034.85	12161.45
846.8246	926.7804	13027.75	12150.25
846.9698	928.8041	12929.8	12053.7
847.1149	930.8272	12972.85	12099.85
847.2601	932.8495	12881.9	12007.2
847.4052	934.8711	12903.7	12027.05
847.5504	936.892	12811.45	11936.55
847.6955	938.9123	12819.4	11943.05
847.8407	940.9318	12818.65	11943.95
847.9858	942.9506	12757.75	11879.05
848.131	944.9688	12712.1	11837.6
848.2761	946.9862	12713.15	11836.15
848.4213	949.003	12620	11743.1
848.5664	951.019	12584.2	11706.5
848.7115	953.0344	12555.05	11676.4
848.8567	955.0491	12528.7	11653.35
849.0018	957.063	12524.5	11646.95
849.147	959.0763	12518.85	11641.4
849.2921	961.0888	12481.75	11599.45
849.4373	963.1007	12476.9	11598.95
849.5824	965.1119	12459.2	11583.4
849.7275	967.1223	12443.3	11567.65
849.8727	969.1321	12397.75	11522.85
850.0178	971.1412	12409.55	11535.05
850.1629	973.1495	12387.75	11511.8
850.3081	975.1572	12425.4	11502.85
850.4532	977.1641	12382.35	11504.8
850.5983	979.1704	12348.6	11471.8
850.7435	981.1759	12280.35	11397.15
850.8886	983.1808	12254.1	11375.35
851.0337	985.1849	12264.15	11373.2
851.1788	987.1884	12206.2	11323.25
851.324	989.1911	12183.8	11302.2
851.4691	991.1932	12159.85	11280.25
851.6142	993.1945	12116.45	11236.9
851.7593	995.1951	12036.15	11157
851.9045	997.1951	12045.35	11159.1
852.0496	999.1943	11992.6	11115.75
852.1947	1001.1928	11950.9	11070.7
852.3398	1003.1906	11893.7	11015.4
852.4849	1005.1877	11896.45	11016.8
852.63	1007.1841	11861.9	10982.65
852.7751	1009.1798	11850.9	10968.55
852.9202	1011.1748	11807.05	10928.45
853.0653	1013.1691	11763.85	10884.2
853.2104	1015.1627	11702.25	10823.8
853.3555	1017.1556	11642.25	10765.15
853.5006	1019.1477	11606.7	10725.5
853.6457	1021.1392	11518.7	10642.1
853.7908	1023.1299	11491.4	10613.2
853.9359	1025.12	11465.9	10589.4
854.081	1027.1093	11391.65	10516.55
854.2261	1029.0979	11367.6	10494.35
854.3712	1031.0859	11343.75	10466.95
854.5163	1033.0731	11334.05	10456.3
854.6613	1035.0596	11289.05	10412.5
854.8064	1037.0454	11234.35	10356.35
854.9515	1039.0304	11211	10330.05
855.0965	1041.0148	11166.45	10288
855.2416	1042.9985	11100.95	10217.5
855.3867	1044.9814	11132.45	10254.85
855.5317	1046.9636	11047.6	10165.95
855.6768	1048.9452	11041.35	10162.15
855.8219	1050.926	11014.3	10133.9
855.9669	1052.9061	11004.35	10124.15
856.112	1054.8855	10980	10097.15
856.257	1056.8642	10952.45	10072.1
856.4021	1058.8421	10947.05	10059.55
856.5471	1060.8194	10911.95	10031.1
856.6921	1062.7959	10876.65	9996.4
856.8372	1064.7717	10858.7	9976.15
856.9822	1066.7469	10879.35	9995
857.1272	1068.7213	10869.5	9988.05
857.2723	1070.695	10828.65	9948.35
857.4173	1072.6679	10778.35	9896.75
857.5623	1074.6402	10782.8	9900.95
857.7073	1076.6117	10790.3	9905.55
857.8523	1078.5826	10775.45	9894.1
857.9973	1080.5527	10713.25	9828.15
858.1423	1082.5221	10663.5	9781.3
858.2873	1084.4908	10636.05	9751.8
858.4323	1086.4587	10582.55	9699.9
858.5773	1088.426	10542.6	9659.8
858.7223	1090.3925	10511.3	9625.45
858.8673	1092.3584	10516.65	9634.2
859.0123	1094.3235	10474.65	9595
859.1573	1096.2879	10456.4	9574.25
859.3022	1098.2515	10470.6	9587.15
859.4472	1100.2145	10477.15	9595.65
859.5922	1102.1767	10449	9564.55
859.7371	1104.1382	10454.1	9570.65
859.8821	1106.099	10445.45	9560.45
860.027	1108.0591	10424.9	9542.65
860.172	1110.0185	10444.9	9560.7
860.3169	1111.9771	10446.35	9562.4
860.4619	1113.9351	10427	9544.4
860.6068	1115.8923	10431.8	9547.1
860.7517	1117.8488	10413	9526.95
860.8967	1119.8045	10359.5	9476.25
861.0416	1121.7596	10313.75	9430.55
861.1865	1123.7139	10207.7	9326.3
861.3314	1125.6675	10162.3	9278.2
861.4763	1127.6204	10175.2	9294.05
861.6212	1129.5726	10134.15	9248.15
861.7661	1131.524	10132.75	9251.1
861.911	1133.4748	10087.65	9205.25
862.0559	1135.4248	10046.55	9159.5
862.2008	1137.3741	9980.35	9098.3
862.3457	1139.3226	9975.65	9090.85
862.4905	1141.2705	9969.1	9085.75
862.6354	1143.2176	9932	9042.65
862.7803	1145.164	9927.05	9038.75
862.9251	1147.1097	9902.45	9016.8
863.07	1149.0546	9855.05	8971.1
863.2148	1150.9989	9864.8	8979.2
863.3597	1152.9424	9832.05	8947.7
863.5045	1154.8852	9788.1	8901.75
863.6493	1156.8272	9792.8	8909.4
863.7942	1158.7686	9789.5	8898.95
863.939	1160.7092	9750.1	8862.9
864.0838	1162.6491	9711.25	8824
864.2286	1164.5883	9719.75	8835.65
864.3734	1166.5267	9702.35	8818.25
864.5182	1168.4644	9701.1	8815.45
864.663	1170.4014	9704.9	8814.15
864.8078	1172.3377	9725.3	8842.3
864.9526	1174.2732	9727.25	8843.85
865.0974	1176.2081	9789.55	8906.45
865.2421	1178.1421	9809.3	8921.65
865.3869	1180.0755	9862.2	8979.8
865.5317	1182.0082	9836.3	8951.7
865.6764	1183.9401	9802.9	8919.45
865.8212	1185.8713	9745.7	8860.6
