Software Version:	3.9.2.0
Unit SN:	10000200
Spectrometer SN:	6960
Date:	3/6/2024 10:07:29 AM
Data Line Index:	25
Spectral Points:	2048
Integration time (ms):	125
Averages:	20
Delay (ms):	30
Sequence Number:	1
Processing:	dark subtract
Laser Power (mW):	305
Laser Current (mA):	826
Laser Diode Temp (C):	25.1
Laser Case Temp (C):	24.8
System Temp (C):	24.6
Spectrometer Temp (C):	22.2
CCD Temp (C):	-0.003
Secondary Temp (C):	20.006
Heatsink Temp (C):	18.498
CCDPCB Temp (C):	31.094
SecondaryPCB Temp (C):	25.747

Wavelength	RamanShift	Raw Counts	Dark Subtracted
787.061	30.1047	790.45	383.25
787.2016	32.3739	808.8	402.05
787.3422	34.6426	825.9	416.7
787.4828	36.9109	855.2	446.35
787.6235	39.1787	890.7	475.45
787.7642	41.4461	925	507.1
787.9049	43.7131	960.05	540.2
788.0456	45.9796	992.1	568.7
788.1863	48.2456	1029.1	601.1
788.3271	50.5112	1067.5	634.7
788.4679	52.7764	1102.75	668.7
788.6087	55.0411	1140.95	702.1
788.7496	57.3054	1197.2	753.05
788.8904	59.5692	1251.8	806.9
789.0313	61.8326	1295.85	847.1
789.1722	64.0955	1355.65	904.85
789.3132	66.3579	1423.55	965.9
789.4541	68.6199	1506.4	1044.9
789.5951	70.8815	1666.85	1201.35
789.7361	73.1426	1988.85	1521.5
789.8771	75.4032	2814.85	2343.1
790.0181	77.6634	4930.15	4453.3
790.1592	79.9231	10278.05	9795.45
790.3003	82.1824	26501.15	26008.15
790.4414	84.4412	50536.4	50021.8
790.5825	86.6995	61331.25	60793.5
790.7237	88.9574	64254.75	63698.75
790.8648	91.2148	65162.95	64586.3
791.006	93.4717	65268.95	64687.3
791.1472	95.7282	65325.95	64740
791.2885	97.9842	65361.65	64770.75
791.4297	100.2398	65351.3	64758.15
791.571	102.4949	65369.4	64773.3
791.7123	104.7495	65359.1	64758.55
791.8536	107.0036	65348.3	64746.25
791.9949	109.2573	65383.4	64784.55
792.1363	111.5105	65363.75	64764.2
792.2777	113.7632	65365.75	64762.45
792.4191	116.0154	65388.75	64776
792.5605	118.2672	65422.1	64811.75
792.7019	120.5185	65419.15	64808.7
792.8434	122.7693	65429	64816.2
792.9849	125.0197	65383.4	64765.8
793.1264	127.2696	65467.05	64843.3
793.2679	129.519	65435.6	64811.55
793.4094	131.7679	65485.3	64855.35
793.551	134.0163	65411.35	64776.85
793.6926	136.2642	65447.3	64812.45
793.8342	138.5117	65495.1	64857
793.9758	140.7587	65478.3	64840.25
794.1175	143.0052	65467.3	64827.15
794.2591	145.2512	65426.7	64785.4
794.4008	147.4967	65472.7	64830.55
794.5425	149.7417	65477.5	64831.1
794.6842	151.9863	65477.45	64824.85
794.826	154.2304	65462.45	64809.55
794.9677	156.4739	65469.15	64810.05
795.1095	158.717	65515.9	64856.1
795.2513	160.9596	65488.7	64824.4
795.3931	163.2017	65442.4	64778.9
795.535	165.4433	65490	64822.25
795.6768	167.6844	65464.2	64794.5
795.8187	169.925	65483.3	64811.15
795.9606	172.1651	65459.5	64782.95
796.1025	174.4047	65495.05	64812.75
796.2445	176.6439	65478.5	64799.85
796.3864	178.8825	65459.35	64778.75
796.5284	181.1206	65519.35	64834.45
796.6704	183.3582	65503.05	64811.55
796.8124	185.5954	65498.4	64805.65
796.9544	187.832	65500	64803.2
797.0965	190.0681	65465.7	64768.4
797.2386	192.3037	65517.35	64814.1
797.3806	194.5388	65530.35	64822.85
797.5228	196.7734	65439.25	64730
797.6649	199.0075	65531.15	64823.05
797.807	201.2411	65517.75	64809.45
797.9492	203.4742	65533.75	64824.95
798.0914	205.7068	65526.6	64806.7
798.2336	207.9389	65527.5	64807.5
798.3758	210.1704	65523.35	64809.7
798.518	212.4015	65535	64836.15
798.6603	214.632	65525.25	64828.3
798.8025	216.862	65535	64840.05
798.9448	219.0915	65528.4	64829.3
799.0871	221.3205	65526.3	64822.8
799.2294	223.549	65535	64842.5
799.3718	225.777	65535	64835.65
799.5141	228.0044	65535	64832
799.6565	230.2314	65535	64830.7
799.7989	232.4578	65535	64827.65
799.9413	234.6837	65535	64816.55
800.0837	236.909	65535	64815.65
800.2262	239.1339	65532.75	64790.6
800.3687	241.3582	65535	64807.4
800.5111	243.582	65535	64775.55
800.6536	245.8053	65535	64789.8
800.7961	248.0281	65535	64792.3
800.9387	250.2503	65535	64788.35
801.0812	252.472	65535	64786.35
801.2238	254.6932	65535	64790.45
801.3664	256.9139	65535	64788.1
801.509	259.134	65535	64780.2
801.6516	261.3536	65535	64784.85
801.7942	263.5727	65535	64783.15
801.9369	265.7912	65535	64785.95
802.0795	268.0092	65535	64780.75
802.2222	270.2267	65535	64782.15
802.3649	272.4436	65535	64780.65
802.5076	274.6601	65535	64768
802.6504	276.8759	65535	64771.55
802.7931	279.0913	65535	64774.75
802.9359	281.3061	65535	64774.7
803.0787	283.5204	65535	64770.8
803.2215	285.7341	65535	64767.45
803.3643	287.9473	65535	64755.95
803.5071	290.16	65535	64762.15
803.6499	292.3721	65535	64772.65
803.7928	294.5837	65535	64765.7
803.9357	296.7947	65535	64765.65
804.0786	299.0052	65535	64767.15
804.2215	301.2152	65535	64761.75
804.3644	303.4246	65535	64767.7
804.5074	305.6334	65535	64764.05
804.6503	307.8418	65535	64761.6
804.7933	310.0495	65535	64756.55
804.9363	312.2568	65535	64758.65
805.0793	314.4635	65535	64757.35
805.2223	316.6696	65535	64754.2
805.3653	318.8752	65535	64745.65
805.5084	321.0802	65535	64757.5
805.6514	323.2847	65535	64751.35
805.7945	325.4887	65535	64752.95
805.9376	327.692	65535	64754.5
806.0807	329.8949	65535	64746.8
806.2238	332.0972	65535	64748.55
806.367	334.2989	65535	64743.7
806.5101	336.5001	65535	64743.6
806.6533	338.7007	65535	64741.35
806.7965	340.9008	65535	64741.45
806.9397	343.1003	65535	64741
807.0829	345.2992	65535	64740.05
807.2261	347.4976	65535	64736.05
807.3693	349.6955	65535	64734.1
807.5126	351.8927	65535	64730.2
807.6559	354.0895	65535	64721.15
807.7991	356.2856	65535	64730.1
807.9424	358.4812	65535	64731.55
808.0857	360.6763	65535	64727.95
808.2291	362.8707	65535	64726.2
808.3724	365.0646	65535	64724.6
808.5158	367.258	65535	64720
808.6591	369.4508	65535	64718.15
808.8025	371.643	65535	64717.15
808.9459	373.8346	65535	64718.9
809.0893	376.0257	65535	64713.25
809.2327	378.2162	65535	64715.1
809.3762	380.4062	65535	64716.15
809.5196	382.5956	65535	64716.4
809.6631	384.7844	65535	64720.8
809.8066	386.9726	65535	64722.6
809.9501	389.1603	65535	64719.45
810.0936	391.3474	65535	64684.35
810.2371	393.5339	65535	64720.6
810.3806	395.7199	65535	64725.5
810.5241	397.9052	65535	64725.85
810.6677	400.09	65535	64723.05
810.8113	402.2743	65535	64723.3
810.9548	404.4579	65535	64722.15
811.0984	406.641	65535	64718.2
811.2421	408.8235	65535	64720.4
811.3857	411.0054	65535	64717.05
811.5293	413.1868	65535	64712.15
811.673	415.3675	65535	64710.75
811.8166	417.5477	65535	64706.2
811.9603	419.7273	65535	64704.95
812.104	421.9064	65535	64700.05
812.2477	424.0848	65535	64705.15
812.3914	426.2627	65535	64704.4
812.5351	428.4399	65535	64704.45
812.6788	430.6166	65534.05	64700.1
812.8226	432.7928	65535	64696.1
812.9663	434.9683	65535	64701.1
813.1101	437.1432	65535	64696.4
813.2539	439.3176	65535	64702
813.3977	441.4914	65534.95	64704.85
813.5415	443.6645	65535	64702.6
813.6853	445.8371	65535	64699.75
813.8291	448.0091	65533.45	64699.4
813.973	450.1806	65529.7	64693.95
814.1168	452.3514	65534.25	64696.35
814.2607	454.5216	65522.55	64677.55
814.4046	456.6913	65534.7	64695.45
814.5485	458.8603	65535	64698.4
814.6924	461.0288	65523.15	64687.7
814.8363	463.1967	65534.7	64700.8
814.9802	465.3639	65531.05	64694
815.1241	467.5306	65495.7	64656.45
815.2681	469.6967	65525.7	64689.9
815.412	471.8622	65535	64699.9
815.556	474.0271	65523.3	64684.7
815.7	476.1914	65525.65	64682.5
815.844	478.3551	65527	64686.15
815.988	480.5182	65535	64696.35
816.132	482.6807	65520.7	64683.1
816.276	484.8426	65520.9	64687.8
816.4201	487.0039	65535	64696.95
816.5641	489.1647	65532.3	64688.1
816.7082	491.3248	65509.45	64663.8
816.8522	493.4843	65535	64691.05
816.9963	495.6432	65535	64692
817.1404	497.8015	65513	64663.15
817.2845	499.9592	65529.35	64680.3
817.4286	502.1163	65529	64678.45
817.5727	504.2728	65528.25	64680.8
817.7168	506.4287	65526.7	64685.35
817.861	508.5839	65522.15	64675.75
818.0051	510.7386	65529.6	64683.2
818.1493	512.8927	65527.5	64677.2
818.2935	515.0461	65527.45	64675.65
818.4377	517.199	65534.9	64683.9
818.5818	519.3512	65521.85	64666.55
818.726	521.5029	65527.25	64669.85
818.8703	523.6539	65526.25	64674.05
819.0145	525.8043	65501.7	64646.45
819.1587	527.9541	65523.8	64667.4
819.303	530.1033	65524.3	64670.7
819.4472	532.2519	65513.5	64657.2
819.5915	534.3999	65532.1	64671.5
819.7357	536.5472	65533.45	64674.1
819.88	538.694	65498.65	64643.5
820.0243	540.8401	65518.3	64658
820.1686	542.9856	65521.15	64656.9
820.3129	545.1305	65531.3	64664.2
820.4572	547.2748	65515.6	64646.35
820.6016	549.4185	65508.6	64641.3
820.7459	551.5615	65527.7	64660.25
820.8902	553.704	65522.75	64655.7
821.0346	555.8458	65507.7	64646.5
821.1789	557.987	65519.7	64655.6
821.3233	560.1276	65523.05	64656
821.4677	562.2675	65514.2	64647.25
821.6121	564.4069	65518.35	64653
821.7565	566.5456	65524.75	64663.05
821.9009	568.6837	65500.55	64638.45
822.0453	570.8212	65520.7	64660.35
822.1897	572.958	65464.2	64600.65
822.3342	575.0942	65518.45	64659.1
822.4786	577.2299	65490.8	64631.5
822.6231	579.3648	65467.55	64614.65
822.7675	581.4992	65461.45	64609.65
822.912	583.6329	65460.85	64609.9
823.0565	585.766	65462.25	64605.6
823.201	587.8985	65480.2	64624.4
823.3454	590.0304	65413.35	64526.15
823.4899	592.1616	65468.2	64594.55
823.6345	594.2922	65437.6	64571.85
823.779	596.4222	65397.6	64526.5
823.9235	598.5515	65416.2	64545.65
824.068	600.6802	65453.35	64582.75
824.2126	602.8083	65393.55	64522.3
824.3571	604.9358	65402.45	64531.45
824.5017	607.0626	65452.7	64578.7
824.6462	609.1888	65370.6	64493.85
824.7908	611.3144	65418	64540.65
824.9354	613.4393	65392.8	64518.7
825.08	615.5636	65353.65	64478.75
825.2246	617.6873	65396.9	64521.5
825.3692	619.8103	65343	64464.35
825.5138	621.9327	65405.35	64528.8
825.6584	624.0544	65409.1	64536.4
825.803	626.1756	65387.1	64514
825.9477	628.2961	65391.25	64514.8
826.0923	630.4159	65374	64498
826.237	632.5351	65349.85	64473.9
826.3816	634.6537	65435.9	64558.7
826.5263	636.7716	65342.85	64466.25
826.6709	638.8889	65363.25	64480.65
826.8156	641.0056	65354.15	64474.6
826.9603	643.1216	65362.8	64481.1
827.105	645.237	65389.8	64508.7
827.2497	647.3518	65338.15	64462.15
827.3944	649.4659	65349.25	64474.45
827.5391	651.5793	65358.65	64484.6
827.6838	653.6922	65377.95	64500.75
827.8285	655.8043	65307.4	64431.4
827.9733	657.9159	65389	64510.2
828.118	660.0268	65256.8	64381
828.2627	662.137	65338.5	64457.45
828.4075	664.2466	65339.85	64455.1
828.5522	666.3556	65309.95	64430.45
828.697	668.4639	65335.25	64453
828.8418	670.5716	65302.8	64423.95
828.9865	672.6786	65324	64440.8
829.1313	674.785	65293.8	64407.75
829.2761	676.8907	65293.15	64412.8
829.4209	678.9958	65314.55	64435.9
829.5657	681.1002	65323.35	64442.05
829.7105	683.204	65280.05	64387.4
829.8553	685.3072	65255.75	64366.35
830.0001	687.4097	65280.65	64394.3
830.1449	689.5115	65264.7	64377.9
830.2898	691.6127	65302.1	64415.1
830.4346	693.7132	65274.3	64391
830.5794	695.8131	65274.05	64365.9
830.7243	697.9123	65282.45	64391.75
830.8691	700.0109	65296.05	64405.8
831.014	702.1089	65236.35	64349.4
831.1588	704.2061	65254.65	64366.6
831.3037	706.3028	65269.35	64380.25
831.4486	708.3987	65271.4	64384.5
831.5935	710.4941	65248.6	64361.35
831.7383	712.5887	65270.25	64380.55
831.8832	714.6827	65235.95	64347
832.0281	716.7761	65259.85	64373.85
832.173	718.8688	65262.2	64373.5
832.3179	720.9608	65232.35	64343.1
832.4628	723.0522	65230.05	64332.85
832.6077	725.1429	65204.15	64311.15
832.7527	727.233	65291.8	64401.1
832.8976	729.3224	65182.3	64290.85
833.0425	731.4112	65221.05	64330.85
833.1874	733.4993	65212	64318.05
833.3324	735.5867	65216.9	64325.1
833.4773	737.6735	65199.7	64306.4
833.6222	739.7596	65178.25	64285.95
833.7672	741.845	65181.75	64291.85
833.9122	743.9298	65211.95	64318.15
834.0571	746.014	65176.5	64282.1
834.2021	748.0974	65147.65	64248.9
834.347	750.1802	65209.4	64312.75
834.492	752.2624	65133.05	64236.15
834.637	754.3439	65138.4	64242.65
834.782	756.4247	65138.75	64234.4
834.9269	758.5048	65132.5	64234
835.0719	760.5843	65125.15	64228.8
835.2169	762.6631	65134.85	64235.55
835.3619	764.7413	65115.45	64222.25
835.5069	766.8188	65123.75	64228.35
835.6519	768.8956	65129.7	64232.2
835.7969	770.9718	65119.6	64223.15
835.9419	773.0473	65099.2	64204.65
836.0869	775.1221	65087.95	64191.5
836.232	777.1962	65095.9	64198
836.377	779.2697	65063.3	64162.9
836.522	781.3426	65072.25	64158.4
836.667	783.4147	65069.8	64169.85
836.8121	785.4862	65048.45	64151.75
836.9571	787.557	65043.75	64147.15
837.1021	789.6271	65057.3	64162.25
837.2472	791.6966	65040.3	64144.5
837.3922	793.7654	65018.55	64119.25
837.5373	795.8335	65016.1	64118.5
837.6823	797.901	65020.2	64123.3
837.8274	799.9678	65010.65	64107.9
837.9724	802.0339	65014	64115.55
838.1175	804.0993	65012.7	64103.35
838.2626	806.1641	65002.2	64100
838.4076	808.2282	64992.3	64092.3
838.5527	810.2916	64985.8	64084.5
838.6978	812.3544	64992.25	64096.25
838.8428	814.4164	64977	64081.45
838.9879	816.4778	64979.05	64078.85
839.133	818.5385	64978.65	64078.75
839.2781	820.5986	64969.75	64067.05
839.4232	822.658	64967.85	64066.15
839.5682	824.7166	64965.3	64062.7
839.7133	826.7747	64951.15	64052.75
839.8584	828.832	64943.9	64042.55
840.0035	830.8886	64951.8	64046.3
840.1486	832.9446	64945.2	64043.45
840.2937	834.9999	64913.85	64015
840.4388	837.0545	64915.35	64009.25
840.5839	839.1085	64926.45	64023.85
840.729	841.1618	64925.4	64018.85
840.8741	843.2143	64899.25	63996.7
841.0192	845.2662	64890.35	63987.55
841.1643	847.3175	64895.85	63993.45
841.3095	849.368	64837.9	63937.85
841.4546	851.4179	64880.25	63980.6
841.5997	853.467	64855.85	63948.5
841.7448	855.5155	64877.55	63972.2
841.8899	857.5633	64835.25	63934.55
842.0351	859.6105	64805.8	63898.5
842.1802	861.6569	64834.9	63931.2
842.3253	863.7027	64781.35	63877.65
842.4704	865.7478	64816.2	63913
842.6156	867.7922	64787.45	63882.1
842.7607	869.8359	64800.25	63896.95
842.9058	871.8789	64708.85	63804.8
843.0509	873.9212	64760.95	63822.85
843.1961	875.9629	64755.1	63849.2
843.3412	878.0039	64744.1	63840.35
843.4863	880.0441	64697.5	63795.35
843.6315	882.0837	64705.8	63802.65
843.7766	884.1226	64707.5	63803.15
843.9218	886.1609	64697.95	63793.75
844.0669	888.1984	64669.8	63766.95
844.212	890.2352	64742.05	63836.45
844.3572	892.2714	64626.35	63717.5
844.5023	894.3069	64696.15	63793.5
844.6475	896.3416	64640.5	63730.95
844.7926	898.3757	64605.4	63697.3
844.9377	900.4091	64477.85	63569.65
845.0829	902.4418	64641.15	63724.95
845.228	904.4739	64553.3	63643.8
845.3732	906.5052	64557.7	63650.65
845.5183	908.5358	64506.1	63598.8
845.6635	910.5658	64468.8	63557.1
845.8086	912.595	64487.95	63580.85
845.9538	914.6236	64353.4	63444.95
846.0989	916.6515	64528.4	63621.6
846.2441	918.6786	64346.7	63438.5
846.3892	920.7051	64398.6	63489.25
846.5344	922.7309	64346.95	63438.5
846.6795	924.756	64367.25	63461.05
846.8246	926.7804	64310.6	63397.25
846.9698	928.8041	64204.15	63296.1
847.1149	930.8272	64276	63368.1
847.2601	932.8495	64279.5	63371.15
847.4052	934.8711	64189.45	63282.6
847.5504	936.892	64139.6	63229.55
847.6955	938.9123	64175.8	63266.45
847.8407	940.9318	64123.3	63213.7
847.9858	942.9506	64113.7	63206.2
848.131	944.9688	64127.8	63220.2
848.2761	946.9862	64020.05	63111.3
848.4213	949.003	64040.45	63130.8
848.5664	951.019	63945	63034.75
848.7115	953.0344	63963.75	63055.15
848.8567	955.0491	63930.2	63019.1
849.0018	957.063	63939.55	63029.8
849.147	959.0763	63944.9	63037.65
849.2921	961.0888	63872.85	62962.8
849.4373	963.1007	63927.95	63019.6
849.5824	965.1119	63928.25	63024.45
849.7275	967.1223	63854.4	62951.5
849.8727	969.1321	63908.15	63007.1
850.0178	971.1412	63819.3	62912.35
850.1629	973.1495	63803.1	62895
850.3081	975.1572	63808	62858.25
850.4532	977.1641	63793.5	62882.2
850.5983	979.1704	63736.8	62828.15
850.7435	981.1759	63752.45	62840.35
850.8886	983.1808	63706.35	62797.3
851.0337	985.1849	63703.7	62781.9
851.1788	987.1884	63710.6	62799
851.324	989.1911	63722.55	62810.7
851.4691	991.1932	63586.75	62675.8
851.6142	993.1945	63603.4	62694.75
851.7593	995.1951	63602.1	62693.5
851.9045	997.1951	63549.55	62632.9
852.0496	999.1943	63521.55	62612.05
852.1947	1001.1928	63508.9	62599.85
852.3398	1003.1906	63479.7	62571.35
852.4849	1005.1877	63396.75	62487.3
852.63	1007.1841	63371.1	62460.25
852.7751	1009.1798	63357.7	62449.5
852.9202	1011.1748	63353.85	62444.6
853.0653	1013.1691	63315.15	62403.7
853.2104	1015.1627	63058.75	62151.15
853.3555	1017.1556	63167.35	62260.75
853.5006	1019.1477	63187.3	62279.7
853.6457	1021.1392	63068.65	62161.95
853.7908	1023.1299	62863.85	61956.25
853.9359	1025.12	62995.55	62090.55
854.081	1027.1093	62888.35	61989.9
854.2261	1029.0979	62851.3	61956.25
854.3712	1031.0859	62834.4	61934.5
854.5163	1033.0731	62681.5	61778.6
854.6613	1035.0596	62733.6	61829.05
854.8064	1037.0454	62640.8	61731.3
854.9515	1039.0304	62607.95	61697.5
855.0965	1041.0148	62425.2	61516.45
855.2416	1042.9985	62461.15	61549.55
855.3867	1044.9814	62563.15	61654.65
855.5317	1046.9636	62368.6	61456.7
855.6768	1048.9452	62368.6	61459.5
855.8219	1050.926	62304.25	61395.2
855.9669	1052.9061	62318.7	61411.55
856.112	1054.8855	62315.15	61405.2
856.257	1056.8642	62226.35	61316.65
856.4021	1058.8421	62134.3	61220.7
856.5471	1060.8194	62138.6	61230.2
856.6921	1062.7959	61999.8	61088.75
856.8372	1064.7717	62125.85	61215.15
856.9822	1066.7469	62059.35	61148.85
857.1272	1068.7213	62059.85	61148.85
857.2723	1070.695	61956.8	61048.15
857.4173	1072.6679	61873.6	60963.45
857.5623	1074.6402	61952.65	61041.7
857.7073	1076.6117	61825.35	60907.9
857.8523	1078.5826	61793.6	60884.5
857.9973	1080.5527	61810	60898.05
858.1423	1082.5221	61700.85	60792.6
858.2873	1084.4908	61705.75	60798.8
858.4323	1086.4587	61620.95	60710.35
858.5773	1088.426	61593.2	60682.1
858.7223	1090.3925	61582.05	60667.2
858.8673	1092.3584	61571.15	60660.6
859.0123	1094.3235	61434.1	60527.45
859.1573	1096.2879	61382.1	60474.15
859.3022	1098.2515	61438.1	60526.75
859.4472	1100.2145	61377.7	60469.7
859.5922	1102.1767	61336.05	60425.55
859.7371	1104.1382	61371.25	60463.2
859.8821	1106.099	61303.85	60389.95
860.027	1108.0591	61258.75	60349.25
860.172	1110.0185	61082.7	60172.2
860.3169	1111.9771	61233.85	60325.2
860.4619	1113.9351	61174.25	60263.3
860.6068	1115.8923	61070.25	60161.75
860.7517	1117.8488	61007.6	60097.8
860.8967	1119.8045	60900.25	59989.35
861.0416	1121.7596	60918.55	60009.6
861.1865	1123.7139	60835.55	59925.5
861.3314	1125.6675	60813.9	59907
861.4763	1127.6204	60804.75	59896.3
861.6212	1129.5726	60700.95	59792.5
861.7661	1131.524	60745.95	59833.95
861.911	1133.4748	60724.95	59815.2
862.0559	1135.4248	60608.15	59699.3
862.2008	1137.3741	60614	59704.1
862.3457	1139.3226	60578.65	59669
862.4905	1141.2705	60569.25	59660.25
862.6354	1143.2176	60503.35	59588.5
862.7803	1145.164	60386.5	59474.55
862.9251	1147.1097	60428.05	59516.55
863.07	1149.0546	60387.5	59479.15
863.2148	1150.9989	60392.7	59482.1
863.3597	1152.9424	60275.2	59364.1
863.5045	1154.8852	60377.9	59468.1
863.6493	1156.8272	60274.75	59366.55
863.7942	1158.7686	60315.6	59397.25
863.939	1160.7092	60154.45	59246.05
864.0838	1162.6491	60150.75	59241.25
864.2286	1164.5883	60179.2	59269.6
864.3734	1166.5267	60081.3	59170.05
864.5182	1168.4644	60138.1	59227.65
864.663	1170.4014	60097.95	59180.15
864.8078	1172.3377	60132.6	59225.4
864.9526	1174.2732	60141.25	59232.75
865.0974	1176.2081	60070.6	59160.15
865.2421	1178.1421	60039.5	59126.25
865.3869	1180.0755	60130.2	59222.85
865.5317	1182.0082	60063.75	59155.15
865.6764	1183.9401	60058.65	59150.75
865.8212	1185.8713	59958.6	59051.95
865.9659	1187.8017	59948	59045.6
866.1106	1189.7315	59901.95	59006.1
866.2554	1191.6605	59815.15	58889.75
866.4001	1193.5888	59683.3	58781.95
