Software Version:	3.9.2.0
Unit SN:	10000200
Spectrometer SN:	6960
Date:	3/6/2024 9:48:54 AM
Data Line Index:	25
Spectral Points:	2048
Integration time (ms):	125
Averages:	20
Delay (ms):	30
Sequence Number:	1
Processing:	dark subtract
Laser Power (mW):	305
Laser Current (mA):	823
Laser Diode Temp (C):	25.1
Laser Case Temp (C):	24.2
System Temp (C):	24.1
Spectrometer Temp (C):	21.7
CCD Temp (C):	0
Secondary Temp (C):	20.007
Heatsink Temp (C):	18.043
CCDPCB Temp (C):	31.06
SecondaryPCB Temp (C):	25.991

Wavelength	RamanShift	Raw Counts	Dark Subtracted
787.061	30.1047	448.95	42.2
787.2016	32.3739	449	43.65
787.3422	34.6426	453.25	45.4
787.4828	36.9109	456.5	48.5
787.6235	39.1787	464.5	53.55
787.7642	41.4461	473.55	56.5
787.9049	43.7131	476.85	57.95
788.0456	45.9796	484.3	62.95
788.1863	48.2456	491.4	65.25
788.3271	50.5112	499.3	68.55
788.4679	52.7764	506.2	73.3
788.6087	55.0411	513.9	76.15
788.7496	57.3054	522.55	80.65
788.8904	59.5692	531	86.5
789.0313	61.8326	536.35	89.45
789.1722	64.0955	549.1	100.6
789.3132	66.3579	562.85	110.05
789.4541	68.6199	575.3	116.85
789.5951	70.8815	599.9	136.05
789.7361	73.1426	644.65	177.65
789.8771	75.4032	771.3	300.7
790.0181	77.6634	1057.7	584.05
790.1592	79.9231	1750.85	1274.65
790.3003	82.1824	3201.55	2718.35
790.4414	84.4412	5747.85	5251.7
790.5825	86.6995	9197.15	8689.6
790.7237	88.9574	12609.55	12088.25
790.8648	91.2148	15105.1	14578.35
791.006	93.4717	16534.7	16002.25
791.1472	95.7282	17146.7	16612.15
791.2885	97.9842	17481.4	16946
791.4297	100.2398	17558.35	17019.85
791.571	102.4949	17645.25	17105.4
791.7123	104.7495	17628.95	17085.3
791.8536	107.0036	17638.9	17092.05
791.9949	109.2573	17622.45	17075.4
792.1363	111.5105	17655.05	17105.55
792.2777	113.7632	17594.55	17045.2
792.4191	116.0154	17610.75	17049.9
792.5605	118.2672	17701.55	17146.75
792.7019	120.5185	17690.1	17131.75
792.8434	122.7693	17718.5	17158.8
792.9849	125.0197	17754.45	17191.6
793.1264	127.2696	17762.5	17193.85
793.2679	129.519	17837.95	17263.5
793.4094	131.7679	17857.2	17283.7
793.551	134.0163	17900.4	17326.4
793.6926	136.2642	17907.45	17324.35
793.8342	138.5117	17936.2	17350.95
793.9758	140.7587	17911.7	17327.9
794.1175	143.0052	17949.25	17361.9
794.2591	145.2512	17946.2	17360.45
794.4008	147.4967	17911	17321.05
794.5425	149.7417	17905.45	17311.85
794.6842	151.9863	17913.6	17316.15
794.826	154.2304	17929.25	17329.25
794.9677	156.4739	17908.15	17300.35
795.1095	158.717	17905.15	17302.5
795.2513	160.9596	17944.6	17334.4
795.3931	163.2017	17942.7	17332.05
795.535	165.4433	17975.55	17360.05
795.6768	167.6844	17969.25	17353.15
795.8187	169.925	17988.9	17371.1
795.9606	172.1651	17935.7	17314.25
796.1025	174.4047	17937	17309.45
796.2445	176.6439	17942.2	17313.75
796.3864	178.8825	17942.4	17312.55
796.5284	181.1206	17962.15	17326.2
796.6704	183.3582	17975.5	17335.85
796.8124	185.5954	17992.55	17354.25
796.9544	187.832	18028.1	17383.95
797.0965	190.0681	18053.1	17404.3
797.2386	192.3037	18089.1	17437.6
797.3806	194.5388	18119.85	17464.25
797.5228	196.7734	18155.45	17500.7
797.6649	199.0075	18187.3	17533.7
797.807	201.2411	18299.95	17640.65
797.9492	203.4742	18351.9	17693.35
798.0914	205.7068	18404.1	17740.9
798.2336	207.9389	18392.7	17728.7
798.3758	210.1704	18461.85	17805.6
798.518	212.4015	18413.1	17764.15
798.6603	214.632	18436.1	17795.8
798.8025	216.862	18453.2	17813.9
798.9448	219.0915	18466.55	17823.15
799.0871	221.3205	18530.05	17885.3
799.2294	223.549	18567.85	17924.2
799.3718	225.777	18623.2	17979.35
799.5141	228.0044	18604.7	17953.45
799.6565	230.2314	18684.75	18030.95
799.7989	232.4578	18643.65	17987.05
799.9413	234.6837	18658	17991.25
800.0837	236.909	18683.1	18017.15
800.2262	239.1339	18732.6	18044.6
800.3687	241.3582	18731.65	18055.1
800.5111	243.582	18738.95	18032.05
800.6536	245.8053	18768.5	18077.85
800.7961	248.0281	18775.2	18086.3
800.9387	250.2503	18782.4	18087.45
801.0812	252.472	18786.5	18092.95
801.2238	254.6932	18836.5	18144.5
801.3664	256.9139	18779.05	18085.8
801.509	259.134	18847.75	18147.95
801.6516	261.3536	18826.6	18127.8
801.7942	263.5727	18890.7	18193.35
801.9369	265.7912	18857.4	18155.4
802.0795	268.0092	18953.2	18254.2
802.2222	270.2267	18953.1	18250.8
802.3649	272.4436	18962.45	18260.05
802.5076	274.6601	18989.25	18275.85
802.6504	276.8759	18953.5	18246.25
802.7931	279.0913	19014.2	18305.3
802.9359	281.3061	19017.05	18306.05
803.0787	283.5204	19073.9	18357.15
803.2215	285.7341	19070.95	18356.3
803.3643	287.9473	19100.75	18374.9
803.5071	290.16	19093.4	18374.8
803.6499	292.3721	19063.45	18350.25
803.7928	294.5837	19081.6	18365.6
803.9357	296.7947	19032.5	18317.65
804.0786	299.0052	19055.2	18340.95
804.2215	301.2152	19030	18313
804.3644	303.4246	19024.2	18306.65
804.5074	305.6334	19022.45	18306.55
804.6503	307.8418	18995.6	18275.6
804.7933	310.0495	18968.1	18246.35
804.9363	312.2568	18941.75	18219.65
805.0793	314.4635	18896	18169.7
805.2223	316.6696	18841.55	18112.5
805.3653	318.8752	18768.7	18033.2
805.5084	321.0802	18755.55	18027.5
805.6514	323.2847	18771.2	18039.65
805.7945	325.4887	18716.05	17985.75
805.9376	327.692	18720.8	17986.15
806.0807	329.8949	18772.75	18035.75
806.2238	332.0972	18771.7	18035
806.367	334.2989	18839.2	18100.9
806.5101	336.5001	18800.3	18059.65
806.6533	338.7007	18809.55	18070.55
806.7965	340.9008	18825.25	18081.2
806.9397	343.1003	18765.65	18020.95
807.0829	345.2992	18745.9	18001.6
807.2261	347.4976	18714.3	17967.75
807.3693	349.6955	18697.9	17945.8
807.5126	351.8927	18744.35	17991.7
807.6559	354.0895	18697	17936.95
807.7991	356.2856	18723.4	17970
807.9424	358.4812	18628.3	17874.1
808.0857	360.6763	18705.1	17947.4
808.2291	362.8707	18660.15	17902.3
808.3724	365.0646	18675.8	17914.95
808.5158	367.258	18648.35	17885.2
808.6591	369.4508	18618.05	17850.4
808.8025	371.643	18652.4	17887.55
808.9459	373.8346	18580.75	17812.75
809.0893	376.0257	18594.45	17825.15
809.2327	378.2162	18586.25	17817.15
809.3762	380.4062	18568.7	17798.55
809.5196	382.5956	18558.15	17789.1
809.6631	384.7844	18501.4	17736.75
809.8066	386.9726	18456.25	17694.55
809.9501	389.1603	18424.35	17662.2
810.0936	391.3474	18439.35	17642.65
810.2371	393.5339	18398.95	17634.95
810.3806	395.7199	18344.05	17579.85
810.5241	397.9052	18369.1	17606.05
810.6677	400.09	18341.1	17576.85
810.8113	402.2743	18358.75	17595
810.9548	404.4579	18313.15	17547.25
811.0984	406.641	18408.95	17641.6
811.2421	408.8235	18404.9	17636.25
811.3857	411.0054	18450.95	17678.6
811.5293	413.1868	18540.95	17765.4
811.673	415.3675	18533.05	17754.05
811.8166	417.5477	18545.95	17768.25
811.9603	419.7273	18516.25	17732.55
812.104	421.9064	18366.15	17578.6
812.2477	424.0848	18292	17512.6
812.3914	426.2627	18232.2	17448.75
812.5351	428.4399	18201.2	17417.75
812.6788	430.6166	18114.45	17321.55
812.8226	432.7928	18057.85	17268.35
812.9663	434.9683	17996.6	17205.2
813.1101	437.1432	17953.15	17161.95
813.2539	439.3176	17884.35	17096.7
813.3977	441.4914	17817.65	17030.15
813.5415	443.6645	17822.2	17032.15
813.6853	445.8371	17763.6	16971.6
813.8291	448.0091	17727.05	16936.05
813.973	450.1806	17682.85	16889.05
814.1168	452.3514	17587.7	16794.85
814.2607	454.5216	17623.95	16823.7
814.4046	456.6913	17496.15	16699.95
814.5485	458.8603	17519.65	16725.6
814.6924	461.0288	17554.1	16761.8
814.8363	463.1967	17490.15	16696.95
814.9802	465.3639	17522.85	16727.2
815.1241	467.5306	17446.9	16648.4
815.2681	469.6967	17430.7	16634.25
815.412	471.8622	17365	16567.75
815.556	474.0271	17367.25	16571.4
815.7	476.1914	17341.2	16541.8
815.844	478.3551	17316	16516
815.988	480.5182	17362.4	16563.45
816.132	482.6807	17363.6	16561.2
816.276	484.8426	17352.35	16554.9
816.4201	487.0039	17394.85	16593.85
816.5641	489.1647	17468.2	16664.05
816.7082	491.3248	17482.85	16680.1
816.8522	493.4843	17407.9	16607.65
816.9963	495.6432	17434.15	16632.65
817.1404	497.8015	17347.75	16538.6
817.2845	499.9592	17383.3	16576.1
817.4286	502.1163	17338.35	16530.75
817.5727	504.2728	17269.85	16460.95
817.7168	506.4287	17311.2	16507.8
817.861	508.5839	17234.35	16429.6
818.0051	510.7386	17220.8	16414.25
818.1493	512.8927	17256.3	16443.75
818.2935	515.0461	17281.3	16471.2
818.4377	517.199	17238.3	16427.15
818.5818	519.3512	17212.35	16402.1
818.726	521.5029	17256.4	16438.95
818.8703	523.6539	17250.6	16437
819.0145	525.8043	17255.9	16440.9
819.1587	527.9541	17232.05	16416.05
819.303	530.1033	17142.7	16326.1
819.4472	532.2519	17075.8	16257.8
819.5915	534.3999	17077.15	16256.45
819.7357	536.5472	17053.8	16236.7
819.88	538.694	17050.75	16235.6
820.0243	540.8401	17036.05	16218.8
820.1686	542.9856	17063.3	16240.95
820.3129	545.1305	17039.25	16215.1
820.4572	547.2748	17108.7	16285.15
820.6016	549.4185	17069.6	16246.7
820.7459	551.5615	17037	16214.5
820.8902	553.704	17021.8	16199
821.0346	555.8458	16989.1	16171.3
821.1789	557.987	16997.35	16176.45
821.3233	560.1276	16986.1	16164.35
821.4677	562.2675	17032.25	16210.5
821.6121	564.4069	17036.45	16215.25
821.7565	566.5456	17017.45	16196.35
821.9009	568.6837	17010.3	16186.85
822.0453	570.8212	16935.65	16112.15
822.1897	572.958	16866.6	16039.7
822.3342	575.0942	16817.15	15993.1
822.4786	577.2299	16778.45	15954.5
822.6231	579.3648	16703.7	15882.65
822.7675	581.4992	16627.85	15807.75
822.912	583.6329	16559.7	15735.45
823.0565	585.766	16580.35	15757.95
823.201	587.8985	16532.1	15707.5
823.3454	590.0304	16508.4	15671.6
823.4899	592.1616	16506.75	15676.35
823.6345	594.2922	16486.75	15659
823.779	596.4222	16426.4	15597.9
823.9235	598.5515	16329.65	15497.5
824.068	600.6802	16308.45	15476
824.2126	602.8083	16191.7	15359.8
824.3571	604.9358	16195.45	15366.6
824.5017	607.0626	16190.3	15355.55
824.6462	609.1888	16182.95	15349.65
824.7908	611.3144	16167.15	15331.6
824.9354	613.4393	16113	15280.65
825.08	615.5636	16112.55	15278.4
825.2246	617.6873	16144.25	15311.55
825.3692	619.8103	16147	15311
825.5138	621.9327	16100.45	15262.6
825.6584	624.0544	16096.5	15262.65
825.803	626.1756	16040.5	15204.2
825.9477	628.2961	16021.15	15184.1
826.0923	630.4159	15966.6	15129.15
826.237	632.5351	15960.45	15120.9
826.3816	634.6537	15932	15094.55
826.5263	636.7716	15934.65	15093.85
826.6709	638.8889	15916.25	15077.25
826.8156	641.0056	15948.75	15107.6
826.9603	643.1216	15903.85	15063.4
827.105	645.237	15936.85	15094.7
827.2497	647.3518	15890.8	15052.95
827.3944	649.4659	15859.2	15020.7
827.5391	651.5793	15826.95	14988.4
827.6838	653.6922	15784.6	14947.2
827.8285	655.8043	15769	14929.7
827.9733	657.9159	15768	14928.45
828.118	660.0268	15708.55	14866.75
828.2627	662.137	15699.9	14858.5
828.4075	664.2466	15659.7	14812.15
828.5522	666.3556	15669.4	14824.95
828.697	668.4639	15615.15	14765.85
828.8418	670.5716	15624.7	14782.8
828.9865	672.6786	15635.9	14791.1
829.1313	674.785	15551.65	14704.55
829.2761	676.8907	15537.15	14689.4
829.4209	678.9958	15543.5	14699.95
829.5657	681.1002	15492.1	14646.25
829.7105	683.204	15461.45	14609.2
829.8553	685.3072	15419.95	14570.55
830.0001	687.4097	15371.75	14523.85
830.1449	689.5115	15401.4	14550.8
830.2898	691.6127	15392.95	14544.35
830.4346	693.7132	15367	14519.05
830.5794	695.8131	15354.6	14491.1
830.7243	697.9123	15362.55	14509.25
830.8691	700.0109	15342.25	14491.3
831.014	702.1089	15324.9	14477.5
831.1588	704.2061	15314.3	14465.65
831.3037	706.3028	15287.45	14435.6
831.4486	708.3987	15291.6	14439.05
831.5935	710.4941	15271.7	14422
831.7383	712.5887	15274	14421.65
831.8832	714.6827	15272.95	14418.25
832.0281	716.7761	15248.85	14396.1
832.173	718.8688	15213.3	14362.3
832.3179	720.9608	15197.55	14339.25
832.4628	723.0522	15216.25	14358.6
832.6077	725.1429	15186.5	14334.05
832.7527	727.233	15174.35	14319
832.8976	729.3224	15228.8	14374.75
833.0425	731.4112	15196.75	14340.75
833.1874	733.4993	15182.7	14324.6
833.3324	735.5867	15121.4	14264
833.4773	737.6735	15070.6	14215.9
833.6222	739.7596	15059.35	14201.9
833.7672	741.845	15012.55	14157.5
833.9122	743.9298	14989.8	14129.4
834.0571	746.014	14992.5	14137
834.2021	748.0974	14957.2	14097.95
834.347	750.1802	14931.35	14071.35
834.492	752.2624	14865.4	14007.35
834.637	754.3439	14804.05	13942.8
834.782	756.4247	14743.55	13875.5
834.9269	758.5048	14722.35	13863
835.0719	760.5843	14712.6	13852.85
835.2169	762.6631	14661.45	13802.9
835.3619	764.7413	14623	13764.85
835.5069	766.8188	14685.3	13822.75
835.6519	768.8956	14687.1	13824
835.7969	770.9718	14707.15	13846.35
835.9419	773.0473	14622.25	13763.7
836.0869	775.1221	14579.25	13716.9
836.232	777.1962	14519.8	13658.85
836.377	779.2697	14517	13654.75
836.522	781.3426	14575.05	13691.65
836.667	783.4147	14545.2	13681.9
836.8121	785.4862	14537.15	13677.15
836.9571	787.557	14477.55	13613.4
837.1021	789.6271	14388.6	13524.7
837.2472	791.6966	14329.85	13469.15
837.3922	793.7654	14242.15	13378.65
837.5373	795.8335	14220.15	13354.2
837.6823	797.901	14173.75	13309.7
837.8274	799.9678	14158	13294.35
837.9724	802.0339	14121.5	13255.85
838.1175	804.0993	14089.75	13216.45
838.2626	806.1641	14034.1	13170.4
838.4076	808.2282	14024.75	13159.15
838.5527	810.2916	14006.7	13141.2
838.6978	812.3544	13995.85	13134.3
838.8428	814.4164	13958.15	13094.95
838.9879	816.4778	13999.55	13135.7
839.133	818.5385	13940.25	13074.95
839.2781	820.5986	13956.55	13090.9
839.4232	822.658	13977.5	13108.9
839.5682	824.7166	13943.6	13079.05
839.7133	826.7747	13983.95	13119.55
839.8584	828.832	14004.55	13137.2
840.0035	830.8886	13962.1	13092.75
840.1486	832.9446	13978.6	13109.55
840.2937	834.9999	13922.1	13057.05
840.4388	837.0545	13890.35	13019.85
840.5839	839.1085	13836.4	12971.1
840.729	841.1618	13779.05	12909.15
840.8741	843.2143	13738.55	12869.5
841.0192	845.2662	13650	12782.35
841.1643	847.3175	13676.65	12809.45
841.3095	849.368	13635.6	12766.2
841.4546	851.4179	13599.95	12730.65
841.5997	853.467	13544.65	12676.65
841.7448	855.5155	13549.65	12679.95
841.8899	857.5633	13509.25	12641.55
842.0351	859.6105	13494.6	12625.9
842.1802	861.6569	13473	12603.05
842.3253	863.7027	13451.2	12580.25
842.4704	865.7478	13429.2	12557.8
842.6156	867.7922	13440.5	12570.9
842.7607	869.8359	13385.65	12515.45
842.9058	871.8789	13359.85	12487.85
843.0509	873.9212	13361.85	12457.8
843.1961	875.9629	13287	12416.9
843.3412	878.0039	13316.5	12446
843.4863	880.0441	13317	12447.45
843.6315	882.0837	13302.85	12431.2
843.7766	884.1226	13297.85	12425.75
843.9218	886.1609	13290.65	12421.65
844.0669	888.1984	13333.15	12463.55
844.212	890.2352	13346.85	12477.9
844.3572	892.2714	13301.45	12425.55
844.5023	894.3069	13311.1	12438.8
844.6475	896.3416	13256.5	12382.65
844.7926	898.3757	13223.3	12349.5
844.9377	900.4091	13182.4	12310.1
845.0829	902.4418	13162.9	12287.25
845.228	904.4739	13118.05	12241.75
845.3732	906.5052	13133.9	12258.95
845.5183	908.5358	13099.55	12226.95
845.6635	910.5658	13060.2	12187.45
845.8086	912.595	13037.1	12163.7
845.9538	914.6236	13003.3	12129.2
846.0989	916.6515	13000.9	12129.9
846.2441	918.6786	12957.55	12080.5
846.3892	920.7051	12917.5	12044.65
846.5344	922.7309	12934.7	12061.45
846.6795	924.756	12846.45	11970.8
846.8246	926.7804	12863.3	11987.35
846.9698	928.8041	12770.7	11894.3
847.1149	930.8272	12781.7	11906.2
847.2601	932.8495	12719.5	11843.55
847.4052	934.8711	12732.35	11853.75
847.5504	936.892	12700.7	11828.1
847.6955	938.9123	12649.2	11770.7
847.8407	940.9318	12648.5	11773.25
847.9858	942.9506	12599.5	11722.6
848.131	944.9688	12599	11721.75
848.2761	946.9862	12571.15	11695.1
848.4213	949.003	12501.6	11624
848.5664	951.019	12461.75	11585.1
848.7115	953.0344	12402.3	11525.6
848.8567	955.0491	12354.1	11473.9
849.0018	957.063	12365.3	11491.4
849.147	959.0763	12383.4	11507.5
849.2921	961.0888	12345.25	11471.55
849.4373	963.1007	12323.9	11447.35
849.5824	965.1119	12258.2	11380.75
849.7275	967.1223	12282.05	11407.1
849.8727	969.1321	12257.9	11383.6
850.0178	971.1412	12250.45	11374.05
850.1629	973.1495	12220.7	11344.05
850.3081	975.1572	12227.4	11302.45
850.4532	977.1641	12193.1	11315.45
850.5983	979.1704	12140.85	11261.95
850.7435	981.1759	12116.8	11237.05
850.8886	983.1808	12095.65	11215.05
851.0337	985.1849	12058.3	11169.25
851.1788	987.1884	12024.95	11143.7
851.324	989.1911	12019.85	11139.95
851.4691	991.1932	12001.8	11123.1
851.6142	993.1945	11962.15	11082.65
851.7593	995.1951	11880.7	11000.45
851.9045	997.1951	11880.7	10994
852.0496	999.1943	11828	10950.75
852.1947	1001.1928	11805.85	10927.75
852.3398	1003.1906	11764.6	10887.45
852.4849	1005.1877	11731.1	10850.8
852.63	1007.1841	11725.25	10847.5
852.7751	1009.1798	11683.75	10808.1
852.9202	1011.1748	11654.45	10775.9
853.0653	1013.1691	11615.4	10736.1
853.2104	1015.1627	11566.65	10685.75
853.3555	1017.1556	11492.45	10611.5
853.5006	1019.1477	11470.5	10591.55
853.6457	1021.1392	11364.85	10488.55
853.7908	1023.1299	11347.6	10468.65
853.9359	1025.12	11303.3	10425.25
854.081	1027.1093	11246.75	10372.45
854.2261	1029.0979	11223.85	10351.65
854.3712	1031.0859	11194.1	10317.35
854.5163	1033.0731	11181.1	10302.2
854.6613	1035.0596	11140.2	10263.75
854.8064	1037.0454	11095.6	10217.65
854.9515	1039.0304	11074.95	10195.6
855.0965	1041.0148	11036.45	10156.95
855.2416	1042.9985	10992.85	10110.05
855.3867	1044.9814	10974.05	10093.65
855.5317	1046.9636	10932.35	10049.3
855.6768	1048.9452	10883.7	10003.95
855.8219	1050.926	10894.4	10014.8
855.9669	1052.9061	10864.35	9983.15
856.112	1054.8855	10827.1	9947.05
856.257	1056.8642	10806.35	9923.5
856.4021	1058.8421	10810.6	9926.05
856.5471	1060.8194	10753.5	9873.45
856.6921	1062.7959	10711.55	9831.65
856.8372	1064.7717	10718.55	9837.7
856.9822	1066.7469	10691.65	9808.3
857.1272	1068.7213	10717.1	9833.3
857.2723	1070.695	10678.55	9798.9
857.4173	1072.6679	10661	9778.95
857.5623	1074.6402	10621.35	9738.1
857.7073	1076.6117	10650.5	9765.15
857.8523	1078.5826	10618.65	9736
857.9973	1080.5527	10557.25	9672.4
858.1423	1082.5221	10516.4	9634.1
858.2873	1084.4908	10513.5	9631.8
858.4323	1086.4587	10460	9577.85
858.5773	1088.426	10426.8	9543.85
858.7223	1090.3925	10407.7	9521.15
858.8673	1092.3584	10374.45	9492.35
859.0123	1094.3235	10337.6	9456.55
859.1573	1096.2879	10332.65	9449.85
859.3022	1098.2515	10333.1	9451.2
859.4472	1100.2145	10336.95	9455.35
859.5922	1102.1767	10327.25	9443.3
859.7371	1104.1382	10323.35	9440.75
859.8821	1106.099	10335.1	9449.25
860.027	1108.0591	10285	9402.5
860.172	1110.0185	10305.6	9420.6
860.3169	1111.9771	10333.2	9448.6
860.4619	1113.9351	10276.65	9395.75
860.6068	1115.8923	10285.4	9402.25
860.7517	1117.8488	10286.3	9399.85
860.8967	1119.8045	10200.8	9318.45
861.0416	1121.7596	10173.5	9290.1
861.1865	1123.7139	10113.85	9230.45
861.3314	1125.6675	10051.85	9169.2
861.4763	1127.6204	10051.8	9168.3
861.6212	1129.5726	10013.1	9129.3
861.7661	1131.524	9991.05	9108.3
861.911	1133.4748	9988.15	9104.1
862.0559	1135.4248	9939.4	9056.6
862.2008	1137.3741	9867.9	8985.15
862.3457	1139.3226	9838.1	8953.65
862.4905	1141.2705	9828.4	8943.55
862.6354	1143.2176	9793.45	8904.2
862.7803	1145.164	9804.95	8918.8
862.9251	1147.1097	9752.55	8868.75
863.07	1149.0546	9730.35	8845.35
863.2148	1150.9989	9709.45	8823.25
863.3597	1152.9424	9713.6	8829.8
863.5045	1154.8852	9696	8811.1
863.6493	1156.8272	9652.7	8769.8
863.7942	1158.7686	9663.9	8773.5
863.939	1160.7092	9634.2	8748.85
864.0838	1162.6491	9590.65	8705.2
864.2286	1164.5883	9639.1	8755.05
864.3734	1166.5267	9601.5	8717.95
864.5182	1168.4644	9605.9	8723.45
864.663	1170.4014	9592.05	8703.9
864.8078	1172.3377	9595.6	8714.05
864.9526	1174.2732	9626.25	8742.05
865.0974	1176.2081	9648.7	8761.95
865.2421	1178.1421	9680.9	8794.25
865.3869	1180.0755	9733.8	8850.55
865.5317	1182.0082	9721.45	8836.25
865.6764	1183.9401	9704.25	8819.75
865.8212	1185.8713	9613.35	8730.5
865.9659	1187.8017	9545.95	8664.15
