Software Version:	3.9.2.0
Unit SN:	10000200
Spectrometer SN:	6960
Date:	3/6/2024 9:54:14 AM
Data Line Index:	25
Spectral Points:	2048
Integration time (ms):	125
Averages:	20
Delay (ms):	30
Sequence Number:	1
Processing:	dark subtract
Laser Power (mW):	300
Laser Current (mA):	826
Laser Diode Temp (C):	25.1
Laser Case Temp (C):	24.5
System Temp (C):	24.3
Spectrometer Temp (C):	21.9
CCD Temp (C):	0
Secondary Temp (C):	20.003
Heatsink Temp (C):	18.21
CCDPCB Temp (C):	31.305
SecondaryPCB Temp (C):	26.214

Wavelength	RamanShift	Raw Counts	Dark Subtracted
787.061	30.1047	530.1	124.5
787.2016	32.3739	537.05	131.75
787.3422	34.6426	544.75	139.95
787.4828	36.9109	553.3	145.8
787.6235	39.1787	563.85	152.15
787.7642	41.4461	580.35	163.65
787.9049	43.7131	593	174.1
788.0456	45.9796	606.45	183
788.1863	48.2456	617.5	192.35
788.3271	50.5112	637.2	206
788.4679	52.7764	650.15	217.6
788.6087	55.0411	666.6	229.4
788.7496	57.3054	686.25	240.8
788.8904	59.5692	701.1	256.9
789.0313	61.8326	713.35	264.95
789.1722	64.0955	745.65	294.35
789.3132	66.3579	768.8	314.1
789.4541	68.6199	798.9	338.55
789.5951	70.8815	863.55	400.8
789.7361	73.1426	978.1	509.45
789.8771	75.4032	1279.4	807.15
790.0181	77.6634	2038	1562.8
790.1592	79.9231	3851.4	3372.7
790.3003	82.1824	7852.25	7368.15
790.4414	84.4412	15000.95	14504.4
790.5825	86.6995	24720.8	24210.45
790.7237	88.9574	34088.55	33565.6
790.8648	91.2148	41063.75	40535.4
791.006	93.4717	44259.75	43723.05
791.1472	95.7282	45684.2	45148.25
791.2885	97.9842	46252.5	45712.95
791.4297	100.2398	46577.75	46033.55
791.571	102.4949	46300.55	45756.6
791.7123	104.7495	46680.9	46133.6
791.8536	107.0036	46317.3	45767.3
791.9949	109.2573	46924.05	46373.9
792.1363	111.5105	46324.55	45771.6
792.2777	113.7632	46828.15	46273.65
792.4191	116.0154	46912.95	46348
792.5605	118.2672	47274.4	46720
792.7019	120.5185	47262.85	46703.1
792.8434	122.7693	47312.45	46749.85
792.9849	125.0197	47039.95	46469.3
793.1264	127.2696	47882.25	47310.8
793.2679	129.519	47942.65	47366.35
793.4094	131.7679	48295.8	47718.95
793.551	134.0163	47198.3	46618.85
793.6926	136.2642	47715.1	47132.6
793.8342	138.5117	48468.65	47881.45
793.9758	140.7587	48229	47639.85
794.1175	143.0052	48332.25	47741.65
794.2591	145.2512	47774.2	47181.6
794.4008	147.4967	48519.75	47926.45
794.5425	149.7417	48270.4	47674.15
794.6842	151.9863	48384.75	47783.85
794.826	154.2304	47777.35	47171.85
794.9677	156.4739	48370.85	47760.05
795.1095	158.717	48652.95	48045.4
795.2513	160.9596	48447.4	47833.85
795.3931	163.2017	47935.2	47320.35
795.535	165.4433	48567.5	47947.6
795.6768	167.6844	48225.65	47607.2
795.8187	169.925	48625	48002.65
795.9606	172.1651	48436.35	47811.05
796.1025	174.4047	48310.15	47681.05
796.2445	176.6439	48521.4	47886.2
796.3864	178.8825	48564.6	47930.55
796.5284	181.1206	48857.15	48219.8
796.6704	183.3582	48895.5	48251.85
796.8124	185.5954	48463.1	47816.85
796.9544	187.832	48732.6	48083.45
797.0965	190.0681	48471.55	47818.85
797.2386	192.3037	49110.25	48456.1
797.3806	194.5388	49746.5	49086.45
797.5228	196.7734	48386.8	47727
797.6649	199.0075	49555.85	48893.3
797.807	201.2411	49358.85	48696.55
797.9492	203.4742	50000.25	49337.1
798.0914	205.7068	49893.8	49225.6
798.2336	207.9389	49904.15	49233.05
798.3758	210.1704	49820.95	49154.55
798.518	212.4015	50421.25	49763.45
798.6603	214.632	49616.05	48966.25
798.8025	216.862	50440.75	49795.15
798.9448	219.0915	50428.55	49778.15
799.0871	221.3205	50118.1	49466.6
799.2294	223.549	50722.55	50078.9
799.3718	225.777	50703.15	50057
799.5141	228.0044	50890.55	50234.35
799.6565	230.2314	50802.75	50146.8
799.7989	232.4578	50738.4	50079.45
799.9413	234.6837	50812.2	50142.3
800.0837	236.909	51993.15	51324.3
800.2262	239.1339	50527	49831.65
800.3687	241.3582	51131.95	50452.15
800.5111	243.582	51186.7	50474.9
800.6536	245.8053	51312	50614.45
800.7961	248.0281	51308.75	50616.45
800.9387	250.2503	51599.85	50901.65
801.0812	252.472	51261.05	50561.55
801.2238	254.6932	51454.4	50758.05
801.3664	256.9139	51348.7	50649.5
801.509	259.134	52428	51722.4
801.6516	261.3536	51100.45	50398.15
801.7942	263.5727	52062.15	51359.35
801.9369	265.7912	51565.75	50858.95
802.0795	268.0092	51736.25	51032.95
802.2222	270.2267	51877.7	51170.25
802.3649	272.4436	51511.65	50804.55
802.5076	274.6601	51889.05	51171.9
802.6504	276.8759	52143.3	51429.95
802.7931	279.0913	52066	51352.45
802.9359	281.3061	51955.25	51238.95
803.0787	283.5204	52201.85	51482.25
803.2215	285.7341	52068.05	51344.7
803.3643	287.9473	52705.95	51971.6
803.5071	290.16	52185.8	51461
803.6499	292.3721	52723.4	52005.45
803.7928	294.5837	51991.8	51269.8
803.9357	296.7947	51757.45	51036.4
804.0786	299.0052	52461.75	51739.45
804.2215	301.2152	52067.35	51342.85
804.3644	303.4246	52682.7	51960.65
804.5074	305.6334	52583.5	51861.9
804.6503	307.8418	51901.4	51173.7
804.7933	310.0495	52186.5	51459.1
804.9363	312.2568	51990.95	51258.45
805.0793	314.4635	51988.1	51260.2
805.2223	316.6696	52214.05	51478.4
805.3653	318.8752	52535.65	51794
805.5084	321.0802	51372.9	50635.1
805.6514	323.2847	51791.9	51054.4
805.7945	325.4887	51888.1	51150.7
805.9376	327.692	51605.55	50866.8
806.0807	329.8949	52005.1	51264.5
806.2238	332.0972	51755.2	51012.65
806.367	334.2989	51927.4	51182.45
806.5101	336.5001	52387.2	51639.65
806.6533	338.7007	51594.7	50849.75
806.7965	340.9008	51962.3	51215.05
806.9397	343.1003	52016	51264.65
807.0829	345.2992	52334.65	51584.7
807.2261	347.4976	51905.9	51152.35
807.3693	349.6955	52051.05	51293.75
807.5126	351.8927	51812.65	51055.85
807.6559	354.0895	52157.65	51388.05
807.7991	356.2856	52020.5	51259.45
807.9424	358.4812	52409.05	51649.1
808.0857	360.6763	51880.4	51118.25
808.2291	362.8707	52159.7	51398.4
808.3724	365.0646	51995.7	51230.85
808.5158	367.258	51987.35	51218.25
808.6591	369.4508	51687.2	50915.4
808.8025	371.643	52106.75	51332.45
808.9459	373.8346	51954.8	51181.35
809.0893	376.0257	51903.5	51125.45
809.2327	378.2162	51772.75	50997.5
809.3762	380.4062	51482.45	50707.6
809.5196	382.5956	51668.7	50892.7
809.6631	384.7844	51736.1	50966.65
809.8066	386.9726	51800.6	51032.25
809.9501	389.1603	51876.5	51111.9
810.0936	391.3474	51341.75	50540.4
810.2371	393.5339	51848.75	51077.2
810.3806	395.7199	51193.7	50423.2
810.5241	397.9052	51277.65	50507.45
810.6677	400.09	51415.55	50644.9
810.8113	402.2743	51621.25	50846.65
810.9548	404.4579	51462.5	50690.65
811.0984	406.641	51286.55	50511.7
811.2421	408.8235	51576.35	50798.45
811.3857	411.0054	51541.8	50764.35
811.5293	413.1868	51594.95	50814.6
811.673	415.3675	51519.1	50735.35
811.8166	417.5477	51627.55	50843
811.9603	419.7273	51495.7	50707.4
812.104	421.9064	51368.35	50572.75
812.2477	424.0848	51421.25	50631.4
812.3914	426.2627	51488.95	50696.75
812.5351	428.4399	50994.1	50204.3
812.6788	430.6166	50820.4	50025.3
812.8226	432.7928	51135.9	50339.4
812.9663	434.9683	50645.45	49849.25
813.1101	437.1432	50707.6	49908.15
813.2539	439.3176	50900.6	50104.8
813.3977	441.4914	50313.5	49521.05
813.5415	443.6645	50384.7	49588.4
813.6853	445.8371	50309.2	49513.1
813.8291	448.0091	49982.8	49183.8
813.973	450.1806	49942.55	49145.3
814.1168	452.3514	49879.35	49078.3
814.2607	454.5216	49792.55	48983.6
814.4046	456.6913	49743	48941.45
814.5485	458.8603	49846.65	49045.75
814.6924	461.0288	49597.25	48799.7
814.8363	463.1967	49754.9	48957.65
814.9802	465.3639	49827.7	49024.95
815.1241	467.5306	49326	48522.95
815.2681	469.6967	49479.25	48679.05
815.412	471.8622	49461.3	48658.85
815.556	474.0271	49400.05	48596.4
815.7	476.1914	49363.3	48557.7
815.844	478.3551	49404	48600.8
815.988	480.5182	49670.8	48866.45
816.132	482.6807	49293.35	48490.7
816.276	484.8426	49441.25	48640.4
816.4201	487.0039	49703.25	48897.75
816.5641	489.1647	49682.5	48878.35
816.7082	491.3248	49384.05	48576.8
816.8522	493.4843	49744.5	48939.25
816.9963	495.6432	49760.65	48951.75
817.1404	497.8015	49234.5	48421.25
817.2845	499.9592	49486.7	48674.45
817.4286	502.1163	49503.45	48688.05
817.5727	504.2728	49365.35	48550.95
817.7168	506.4287	49469.8	48660.85
817.861	508.5839	49116.7	48306.8
818.0051	510.7386	49192.95	48382.4
818.1493	512.8927	49334.8	48517.3
818.2935	515.0461	49233.7	48417.85
818.4377	517.199	49405.2	48587.55
818.5818	519.3512	49313	48493.05
818.726	521.5029	49140.15	48315.2
818.8703	523.6539	49238.8	48418.2
819.0145	525.8043	48908.7	48088.25
819.1587	527.9541	49114.5	48290.9
819.303	530.1033	49025.45	48203.1
819.4472	532.2519	48880.85	48057.25
819.5915	534.3999	48941.3	48115.4
819.7357	536.5472	49139.85	48315.3
819.88	538.694	48760.35	47937.5
820.0243	540.8401	48972.15	48150.05
820.1686	542.9856	48922.4	48094.2
820.3129	545.1305	48936.55	48104.5
820.4572	547.2748	48879.65	48045.95
820.6016	549.4185	48851.65	48017.7
820.7459	551.5615	48921.6	48092.4
820.8902	553.704	48902.1	48071.4
821.0346	555.8458	48664.55	47837.85
821.1789	557.987	48711.95	47887.5
821.3233	560.1276	48766.35	47936.95
821.4677	562.2675	48711.2	47882.3
821.6121	564.4069	48710.8	47882.9
821.7565	566.5456	48794.25	47964.95
821.9009	568.6837	48582.65	47752.2
822.0453	570.8212	48577.2	47747.95
822.1897	572.958	48270.3	47439.15
822.3342	575.0942	48364.8	47537.8
822.4786	577.2299	48091.85	47264.8
822.6231	579.3648	47997.15	47168.85
822.7675	581.4992	47791.55	46966.55
822.912	583.6329	47717.5	46893.45
823.0565	585.766	47640.4	46814.55
823.201	587.8985	47627.75	46799.5
823.3454	590.0304	47275.35	46429.7
823.4899	592.1616	47393.6	46557.1
823.6345	594.2922	47299.45	46461.6
823.779	596.4222	47111.7	46274.65
823.9235	598.5515	47034.8	46199.4
824.068	600.6802	46989.1	46148.35
824.2126	602.8083	46716.2	45880.5
824.3571	604.9358	46750.75	45912.25
824.5017	607.0626	46716.85	45878.65
824.6462	609.1888	46531.15	45690
824.7908	611.3144	46686.5	45845.05
824.9354	613.4393	46486.2	45646.1
825.08	615.5636	46430	45585.6
825.2246	617.6873	46493.1	45653.45
825.3692	619.8103	46487.55	45645.05
825.5138	621.9327	46386.5	45542.35
825.6584	624.0544	46382.1	45540.35
825.803	626.1756	46348.05	45508.3
825.9477	628.2961	46271.75	45425.4
826.0923	630.4159	46126.85	45282.65
826.237	632.5351	46117.05	45273.1
826.3816	634.6537	46187.9	45343.9
826.5263	636.7716	46009.4	45163.25
826.6709	638.8889	46007.6	45158.55
826.8156	641.0056	46053.45	45202
826.9603	643.1216	46003.9	45154.4
827.105	645.237	46113.1	45263.9
827.2497	647.3518	45886.3	45039.75
827.3944	649.4659	45902.7	45059.05
827.5391	651.5793	45817.75	44971.5
827.6838	653.6922	45779.45	44933.85
827.8285	655.8043	45631.45	44785.85
827.9733	657.9159	45827.85	44980.5
828.118	660.0268	45465.05	44615.7
828.2627	662.137	45493.3	44643.9
828.4075	664.2466	45447.5	44596.6
828.5522	666.3556	45410.5	44559.3
828.697	668.4639	45330.15	44478.3
828.8418	670.5716	45338.65	44491.35
828.9865	672.6786	45347.65	44496.65
829.1313	674.785	45080.95	44226.6
829.2761	676.8907	44989.95	44137.3
829.4209	678.9958	45054.15	44205.3
829.5657	681.1002	44919.4	44066.35
829.7105	683.204	44760.2	43901.75
829.8553	685.3072	44727.5	43870.65
830.0001	687.4097	44642.4	43785.65
830.1449	689.5115	44716.95	43860.3
830.2898	691.6127	44715.75	43861.15
830.4346	693.7132	44593.9	43737.75
830.5794	695.8131	44664.25	43794.85
830.7243	697.9123	44641.35	43780.65
830.8691	700.0109	44558.35	43697.5
831.014	702.1089	44479.35	43620.7
831.1588	704.2061	44424.35	43565.35
831.3037	706.3028	44448.25	43588.55
831.4486	708.3987	44352.05	43492.4
831.5935	710.4941	44282.35	43426.95
831.7383	712.5887	44274	43416.4
831.8832	714.6827	44275.55	43413.35
832.0281	716.7761	44202.75	43346.5
832.173	718.8688	44136.05	43277.4
832.3179	720.9608	44119.9	43253.7
832.4628	723.0522	44119.4	43253.15
832.6077	725.1429	43956.65	43096.2
832.7527	727.233	43971.05	43107.4
832.8976	729.3224	44003.15	43144.65
833.0425	731.4112	43851.6	42988.8
833.1874	733.4993	43810.3	42946.1
833.3324	735.5867	43680.8	42816.75
833.4773	737.6735	43589.9	42726.3
833.6222	739.7596	43472.25	42608.05
833.7672	741.845	43400.95	42535.6
833.9122	743.9298	43290.15	42423.85
834.0571	746.014	43225.1	42360.25
834.2021	748.0974	43150.75	42283.45
834.347	750.1802	43027.9	42160.5
834.492	752.2624	42876.25	42009.85
834.637	754.3439	42752.2	41881.8
834.782	756.4247	42696.85	41815.95
834.9269	758.5048	42551.7	41684.25
835.0719	760.5843	42442	41574.65
835.2169	762.6631	42319.3	41451.6
835.3619	764.7413	42354.7	41485.45
835.5069	766.8188	42399.75	41532.05
835.6519	768.8956	42328.6	41456.45
835.7969	770.9718	42366.15	41498.1
835.9419	773.0473	42173.45	41305.3
836.0869	775.1221	42118.1	41251.6
836.232	777.1962	41945.65	41078.35
836.377	779.2697	41879.15	41007.05
836.522	781.3426	41817.7	40926.25
836.667	783.4147	41742	40870.05
836.8121	785.4862	41732.6	40865.25
836.9571	787.557	41620.3	40747.8
837.1021	789.6271	41523.65	40650.05
837.2472	791.6966	41375.75	40505.85
837.3922	793.7654	41178.65	40307.55
837.5373	795.8335	41189.95	40319.6
837.6823	797.901	41017.85	40148.35
837.8274	799.9678	40954.2	40081.55
837.9724	802.0339	40914.3	40044.25
838.1175	804.0993	40837.7	39954.25
838.2626	806.1641	40634.05	39760.55
838.4076	808.2282	40595.75	39721.75
838.5527	810.2916	40531.3	39656.15
838.6978	812.3544	40507.3	39634.85
838.8428	814.4164	40369.6	39498
838.9879	816.4778	40441.8	39568.45
839.133	818.5385	40310.5	39438.1
839.2781	820.5986	40312.45	39438.95
839.4232	822.658	40332.05	39456.1
839.5682	824.7166	40210.05	39335.7
839.7133	826.7747	40280.4	39403.25
839.8584	828.832	40249.45	39374.55
840.0035	830.8886	40133.25	39254.95
840.1486	832.9446	40078.3	39203.15
840.2937	834.9999	39959.25	39084.55
840.4388	837.0545	39954.6	39073.3
840.5839	839.1085	39770.9	38893.3
840.729	841.1618	39666	38786.85
840.8741	843.2143	39575.9	38700.2
841.0192	845.2662	39472.6	38596.8
841.1643	847.3175	39418.65	38541.6
841.3095	849.368	39338.3	38460.35
841.4546	851.4179	39307.7	38430.9
841.5997	853.467	39078.2	38200.55
841.7448	855.5155	39123.9	38245.2
841.8899	857.5633	38991.7	38113.85
842.0351	859.6105	38802.35	37924.85
842.1802	861.6569	38838.25	37960.1
842.3253	863.7027	38775.6	37894.1
842.4704	865.7478	38729.3	37848.35
842.6156	867.7922	38649.6	37770.8
842.7607	869.8359	38575.35	37694.55
842.9058	871.8789	38555.05	37676.25
843.0509	873.9212	38526.3	37615.45
843.1961	875.9629	38323.45	37442.25
843.3412	878.0039	38347.7	37468
843.4863	880.0441	38306.15	37426.45
843.6315	882.0837	38324.6	37445.6
843.7766	884.1226	38276.25	37394.75
843.9218	886.1609	38285.1	37404.85
844.0669	888.1984	38235.75	37355.6
844.212	890.2352	38302.55	37423.4
844.3572	892.2714	38181.4	37296.85
844.5023	894.3069	38173.95	37294.7
844.6475	896.3416	38030.25	37147.6
844.7926	898.3757	38002.95	37121.5
844.9377	900.4091	37920.35	37037.05
845.0829	902.4418	37856.2	36970.2
845.228	904.4739	37723.5	36836.45
845.3732	906.5052	37676.8	36792.6
845.5183	908.5358	37596.35	36714.85
845.6635	910.5658	37543.7	36656.75
845.8086	912.595	37410.75	36530.6
845.9538	914.6236	37284.75	36401.65
846.0989	916.6515	37282.4	36399.05
846.2441	918.6786	37157.1	36273.75
846.3892	920.7051	37125.6	36239.95
846.5344	922.7309	37171.3	36289.35
846.6795	924.756	36986.35	36102.85
846.8246	926.7804	36949.6	36064.45
846.9698	928.8041	36709.75	35822.4
847.1149	930.8272	36779.9	35895.95
847.2601	932.8495	36548.55	35662.75
847.4052	934.8711	36546.15	35659.7
847.5504	936.892	36330.45	35445.3
847.6955	938.9123	36243.65	35358.35
847.8407	940.9318	36162.2	35275.45
847.9858	942.9506	36073	35186.7
848.131	944.9688	35967.2	35079
848.2761	946.9862	35885.05	34998.5
848.4213	949.003	35670.25	34783.65
848.5664	951.019	35645.05	34758.25
848.7115	953.0344	35536.95	34650.85
848.8567	955.0491	35443.15	34555.2
849.0018	957.063	35446.15	34558.35
849.147	959.0763	35455.45	34569.7
849.2921	961.0888	35318.2	34429.9
849.4373	963.1007	35333.35	34448.2
849.5824	965.1119	35313.75	34430.85
849.7275	967.1223	35240.35	34356.05
849.8727	969.1321	35134.15	34252.25
850.0178	971.1412	35075.85	34191.2
850.1629	973.1495	34974.95	34091.3
850.3081	975.1572	34963.2	34045.7
850.4532	977.1641	34900.45	34013.15
850.5983	979.1704	34740.6	33853.85
850.7435	981.1759	34663.2	33773.15
850.8886	983.1808	34651	33762.4
851.0337	985.1849	34556.35	33658.7
851.1788	987.1884	34437.4	33546.55
851.324	989.1911	34391.55	33501.8
851.4691	991.1932	34308.35	33420.55
851.6142	993.1945	34186.2	33300.25
851.7593	995.1951	34025.45	33136.5
851.9045	997.1951	34015.3	33121.1
852.0496	999.1943	33772.05	32886.35
852.1947	1001.1928	33735.3	32846.65
852.3398	1003.1906	33583.95	32697.65
852.4849	1005.1877	33547.8	32656.85
852.63	1007.1841	33444.15	32557.2
852.7751	1009.1798	33326.2	32439.35
852.9202	1011.1748	33182.35	32294.75
853.0653	1013.1691	33101.3	32211.6
853.2104	1015.1627	32956.1	32066.55
853.3555	1017.1556	32689	31802.5
853.5006	1019.1477	32608.15	31720.95
853.6457	1021.1392	32451.95	31566.85
853.7908	1023.1299	32371.85	31486.05
853.9359	1025.12	32278.05	31390.7
854.081	1027.1093	32108.75	31229.4
854.2261	1029.0979	32023.55	31144.25
854.3712	1031.0859	31930.75	31049.6
854.5163	1033.0731	31831.5	30944.9
854.6613	1035.0596	31693.6	30809.95
854.8064	1037.0454	31571.1	30683.5
854.9515	1039.0304	31509.8	30621.6
855.0965	1041.0148	31346.9	30458.85
855.2416	1042.9985	31275	30387.1
855.3867	1044.9814	31253.05	30364.3
855.5317	1046.9636	31079.05	30189.8
855.6768	1048.9452	31010.1	30120.9
855.8219	1050.926	30955.45	30066.8
855.9669	1052.9061	30841.3	29952
856.112	1054.8855	30777.25	29889.65
856.257	1056.8642	30700.95	29810.4
856.4021	1058.8421	30722.05	29830.05
856.5471	1060.8194	30598.95	29709.75
856.6921	1062.7959	30533.35	29643.95
856.8372	1064.7717	30479.8	29588.85
856.9822	1066.7469	30419.55	29527.8
857.1272	1068.7213	30386.75	29491.9
857.2723	1070.695	30381.35	29491.8
857.4173	1072.6679	30211.5	29319.05
857.5623	1074.6402	30180.4	29290.45
857.7073	1076.6117	30178.9	29282.8
857.8523	1078.5826	30125.6	29234.65
857.9973	1080.5527	29996.75	29104.1
858.1423	1082.5221	29860	28969.9
858.2873	1084.4908	29801.8	28912
858.4323	1086.4587	29734.1	28840.45
858.5773	1088.426	29728.1	28837.75
858.7223	1090.3925	29576.1	28682.4
858.8673	1092.3584	29542.9	28651.9
859.0123	1094.3235	29398.55	28508.15
859.1573	1096.2879	29355.3	28464.75
859.3022	1098.2515	29265.3	28375.2
859.4472	1100.2145	29327.8	28439.55
859.5922	1102.1767	29217.7	28323.95
859.7371	1104.1382	29228.5	28335.8
859.8821	1106.099	29156.05	28262.55
860.027	1108.0591	29082.55	28189.4
860.172	1110.0185	28995.05	28103
860.3169	1111.9771	29045.45	28152.45
860.4619	1113.9351	28909.05	28016.55
860.6068	1115.8923	28802.9	27911.75
860.7517	1117.8488	28759.1	27865.25
860.8967	1119.8045	28577.6	27687.45
861.0416	1121.7596	28521.45	27630.65
861.1865	1123.7139	28361.6	27471.7
861.3314	1125.6675	28305.8	27417.2
861.4763	1127.6204	28324.4	27432.9
861.6212	1129.5726	28225.2	27331.15
861.7661	1131.524	28146.55	27257.45
861.911	1133.4748	28120.75	27228.4
862.0559	1135.4248	27997.95	27105.15
862.2008	1137.3741	27919.1	27028.2
862.3457	1139.3226	27843.15	26951.75
862.4905	1141.2705	27886.55	26994.95
862.6354	1143.2176	27701.85	26804.65
862.7803	1145.164	27678.25	26784.8
862.9251	1147.1097	27643.8	26750.6
863.07	1149.0546	27581.4	26689.1
863.2148	1150.9989	27523.75	26629.85
863.3597	1152.9424	27501.8	26608.85
863.5045	1154.8852	27405.9	26513.1
863.6493	1156.8272	27434.25	26542.25
863.7942	1158.7686	27424.5	26525.35
863.939	1160.7092	27307.05	26413.65
864.0838	1162.6491	27178.95	26284.3
864.2286	1164.5883	27168.3	26277.4
864.3734	1166.5267	27104.2	26211.3
864.5182	1168.4644	27140.25	26249.25
864.663	1170.4014	27056.35	26157.25
864.8078	1172.3377	27109.9	26216.5
864.9526	1174.2732	27109.2	26217.8
865.0974	1176.2081	27118.75	26227.8
865.2421	1178.1421	27165.7	26268.65
865.3869	1180.0755	27190.75	26299.05
