Software Version:	3.9.2.0
Unit SN:	10000200
Spectrometer SN:	6960
Date:	3/6/2024 10:00:27 AM
Data Line Index:	25
Spectral Points:	2048
Integration time (ms):	125
Averages:	20
Delay (ms):	30
Sequence Number:	1
Processing:	dark subtract
Laser Power (mW):	300
Laser Current (mA):	826
Laser Diode Temp (C):	25.1
Laser Case Temp (C):	24.7
System Temp (C):	24.5
Spectrometer Temp (C):	22.1
CCD Temp (C):	0.001
Secondary Temp (C):	20.008
Heatsink Temp (C):	18.339
CCDPCB Temp (C):	30.927
SecondaryPCB Temp (C):	26.303

Wavelength	RamanShift	Raw Counts	Dark Subtracted
787.061	30.1047	637.8	229.65
787.2016	32.3739	645.45	237.8
787.3422	34.6426	664.95	258.4
787.4828	36.9109	680.35	270.75
787.6235	39.1787	703	289.25
787.7642	41.4461	723.05	304.5
787.9049	43.7131	746.25	324.85
788.0456	45.9796	763.5	340
788.1863	48.2456	796.7	369.9
788.3271	50.5112	814.25	383.4
788.4679	52.7764	842.45	411.05
788.6087	55.0411	869.3	433.05
788.7496	57.3054	896.6	452.4
788.8904	59.5692	924.75	478.8
789.0313	61.8326	960.95	511.85
789.1722	64.0955	1000.3	548.2
789.3132	66.3579	1042.95	585.9
789.4541	68.6199	1103.75	646.8
789.5951	70.8815	1197.55	733.95
789.7361	73.1426	1406.1	937.9
789.8771	75.4032	1946.45	1472.3
790.0181	77.6634	3298.3	2822.05
790.1592	79.9231	6663.45	6184.2
790.3003	82.1824	14925.75	14437.3
790.4414	84.4412	31294.75	30787.6
790.5825	86.6995	46051.5	45525.95
790.7237	88.9574	53521.25	52977.55
790.8648	91.2148	57621.9	57069.9
791.006	93.4717	58843.45	58283.65
791.1472	95.7282	59390	58827.15
791.2885	97.9842	59635.15	59066.15
791.4297	100.2398	59694	59122.5
791.571	102.4949	59598.4	59025
791.7123	104.7495	59696.55	59121
791.8536	107.0036	59502.65	58926.05
791.9949	109.2573	59781.5	59203.7
792.1363	111.5105	59532.1	58954.9
792.2777	113.7632	59694.75	59111.75
792.4191	116.0154	59764.8	59170.4
792.5605	118.2672	59937.85	59348.2
792.7019	120.5185	59935	59344.85
792.8434	122.7693	59957	59364.45
792.9849	125.0197	59742.6	59145.2
793.1264	127.2696	60226.9	59628.85
793.2679	129.519	60167.15	59563.7
793.4094	131.7679	60346.7	59743.2
793.551	134.0163	59803.2	59192.85
793.6926	136.2642	60030.2	59420.1
793.8342	138.5117	60395.35	59780.45
793.9758	140.7587	60252.4	59637.25
794.1175	143.0052	60274.15	59656.95
794.2591	145.2512	59976.25	59354.25
794.4008	147.4967	60346.05	59725
794.5425	149.7417	60235.2	59609.35
794.6842	151.9863	60237.4	59606.95
794.826	154.2304	60002.3	59371.75
794.9677	156.4739	60239	59602.15
795.1095	158.717	60401.4	59763.05
795.2513	160.9596	60280.35	59640.6
795.3931	163.2017	60024.5	59383.4
795.535	165.4433	60315.95	59670.5
795.6768	167.6844	60147.1	59500.45
795.8187	169.925	60325.1	59671.85
795.9606	172.1651	60197.85	59546.8
796.1025	174.4047	60200.75	59545.55
796.2445	176.6439	60219.35	59560.75
796.3864	178.8825	60206.95	59545.6
796.5284	181.1206	60380	59714.8
796.6704	183.3582	60372.9	59701.55
796.8124	185.5954	60186.4	59514.6
796.9544	187.832	60286.2	59609.95
797.0965	190.0681	60121.8	59440.75
797.2386	192.3037	60461.9	59780.6
797.3806	194.5388	60752.75	60070.25
797.5228	196.7734	60014.9	59329.45
797.6649	199.0075	60659.6	59972.85
797.807	201.2411	60460.8	59771.3
797.9492	203.4742	60836.4	60147.7
798.0914	205.7068	60742.8	60046
798.2336	207.9389	60700.45	60003.9
798.3758	210.1704	60681.55	59995.8
798.518	212.4015	60984.4	60302.7
798.6603	214.632	60601.4	59926.15
798.8025	216.862	60973.3	60299.75
798.9448	219.0915	60833.3	60161.25
799.0871	221.3205	60741.85	60063.9
799.2294	223.549	61055.15	60384.1
799.3718	225.777	61037.75	60362.5
799.5141	228.0044	61188.45	60510.8
799.6565	230.2314	61091.55	60406.8
799.7989	232.4578	61083.05	60393.4
799.9413	234.6837	61135.3	60443.1
800.0837	236.909	61714.6	61013.8
800.2262	239.1339	60892.7	60171
800.3687	241.3582	61246.05	60536.7
800.5111	243.582	61283.05	60545.9
800.6536	245.8053	61281.15	60558.8
800.7961	248.0281	61281.15	60560.3
800.9387	250.2503	61434.85	60710.9
801.0812	252.472	61182.75	60457
801.2238	254.6932	61367.1	60643
801.3664	256.9139	61270.9	60545.05
801.509	259.134	61812.3	61082.45
801.6516	261.3536	61148.45	60420.5
801.7942	263.5727	61516.2	60783.45
801.9369	265.7912	61332.55	60600.3
802.0795	268.0092	61409.25	60678.25
802.2222	270.2267	61510.05	60778.85
802.3649	272.4436	61262.2	60527.3
802.5076	274.6601	61492.45	60747.5
802.6504	276.8759	61629.75	60889
802.7931	279.0913	61504.95	60764.95
802.9359	281.3061	61503.7	60762.9
803.0787	283.5204	61562.8	60821.8
803.2215	285.7341	61528.2	60782
803.3643	287.9473	61800.4	61041.6
803.5071	290.16	61582.9	60831.6
803.6499	292.3721	61736.35	60993.15
803.7928	294.5837	61466.45	60718.25
803.9357	296.7947	61300.1	60554.3
804.0786	299.0052	61718.15	60972.05
804.2215	301.2152	61543.75	60794
804.3644	303.4246	61789.8	61041.9
804.5074	305.6334	61757.3	61009.05
804.6503	307.8418	61417.15	60669.2
804.7933	310.0495	61481.75	60726.7
804.9363	312.2568	61435.15	60684.4
805.0793	314.4635	61443.6	60688.4
805.2223	316.6696	61596.45	60838.25
805.3653	318.8752	61756.25	60990.35
805.5084	321.0802	61172.8	60411.45
805.6514	323.2847	61395.3	60630.3
805.7945	325.4887	61401.35	60640.4
805.9376	327.692	61278.3	60513.3
806.0807	329.8949	61437.1	60674.2
806.2238	332.0972	61326.95	60560.4
806.367	334.2989	61420.35	60649
806.5101	336.5001	61627.45	60854.9
806.6533	338.7007	61182.7	60413.05
806.7965	340.9008	61414.45	60641.05
806.9397	343.1003	61478.7	60704
807.0829	345.2992	61606.1	60830.05
807.2261	347.4976	61371.6	60598
807.3693	349.6955	61455.05	60672.55
807.5126	351.8927	61305.05	60524.55
807.6559	354.0895	61492.65	60696.45
807.7991	356.2856	61460.5	60672.35
807.9424	358.4812	61659.25	60876.7
808.0857	360.6763	61341.75	60556.4
808.2291	362.8707	61597.2	60809.45
808.3724	365.0646	61449.15	60655.3
808.5158	367.258	61418.25	60626.9
808.6591	369.4508	61240.25	60443.7
808.8025	371.643	61565	60768.05
808.9459	373.8346	61398.35	60601.4
809.0893	376.0257	61410.75	60612.45
809.2327	378.2162	61323.75	60527.75
809.3762	380.4062	61102.7	60306.5
809.5196	382.5956	61282.35	60487.75
809.6631	384.7844	61299.5	60508.7
809.8066	386.9726	61387.85	60595.9
809.9501	389.1603	61434	60642.25
810.0936	391.3474	61151.4	60327.05
810.2371	393.5339	61383.7	60590.7
810.3806	395.7199	61036.2	60248.35
810.5241	397.9052	61128.55	60336.9
810.6677	400.09	61197.8	60404.55
810.8113	402.2743	61348.3	60549.35
810.9548	404.4579	61144.55	60346.55
811.0984	406.641	61130.1	60334.05
811.2421	408.8235	61254.75	60457.5
811.3857	411.0054	61234.75	60433.5
811.5293	413.1868	61267.3	60462.4
811.673	415.3675	61217.7	60407.85
811.8166	417.5477	61254.2	60446
811.9603	419.7273	61213.55	60403.65
812.104	421.9064	61142.9	60323.4
812.2477	424.0848	61187.85	60378.8
812.3914	426.2627	61325.7	60514.55
812.5351	428.4399	61028.55	60214.75
812.6788	430.6166	60859.95	60040.5
812.8226	432.7928	61081.25	60260.2
812.9663	434.9683	60858.3	60039.9
813.1101	437.1432	60871.55	60052.45
813.2539	439.3176	61015.2	60198.35
813.3977	441.4914	60704.5	59893.3
813.5415	443.6645	60763.85	59946.15
813.6853	445.8371	60749.5	59930.75
813.8291	448.0091	60610.05	59790.65
813.973	450.1806	60565.5	59744.1
814.1168	452.3514	60590.35	59769.1
814.2607	454.5216	60464	59635.9
814.4046	456.6913	60515.45	59694.35
814.5485	458.8603	60552.75	59732
814.6924	461.0288	60384	59567.5
814.8363	463.1967	60547.55	59728.65
814.9802	465.3639	60574.85	59754.5
815.1241	467.5306	60226.35	59402.7
815.2681	469.6967	60395.3	59575.3
815.412	471.8622	60473.65	59657.85
815.556	474.0271	60349.35	59526.05
815.7	476.1914	60370.1	59541.85
815.844	478.3551	60396	59572.8
815.988	480.5182	60557.8	59734.2
816.132	482.6807	60351.05	59527.1
816.276	484.8426	60358.85	59541.3
816.4201	487.0039	60568.8	59746.7
816.5641	489.1647	60544.1	59718.8
816.7082	491.3248	60326.05	59499.95
816.8522	493.4843	60595.1	59771.15
816.9963	495.6432	60587.05	59759
817.1404	497.8015	60285.5	59452.05
817.2845	499.9592	60465.4	59629.85
817.4286	502.1163	60424.7	59590.85
817.5727	504.2728	60419.45	59585
817.7168	506.4287	60466.55	59639.6
817.861	508.5839	60280	59452.3
818.0051	510.7386	60347.7	59516.7
818.1493	512.8927	60396.35	59560.4
818.2935	515.0461	60332.3	59497.1
818.4377	517.199	60467.65	59632.45
818.5818	519.3512	60373.25	59537.3
818.726	521.5029	60301.3	59460.2
818.8703	523.6539	60354.05	59518.85
819.0145	525.8043	60153.5	59315.25
819.1587	527.9541	60299.85	59457.75
819.303	530.1033	60281.7	59440.35
819.4472	532.2519	60191.3	59354.05
819.5915	534.3999	60270.75	59428.95
819.7357	536.5472	60387.15	59547.4
819.88	538.694	60118.25	59281.05
820.0243	540.8401	60300.5	59461.2
820.1686	542.9856	60292.15	59446
820.3129	545.1305	60333.25	59484.9
820.4572	547.2748	60209.3	59358.75
820.6016	549.4185	60201.6	59351.7
820.7459	551.5615	60295.2	59443.9
820.8902	553.704	60247.45	59398.35
821.0346	555.8458	60127.45	59284.35
821.1789	557.987	60168.2	59321
821.3233	560.1276	60245.3	59396.35
821.4677	562.2675	60132.15	59283.9
821.6121	564.4069	60175.3	59327.55
821.7565	566.5456	60270.3	59425.7
821.9009	568.6837	60082.6	59234.9
822.0453	570.8212	60109.2	59262.45
822.1897	572.958	59898.4	59050.15
822.3342	575.0942	60056.45	59208.85
822.4786	577.2299	59875.8	59028.95
822.6231	579.3648	59830.5	58986.75
822.7675	581.4992	59731.65	58890.25
822.912	583.6329	59696.55	58858.3
823.0565	585.766	59684.65	58841.6
823.201	587.8985	59744.35	58898.8
823.3454	590.0304	59488.55	58628.5
823.4899	592.1616	59604	58749.65
823.6345	594.2922	59520.85	58667.85
823.779	596.4222	59445.1	58591.3
823.9235	598.5515	59439.55	58581.95
824.068	600.6802	59452.45	58595.95
824.2126	602.8083	59333.35	58476.1
824.3571	604.9358	59301.15	58444.2
824.5017	607.0626	59353.65	58494.6
824.6462	609.1888	59235.8	58375.45
824.7908	611.3144	59338.45	58479.15
824.9354	613.4393	59230.6	58371.2
825.08	615.5636	59170.9	58308.9
825.2246	617.6873	59204.85	58344.8
825.3692	619.8103	59175.25	58315.1
825.5138	621.9327	59155.85	58293.6
825.6584	624.0544	59214.25	58355.1
825.803	626.1756	59138.55	58280.9
825.9477	628.2961	59109.8	58248.4
826.0923	630.4159	58996.85	58134.6
826.237	632.5351	59023.8	58159.9
826.3816	634.6537	59166.75	58303.5
826.5263	636.7716	58959.1	58092.4
826.6709	638.8889	59035.2	58167.6
826.8156	641.0056	59027.75	58161.6
826.9603	643.1216	59022.55	58155.05
827.105	645.237	59081.7	58214.9
827.2497	647.3518	58936.15	58075.65
827.3944	649.4659	59000.1	58139.95
827.5391	651.5793	58972.55	58111.3
827.6838	653.6922	58917.45	58055.05
827.8285	655.8043	58852.4	57988.25
827.9733	657.9159	58972.55	58108.8
828.118	660.0268	58715.6	57851.85
828.2627	662.137	58800.2	57935.45
828.4075	664.2466	58834.8	57967.5
828.5522	666.3556	58780.3	57911
828.697	668.4639	58720.95	57850.8
828.8418	670.5716	58726.8	57864.3
828.9865	672.6786	58739.25	57871.75
829.1313	674.785	58626.1	57754.3
829.2761	676.8907	58613	57743.95
829.4209	678.9958	58629.45	57764.55
829.5657	681.1002	58608.2	57737.95
829.7105	683.204	58513.9	57638.95
829.8553	685.3072	58505.15	57632.2
830.0001	687.4097	58479	57606.7
830.1449	689.5115	58464.7	57590.7
830.2898	691.6127	58487.55	57619.45
830.4346	693.7132	58387	57516.8
830.5794	695.8131	58427.25	57535.9
830.7243	697.9123	58417.85	57546.75
830.8691	700.0109	58426.15	57552.45
831.014	702.1089	58327.25	57453.3
831.1588	704.2061	58346.95	57474.25
831.3037	706.3028	58376.85	57499.75
831.4486	708.3987	58302.7	57428.65
831.5935	710.4941	58248.1	57371.85
831.7383	712.5887	58261.7	57388.75
831.8832	714.6827	58282.25	57405.25
832.0281	716.7761	58305	57432
832.173	718.8688	58308.25	57432
832.3179	720.9608	58236.65	57358.75
832.4628	723.0522	58239.6	57355.75
832.6077	725.1429	58149.4	57267.95
832.7527	727.233	58242.15	57364.3
832.8976	729.3224	58116.35	57240.2
833.0425	731.4112	58094.15	57212
833.1874	733.4993	58050.45	57171.45
833.3324	735.5867	58002.25	57124.55
833.4773	737.6735	57967.9	57088.5
833.6222	739.7596	57899.75	57017.9
833.7672	741.845	57839.85	56959.7
833.9122	743.9298	57834.5	56953.3
834.0571	746.014	57798.05	56919.6
834.2021	748.0974	57754.2	56871.95
834.347	750.1802	57766.85	56885.2
834.492	752.2624	57637.8	56756.5
834.637	754.3439	57599.35	56715.7
834.782	756.4247	57550.25	56658.45
834.9269	758.5048	57440.9	56558.6
835.0719	760.5843	57478.05	56591.85
835.2169	762.6631	57458.45	56577.2
835.3619	764.7413	57450.25	56569.5
835.5069	766.8188	57474.15	56590.75
835.6519	768.8956	57413.8	56528.4
835.7969	770.9718	57410.35	56528.8
835.9419	773.0473	57354.25	56468.8
836.0869	775.1221	57289.65	56406.4
836.232	777.1962	57192.75	56310.35
836.377	779.2697	57091.4	56208.1
836.522	781.3426	57132.45	56227.3
836.667	783.4147	57089.95	56206.75
836.8121	785.4862	57048.95	56167.6
836.9571	787.557	56943.45	56057.35
837.1021	789.6271	56994.15	56108.95
837.2472	791.6966	56920.3	56034.05
837.3922	793.7654	56802.4	55916.4
837.5373	795.8335	56782.25	55899.6
837.6823	797.901	56745.6	55861.6
837.8274	799.9678	56721.25	55832.2
837.9724	802.0339	56656.9	55772
838.1175	804.0993	56674.05	55773.25
838.2626	806.1641	56549.25	55659.5
838.4076	808.2282	56501.85	55613.15
838.5527	810.2916	56480.85	55590.65
838.6978	812.3544	56499.1	55614.5
838.8428	814.4164	56398.55	55512.35
838.9879	816.4778	56425.7	55535.7
839.133	818.5385	56345.25	55458.9
839.2781	820.5986	56349.95	55459.15
839.4232	822.658	56351.3	55462.3
839.5682	824.7166	56310.05	55424.65
839.7133	826.7747	56295.85	55409.4
839.8584	828.832	56302.45	55412.1
840.0035	830.8886	56235.55	55343.25
840.1486	832.9446	56250.2	55359.65
840.2937	834.9999	56084.1	55194.35
840.4388	837.0545	56120.55	55225.5
840.5839	839.1085	56131.25	55239.05
840.729	841.1618	56067.2	55171.65
840.8741	843.2143	55875.35	54985.75
841.0192	845.2662	55838.65	54949.65
841.1643	847.3175	55888.35	54998.3
841.3095	849.368	55666.85	54777.55
841.4546	851.4179	55820.2	54928.15
841.5997	853.467	55610.4	54720.85
841.7448	855.5155	55699.1	54806.65
841.8899	857.5633	55527.7	54634.4
842.0351	859.6105	55426.9	54536.3
842.1802	861.6569	55476.7	54586.25
842.3253	863.7027	55317.25	54424.25
842.4704	865.7478	55385.4	54489.7
842.6156	867.7922	55302.95	54411.65
842.7607	869.8359	55345.45	54450.85
842.9058	871.8789	55147.85	54254.95
843.0509	873.9212	55253.7	54329.35
843.1961	875.9629	55186	54290.7
843.3412	878.0039	55142	54247.45
843.4863	880.0441	55042	54149.2
843.6315	882.0837	55058.1	54163.8
843.7766	884.1226	55052.75	54156
843.9218	886.1609	55036.6	54142.7
844.0669	888.1984	54971.25	54077.85
844.212	890.2352	55095.45	54201.55
844.3572	892.2714	54900.85	54003.15
844.5023	894.3069	54997.55	54103.35
844.6475	896.3416	54835.45	53939.6
844.7926	898.3757	54803.9	53909.5
844.9377	900.4091	54621.8	53725.85
845.0829	902.4418	54789.6	53889.7
845.228	904.4739	54616.35	53718.4
845.3732	906.5052	54613.15	53717.75
845.5183	908.5358	54525.95	53627.9
845.6635	910.5658	54456.25	53559.55
845.8086	912.595	54443.95	53546.35
845.9538	914.6236	54222.25	53325.1
846.0989	916.6515	54452.65	53556.3
846.2441	918.6786	54196.9	53299.4
846.3892	920.7051	54191.9	53293.25
846.5344	922.7309	54157.8	53261.05
846.6795	924.756	54157	53259.85
846.8246	926.7804	54028.9	53130.25
846.9698	928.8041	53839.8	52941.85
847.1149	930.8272	53930.65	53032.45
847.2601	932.8495	53836.25	52937.7
847.4052	934.8711	53747.25	52849.15
847.5504	936.892	53592.45	52695.3
847.6955	938.9123	53621.8	52723.05
847.8407	940.9318	53508.8	52611.55
847.9858	942.9506	53443.55	52544.5
848.131	944.9688	53402.15	52504.5
848.2761	946.9862	53248.4	52349.9
848.4213	949.003	53191.9	52291.5
848.5664	951.019	53008.1	52110.5
848.7115	953.0344	53023.6	52122.45
848.8567	955.0491	52992.95	52096.1
849.0018	957.063	53042.2	52145.35
849.147	959.0763	53048.6	52150.5
849.2921	961.0888	52918.6	52018.3
849.4373	963.1007	52966.4	52068.35
849.5824	965.1119	52924.2	52028.4
849.7275	967.1223	52809.05	51917.5
849.8727	969.1321	52872.6	51979.3
850.0178	971.1412	52724.25	51829.85
850.1629	973.1495	52621.7	51725.15
850.3081	975.1572	52638.7	51704.1
850.4532	977.1641	52624.3	51723.9
850.5983	979.1704	52519.9	51621.3
850.7435	981.1759	52486.7	51586.65
850.8886	983.1808	52417.2	51516.45
851.0337	985.1849	52399.6	51489.25
851.1788	987.1884	52366.5	51464.4
851.324	989.1911	52367.7	51467.75
851.4691	991.1932	52248.7	51347.75
851.6142	993.1945	52167.6	51267.75
851.7593	995.1951	52085.3	51186.3
851.9045	997.1951	52019.6	51115.4
852.0496	999.1943	51940.95	51040.95
852.1947	1001.1928	51826.6	50926.75
852.3398	1003.1906	51769.85	50870.95
852.4849	1005.1877	51653.2	50751
852.63	1007.1841	51582.75	50682.85
852.7751	1009.1798	51537.85	50639.55
852.9202	1011.1748	51458.65	50559.7
853.0653	1013.1691	51416.7	50518.4
853.2104	1015.1627	51103	50200.9
853.3555	1017.1556	51090.25	50192.15
853.5006	1019.1477	51082.3	50183.1
853.6457	1021.1392	50906.65	50012.2
853.7908	1023.1299	50654.35	49760
853.9359	1025.12	50725.4	49829.45
854.081	1027.1093	50563.55	49674.45
854.2261	1029.0979	50517.75	49629.8
854.3712	1031.0859	50416.1	49525.5
854.5163	1033.0731	50247.95	49352.75
854.6613	1035.0596	50257.1	49358.7
854.8064	1037.0454	50110.9	49210.8
854.9515	1039.0304	49997.85	49099.45
855.0965	1041.0148	49722.15	48822.45
855.2416	1042.9985	49767.6	48867.45
855.3867	1044.9814	49888.55	48991.5
855.5317	1046.9636	49606.45	48706.5
855.6768	1048.9452	49558.25	48658.75
855.8219	1050.926	49492.1	48594.3
855.9669	1052.9061	49467.05	48568.3
856.112	1054.8855	49436.55	48537.05
856.257	1056.8642	49301.75	48400.9
856.4021	1058.8421	49155.45	48251
856.5471	1060.8194	49134.35	48231.4
856.6921	1062.7959	49005.5	48105.15
856.8372	1064.7717	49127.55	48225.3
856.9822	1066.7469	49081.7	48181.2
857.1272	1068.7213	49042.1	48141.35
857.2723	1070.695	48916.9	48016.5
857.4173	1072.6679	48702.4	47802.8
857.5623	1074.6402	48833.15	47930.9
857.7073	1076.6117	48665.55	47760.55
857.8523	1078.5826	48673.7	47769.4
857.9973	1080.5527	48639.85	47738.95
858.1423	1082.5221	48439.25	47535.85
858.2873	1084.4908	48439.85	47537.6
858.4323	1086.4587	48329.65	47428.05
858.5773	1088.426	48305.9	47404.35
858.7223	1090.3925	48241.35	47336.75
858.8673	1092.3584	48223.1	47323.25
859.0123	1094.3235	48000.6	47104.3
859.1573	1096.2879	47992.95	47092.75
859.3022	1098.2515	48059.25	47156.9
859.4472	1100.2145	47947.15	47042.5
859.5922	1102.1767	47811.45	46907.9
859.7371	1104.1382	47854	46952.7
859.8821	1106.099	47758.8	46855.9
860.027	1108.0591	47692.25	46788.7
860.172	1110.0185	47448.05	46544.35
860.3169	1111.9771	47715.2	46815
860.4619	1113.9351	47518.25	46616.1
860.6068	1115.8923	47339.9	46439.8
860.7517	1117.8488	47166.35	46266.2
860.8967	1119.8045	46967	46065.8
861.0416	1121.7596	47077.5	46177.95
861.1865	1123.7139	46939.85	46039.6
861.3314	1125.6675	46874.75	45975
861.4763	1127.6204	46814.25	45912.85
861.6212	1129.5726	46613.8	45714.4
861.7661	1131.524	46711.35	45811.8
861.911	1133.4748	46677.55	45776.5
862.0559	1135.4248	46493.65	45590.45
862.2008	1137.3741	46445.9	45544.7
862.3457	1139.3226	46356.15	45452.75
862.4905	1141.2705	46350.1	45449.8
862.6354	1143.2176	46206.2	45299.55
862.7803	1145.164	46005.95	45103.5
862.9251	1147.1097	46066.15	45165.6
863.07	1149.0546	46031.15	45127.8
863.2148	1150.9989	46056.4	45153.9
863.3597	1152.9424	45820.75	44919.2
863.5045	1154.8852	45927.6	45022.55
863.6493	1156.8272	45729	44828.65
863.7942	1158.7686	45911.6	45006.2
863.939	1160.7092	45549.4	44650
864.0838	1162.6491	45552.05	44649
864.2286	1164.5883	45607.5	44706.05
864.3734	1166.5267	45413.95	44512.4
864.5182	1168.4644	45525.45	44625.15
864.663	1170.4014	45460.15	44555.6
864.8078	1172.3377	45532.85	44632
864.9526	1174.2732	45614.05	44713.55
865.0974	1176.2081	45556.25	44657.4
865.2421	1178.1421	45420.8	44515.05
865.3869	1180.0755	45634.3	44733.25
865.5317	1182.0082	45475.5	44573.35
