Software Version:	3.9.2.0
Unit SN:	10000200
Spectrometer SN:	6960
Date:	3/6/2024 10:09:37 AM
Data Line Index:	25
Spectral Points:	2048
Integration time (ms):	125
Averages:	20
Delay (ms):	30
Sequence Number:	1
Processing:	dark subtract
Laser Power (mW):	305
Laser Current (mA):	825
Laser Diode Temp (C):	25.1
Laser Case Temp (C):	24.9
System Temp (C):	24.7
Spectrometer Temp (C):	22.3
CCD Temp (C):	-0.005
Secondary Temp (C):	20.011
Heatsink Temp (C):	18.641
CCDPCB Temp (C):	32.205
SecondaryPCB Temp (C):	25.936

Wavelength	RamanShift	Raw Counts	Dark Subtracted
787.061	30.1047	908.15	501.15
787.2016	32.3739	922.95	517.95
787.3422	34.6426	958.35	551.7
787.4828	36.9109	984.8	576.75
787.6235	39.1787	1025.45	612.9
787.7642	41.4461	1072.1	654.5
787.9049	43.7131	1115.7	694.4
788.0456	45.9796	1161.3	737.7
788.1863	48.2456	1206.25	778.65
788.3271	50.5112	1259.2	829.6
788.4679	52.7764	1303.25	866.7
788.6087	55.0411	1362.05	923.65
788.7496	57.3054	1416.9	972.25
788.8904	59.5692	1479.75	1031.75
789.0313	61.8326	1548.55	1100.55
789.1722	64.0955	1616.05	1163.2
789.3132	66.3579	1705.1	1248
789.4541	68.6199	1837.2	1376
789.5951	70.8815	2007.35	1542.3
789.7361	73.1426	2418.45	1950.1
789.8771	75.4032	3469.3	2998.7
790.0181	77.6634	6170.9	5694.1
790.1592	79.9231	13015.25	12532.45
790.3003	82.1824	37067.05	36572.45
790.4414	84.4412	61495.25	60978.1
790.5825	86.6995	65193.95	64654.55
790.7237	88.9574	65535	64969.35
790.8648	91.2148	65535	64952.75
791.006	93.4717	65535	64944.05
791.1472	95.7282	65535	64938.95
791.2885	97.9842	65535	64935.75
791.4297	100.2398	65535	64929.35
791.571	102.4949	65535	64927.35
791.7123	104.7495	65535	64923.2
791.8536	107.0036	65535	64921.7
791.9949	109.2573	65535	64928.7
792.1363	111.5105	65535	64925.5
792.2777	113.7632	65535	64923.9
792.4191	116.0154	65535	64910.5
792.5605	118.2672	65535	64919.55
792.7019	120.5185	65535	64911
792.8434	122.7693	65535	64909.65
792.9849	125.0197	65535	64905.5
793.1264	127.2696	65535	64903.65
793.2679	129.519	65535	64900.9
793.4094	131.7679	65535	64896.9
793.551	134.0163	65535	64893.95
793.6926	136.2642	65535	64890.4
793.8342	138.5117	65535	64888.85
793.9758	140.7587	65535	64885.85
794.1175	143.0052	65535	64884.3
794.2591	145.2512	65535	64883.1
794.4008	147.4967	65535	64882.95
794.5425	149.7417	65535	64877.2
794.6842	151.9863	65535	64876.1
794.826	154.2304	65535	64871.4
794.9677	156.4739	65535	64864.8
795.1095	158.717	65535	64864.6
795.2513	160.9596	65535	64862.1
795.3931	163.2017	65535	64856.75
795.535	165.4433	65535	64853.2
795.6768	167.6844	65535	64854.25
795.8187	169.925	65535	64852.35
795.9606	172.1651	65535	64853.65
796.1025	174.4047	65535	64847.05
796.2445	176.6439	65535	64844
796.3864	178.8825	65535	64839.55
796.5284	181.1206	65535	64836.2
796.6704	183.3582	65535	64832.3
796.8124	185.5954	65535	64832.1
796.9544	187.832	65535	64829.35
797.0965	190.0681	65535	64823.5
797.2386	192.3037	65535	64822.65
797.3806	194.5388	65535	64817.75
797.5228	196.7734	65535	64816.75
797.6649	199.0075	65535	64813.35
797.807	201.2411	65535	64811.45
797.9492	203.4742	65535	64810.1
798.0914	205.7068	65535	64807.15
798.2336	207.9389	65535	64808.85
798.3758	210.1704	65535	64812.1
798.518	212.4015	65535	64824.6
798.6603	214.632	65535	64828.65
798.8025	216.862	65535	64829.1
798.9448	219.0915	65535	64828.75
799.0871	221.3205	65535	64826.3
799.2294	223.549	65535	64824
799.3718	225.777	65535	64830
799.5141	228.0044	65535	64821.4
799.6565	230.2314	65535	64817.5
799.7989	232.4578	65535	64816.2
799.9413	234.6837	65535	64805.6
800.0837	236.909	65535	64806.05
800.2262	239.1339	65535	64778.6
800.3687	241.3582	65535	64795.85
800.5111	243.582	65535	64761.1
800.6536	245.8053	65535	64780
800.7961	248.0281	65535	64783.15
800.9387	250.2503	65535	64778.6
801.0812	252.472	65535	64778.3
801.2238	254.6932	65535	64778.05
801.3664	256.9139	65535	64776.25
801.509	259.134	65535	64770.5
801.6516	261.3536	65535	64777
801.7942	263.5727	65535	64771.6
801.9369	265.7912	65535	64771.25
802.0795	268.0092	65535	64773.95
802.2222	270.2267	65535	64770.3
802.3649	272.4436	65535	64769.7
802.5076	274.6601	65535	64759.7
802.6504	276.8759	65535	64764.85
802.7931	279.0913	65535	64767.3
802.9359	281.3061	65535	64764.3
803.0787	283.5204	65535	64759.15
803.2215	285.7341	65535	64756.4
803.3643	287.9473	65535	64747
803.5071	290.16	65535	64752
803.6499	292.3721	65535	64757.85
803.7928	294.5837	65535	64759.8
803.9357	296.7947	65535	64758.15
804.0786	299.0052	65535	64754.85
804.2215	301.2152	65535	64751.35
804.3644	303.4246	65535	64754.7
804.5074	305.6334	65535	64757.65
804.6503	307.8418	65535	64751.75
804.7933	310.0495	65535	64749.3
804.9363	312.2568	65535	64747.9
805.0793	314.4635	65535	64745.55
805.2223	316.6696	65535	64745.15
805.3653	318.8752	65535	64736.1
805.5084	321.0802	65535	64742.4
805.6514	323.2847	65535	64739.5
805.7945	325.4887	65535	64739.45
805.9376	327.692	65535	64738.9
806.0807	329.8949	65535	64739
806.2238	332.0972	65535	64736.45
806.367	334.2989	65535	64733.7
806.5101	336.5001	65535	64735.55
806.6533	338.7007	65535	64730.65
806.7965	340.9008	65535	64732.35
806.9397	343.1003	65535	64727.45
807.0829	345.2992	65535	64728.65
807.2261	347.4976	65535	64728.7
807.3693	349.6955	65535	64722.9
807.5126	351.8927	65535	64723.35
807.6559	354.0895	65535	64710.75
807.7991	356.2856	65535	64720.1
807.9424	358.4812	65535	64718.35
808.0857	360.6763	65535	64721.05
808.2291	362.8707	65535	64718.3
808.3724	365.0646	65535	64709.55
808.5158	367.258	65535	64714.55
808.6591	369.4508	65535	64709.8
808.8025	371.643	65535	64711.2
808.9459	373.8346	65535	64704.85
809.0893	376.0257	65535	64703.8
809.2327	378.2162	65535	64705.3
809.3762	380.4062	65535	64705.1
809.5196	382.5956	65535	64710.6
809.6631	384.7844	65535	64714.7
809.8066	386.9726	65535	64718.65
809.9501	389.1603	65535	64717.85
810.0936	391.3474	65535	64671.95
810.2371	393.5339	65535	64714.45
810.3806	395.7199	65535	64711.5
810.5241	397.9052	65535	64715.95
810.6677	400.09	65535	64711.75
810.8113	402.2743	65535	64714.2
810.9548	404.4579	65535	64710.95
811.0984	406.641	65535	64707.4
811.2421	408.8235	65535	64712.3
811.3857	411.0054	65535	64706.25
811.5293	413.1868	65535	64700.65
811.673	415.3675	65535	64697.85
811.8166	417.5477	65535	64697
811.9603	419.7273	65535	64697.05
812.104	421.9064	65535	64689
812.2477	424.0848	65535	64695.1
812.3914	426.2627	65535	64696.05
812.5351	428.4399	65535	64694.65
812.6788	430.6166	65535	64689.6
812.8226	432.7928	65535	64692.35
812.9663	434.9683	65535	64691.9
813.1101	437.1432	65535	64689.8
813.2539	439.3176	65535	64697.85
813.3977	441.4914	65535	64693.85
813.5415	443.6645	65535	64694.4
813.6853	445.8371	65535	64690.15
813.8291	448.0091	65535	64690.1
813.973	450.1806	65535	64691.2
814.1168	452.3514	65535	64690.75
814.2607	454.5216	65535	64678.85
814.4046	456.6913	65535	64687.3
814.5485	458.8603	65535	64690.45
814.6924	461.0288	65535	64692.35
814.8363	463.1967	65535	64695.7
814.9802	465.3639	65535	64692.2
815.1241	467.5306	65535	64688.2
815.2681	469.6967	65535	64688.55
815.412	471.8622	65535	64693.95
815.556	474.0271	65535	64691.95
815.7	476.1914	65535	64685.75
815.844	478.3551	65535	64688.85
815.988	480.5182	65535	64688.05
816.132	482.6807	65535	64691
816.276	484.8426	65535	64693.35
816.4201	487.0039	65535	64689.75
816.5641	489.1647	65535	64686
816.7082	491.3248	65535	64685.35
816.8522	493.4843	65535	64684.9
816.9963	495.6432	65535	64685.45
817.1404	497.8015	65535	64675.1
817.2845	499.9592	65535	64676.45
817.4286	502.1163	65535	64680.8
817.5727	504.2728	65535	64678.65
817.7168	506.4287	65535	64683.4
817.861	508.5839	65535	64683.7
818.0051	510.7386	65535	64682.45
818.1493	512.8927	65535	64675
818.2935	515.0461	65535	64677.1
818.4377	517.199	65535	64673.65
818.5818	519.3512	65535	64673.75
818.726	521.5029	65535	64671.75
818.8703	523.6539	65535	64673.45
819.0145	525.8043	65535	64669.8
819.1587	527.9541	65535	64668.55
819.303	530.1033	65535	64668.55
819.4472	532.2519	65535	64673.1
819.5915	534.3999	65535	64667.35
819.7357	536.5472	65535	64667.4
819.88	538.694	65535	64673.4
820.0243	540.8401	65535	64664.7
820.1686	542.9856	65535	64666.1
820.3129	545.1305	65535	64660.75
820.4572	547.2748	65535	64659.5
820.6016	549.4185	65535	64660.05
820.7459	551.5615	65535	64659.3
820.8902	553.704	65535	64661.75
821.0346	555.8458	65535	64663.75
821.1789	557.987	65535	64662.7
821.3233	560.1276	65535	64663.3
821.4677	562.2675	65535	64662.15
821.6121	564.4069	65535	64663.15
821.7565	566.5456	65535	64665.55
821.9009	568.6837	65535	64664.15
822.0453	570.8212	65535	64665.35
822.1897	572.958	65535	64662.7
822.3342	575.0942	65535	64666.85
822.4786	577.2299	65535	64667.75
822.6231	579.3648	65535	64673.85
822.7675	581.4992	65535	64678.85
822.912	583.6329	65535	64676.2
823.0565	585.766	65535	64671.95
823.201	587.8985	65535	64668.45
823.3454	590.0304	65535	64637.85
823.4899	592.1616	65535	64658.5
823.6345	594.2922	65535	64660.3
823.779	596.4222	65535	64656.35
823.9235	598.5515	65535	64654.5
824.068	600.6802	65535	64653.95
824.2126	602.8083	65535	64658.15
824.3571	604.9358	65535	64654.65
824.5017	607.0626	65535	64653.35
824.6462	609.1888	65535	64653.1
824.7908	611.3144	65535	64651.65
824.9354	613.4393	65535	64651.8
825.08	615.5636	65535	64653.5
825.2246	617.6873	65535	64655.25
825.3692	619.8103	65535	64652.55
825.5138	621.9327	65535	64648.2
825.6584	624.0544	65535	64656.95
825.803	626.1756	65535	64657.1
825.9477	628.2961	65535	64652
826.0923	630.4159	65535	64653.1
826.237	632.5351	65535	64648.1
826.3816	634.6537	65535	64649.4
826.5263	636.7716	65535	64645.7
826.6709	638.8889	65535	64647.3
826.8156	641.0056	65535	64645.6
826.9603	643.1216	65535	64646.35
827.105	645.237	65535	64645.4
827.2497	647.3518	65535	64647.9
827.3944	649.4659	65535	64655.5
827.5391	651.5793	65535	64654.65
827.6838	653.6922	65535	64652.85
827.8285	655.8043	65535	64652.15
827.9733	657.9159	65535	64649.45
828.118	660.0268	65535	64647.05
828.2627	662.137	65535	64648.95
828.4075	664.2466	65535	64645.35
828.5522	666.3556	65535	64645.85
828.697	668.4639	65535	64645.75
828.8418	670.5716	65535	64651.1
828.9865	672.6786	65535	64644.35
829.1313	674.785	65535	64638.05
829.2761	676.8907	65535	64642.6
829.4209	678.9958	65535	64649.05
829.5657	681.1002	65535	64645.3
829.7105	683.204	65535	64639.35
829.8553	685.3072	65535	64641.75
830.0001	687.4097	65535	64644.15
830.1449	689.5115	65535	64640.7
830.2898	691.6127	65535	64642.7
830.4346	693.7132	65535	64643.05
830.5794	695.8131	65535	64618.6
830.7243	697.9123	65535	64638.85
830.8691	700.0109	65535	64638.55
831.014	702.1089	65535	64640.55
831.1588	704.2061	65535	64642.65
831.3037	706.3028	65535	64639
831.4486	708.3987	65535	64637.45
831.5935	710.4941	65535	64641.65
831.7383	712.5887	65535	64640.1
831.8832	714.6827	65535	64635.1
832.0281	716.7761	65535	64644.7
832.173	718.8688	65535	64639.5
832.3179	720.9608	65535	64635.3
832.4628	723.0522	65535	64630.7
832.6077	725.1429	65535	64634
832.7527	727.233	65535	64636.75
832.8976	729.3224	65535	64637.9
833.0425	731.4112	65535	64637.8
833.1874	733.4993	65535	64635
833.3324	735.5867	65535	64636.6
833.4773	737.6735	65535	64634.35
833.6222	739.7596	65535	64633.15
833.7672	741.845	65535	64636.55
833.9122	743.9298	65535	64633.15
834.0571	746.014	65535	64633.65
834.2021	748.0974	65535	64633.4
834.347	750.1802	65535	64625.35
834.492	752.2624	65535	64631.25
834.637	754.3439	65535	64629.85
834.782	756.4247	65535	64627.75
834.9269	758.5048	65535	64629
835.0719	760.5843	65535	64629.65
835.2169	762.6631	65535	64631.15
835.3619	764.7413	65535	64629.55
835.5069	766.8188	65535	64630.2
835.6519	768.8956	65535	64630.05
835.7969	770.9718	65535	64630.95
835.9419	773.0473	65535	64634.7
836.0869	775.1221	65535	64632.1
836.232	777.1962	65535	64632.85
836.377	779.2697	65535	64630.35
836.522	781.3426	65535	64610.8
836.667	783.4147	65535	64628.1
836.8121	785.4862	65535	64631.05
836.9571	787.557	65535	64629.55
837.1021	789.6271	65535	64627.35
837.2472	791.6966	65535	64630.9
837.3922	793.7654	65535	64628
837.5373	795.8335	65535	64627.75
837.6823	797.901	65535	64628.45
837.8274	799.9678	65535	64623.8
837.9724	802.0339	65535	64629.1
838.1175	804.0993	65535	64620.85
838.2626	806.1641	65535	64626.2
838.4076	808.2282	65535	64628.1
838.5527	810.2916	65535	64625.95
838.6978	812.3544	65535	64628.35
838.8428	814.4164	65535	64627.75
838.9879	816.4778	65535	64626.15
839.133	818.5385	65535	64625.55
839.2781	820.5986	65535	64625.6
839.4232	822.658	65535	64621
839.5682	824.7166	65535	64630.1
839.7133	826.7747	65535	64626.85
839.8584	828.832	65535	64623.75
840.0035	830.8886	65535	64625
840.1486	832.9446	65535	64625.35
840.2937	834.9999	65535	64625.05
840.4388	837.0545	65535	64623.35
840.5839	839.1085	65535	64623.85
840.729	841.1618	65535	64621.7
840.8741	843.2143	65535	64626
841.0192	845.2662	65535	64624.4
841.1643	847.3175	65535	64625.05
841.3095	849.368	65535	64625.4
841.4546	851.4179	65535	64622.95
841.5997	853.467	65535	64624.35
841.7448	855.5155	65535	64622.1
841.8899	857.5633	65535	64625.05
842.0351	859.6105	65535	64625.7
842.1802	861.6569	65535	64621.5
842.3253	863.7027	65535	64621.85
842.4704	865.7478	65535	64620.8
842.6156	867.7922	65535	64621.4
842.7607	869.8359	65535	64619.7
842.9058	871.8789	65535	64621.25
843.0509	873.9212	65535	64590
843.1961	875.9629	65535	64621.55
843.3412	878.0039	65535	64619.6
843.4863	880.0441	65535	64624.1
843.6315	882.0837	65535	64620.8
843.7766	884.1226	65535	64622.7
843.9218	886.1609	65535	64622.05
844.0669	888.1984	65535	64623.4
844.212	890.2352	65535	64621.45
844.3572	892.2714	65535	64619.45
844.5023	894.3069	65535	64619.1
844.6475	896.3416	65535	64619.1
844.7926	898.3757	65535	64623.6
844.9377	900.4091	65535	64621.2
845.0829	902.4418	65535	64612.5
845.228	904.4739	65535	64618.1
845.3732	906.5052	65535	64617.25
845.5183	908.5358	65535	64622.6
845.6635	910.5658	65535	64616.55
845.8086	912.595	65535	64619
845.9538	914.6236	65535	64621.1
846.0989	916.6515	65535	64620.75
846.2441	918.6786	65535	64622.95
846.3892	920.7051	65535	64618.25
846.5344	922.7309	65535	64618.6
846.6795	924.756	65535	64621.15
846.8246	926.7804	65535	64618.9
846.9698	928.8041	65535	64619.35
847.1149	930.8272	65535	64620.45
847.2601	932.8495	65535	64617.45
847.4052	934.8711	65535	64620.95
847.5504	936.892	65535	64620
847.6955	938.9123	65535	64618
847.8407	940.9318	65535	64618.85
847.9858	942.9506	65535	64617.05
848.131	944.9688	65535	64618.95
848.2761	946.9862	65535	64617.9
848.4213	949.003	65535	64617.8
848.5664	951.019	65535	64618.4
848.7115	953.0344	65535	64617.4
848.8567	955.0491	65535	64616.6
849.0018	957.063	65535	64615.9
849.147	959.0763	65535	64618.6
849.2921	961.0888	65535	64618.45
849.4373	963.1007	65535	64618.85
849.5824	965.1119	65535	64622.1
849.7275	967.1223	65535	64622.6
849.8727	969.1321	65535	64627.05
850.0178	971.1412	65535	64625.7
850.1629	973.1495	65535	64620.15
850.3081	975.1572	65535	64578.65
850.4532	977.1641	65535	64619.3
850.5983	979.1704	65535	64615.75
850.7435	981.1759	65535	64617.85
850.8886	983.1808	65535	64616.15
851.0337	985.1849	65535	64608.6
851.1788	987.1884	65535	64612.95
851.324	989.1911	65535	64614
851.4691	991.1932	65535	64618.45
851.6142	993.1945	65535	64617
851.7593	995.1951	65535	64619.1
851.9045	997.1951	65535	64614.35
852.0496	999.1943	65535	64620.05
852.1947	1001.1928	65535	64619.15
852.3398	1003.1906	65535	64618.65
852.4849	1005.1877	65535	64615.25
852.63	1007.1841	65535	64619.5
852.7751	1009.1798	65535	64615.6
852.9202	1011.1748	65535	64619.85
853.0653	1013.1691	65535	64617.8
853.2104	1015.1627	65482.4	64563.05
853.3555	1017.1556	65531.85	64619.3
853.5006	1019.1477	65531.7	64614.9
853.6457	1021.1392	65521.15	64609.3
853.7908	1023.1299	65462.15	64551.1
853.9359	1025.12	65515.6	64604.05
854.081	1027.1093	65489.9	64583.6
854.2261	1029.0979	65492.5	64590.7
854.3712	1031.0859	65486.5	64582.6
854.5163	1033.0731	65426.8	64515.9
854.6613	1035.0596	65460.5	64547.8
854.8064	1037.0454	65448.45	64533.95
854.9515	1039.0304	65418.4	64503.65
855.0965	1041.0148	65354.45	64441.45
855.2416	1042.9985	65374.85	64456.95
855.3867	1044.9814	65442.05	64526.85
855.5317	1046.9636	65364.05	64447.75
855.6768	1048.9452	65376.5	64459.9
855.8219	1050.926	65370.5	64455.6
855.9669	1052.9061	65361.35	64447.35
856.112	1054.8855	65366.2	64448.45
856.257	1056.8642	65347.5	64432.25
856.4021	1058.8421	65313.65	64393.35
856.5471	1060.8194	65325.6	64408.45
856.6921	1062.7959	65291.1	64374.35
856.8372	1064.7717	65332.1	64414.35
856.9822	1066.7469	65310	64393.5
857.1272	1068.7213	65318.1	64396.75
857.2723	1070.695	65291.05	64375.05
857.4173	1072.6679	65263.55	64351.2
857.5623	1074.6402	65290.85	64375.25
857.7073	1076.6117	65254.95	64335.2
857.8523	1078.5826	65255.35	64339.05
857.9973	1080.5527	65258.5	64338.25
858.1423	1082.5221	65228.3	64314.75
858.2873	1084.4908	65246.45	64330.55
858.4323	1086.4587	65235.25	64315.7
858.5773	1088.426	65232.25	64314.8
858.7223	1090.3925	65228.8	64309.2
858.8673	1092.3584	65217.85	64303.3
859.0123	1094.3235	65193.2	64278.95
859.1573	1096.2879	65184.6	64268.1
859.3022	1098.2515	65198.45	64283.95
859.4472	1100.2145	65178.9	64265.05
859.5922	1102.1767	65169.15	64249.5
859.7371	1104.1382	65183.55	64271.35
859.8821	1106.099	65166	64248.45
860.027	1108.0591	65153.15	64238.45
860.172	1110.0185	65111.05	64191.75
860.3169	1111.9771	65159.2	64243
860.4619	1113.9351	65137.55	64220.5
860.6068	1115.8923	65126.15	64210.95
860.7517	1117.8488	65109.6	64192.75
860.8967	1119.8045	65074.7	64161.6
861.0416	1121.7596	65104.6	64188.9
861.1865	1123.7139	65072.45	64155
861.3314	1125.6675	65069.7	64152.15
861.4763	1127.6204	65065.8	64151.35
861.6212	1129.5726	65037.65	64118.9
861.7661	1131.524	65056.8	64142.3
861.911	1133.4748	65051.1	64136.65
862.0559	1135.4248	65034.9	64118
862.2008	1137.3741	65024.9	64111.9
862.3457	1139.3226	65019.65	64103.75
862.4905	1141.2705	65024.4	64109.25
862.6354	1143.2176	65014.95	64093.5
862.7803	1145.164	64994.95	64078.15
862.9251	1147.1097	65004.55	64088.85
863.07	1149.0546	64997.1	64079.75
863.2148	1150.9989	64991.3	64076.55
863.3597	1152.9424	64972.85	64058.8
863.5045	1154.8852	64980.65	64064.1
863.6493	1156.8272	64964.35	64048.65
863.7942	1158.7686	64980.6	64059.5
863.939	1160.7092	64941.6	64023.85
864.0838	1162.6491	64945.3	64028.8
864.2286	1164.5883	64963.25	64046.95
864.3734	1166.5267	64938.8	64022.8
864.5182	1168.4644	64936.3	64020.25
864.663	1170.4014	64932.2	64016.35
864.8078	1172.3377	64932.05	64017.25
864.9526	1174.2732	64943.35	64029.25
865.0974	1176.2081	64914	63996.5
865.2421	1178.1421	64918.35	63998.85
865.3869	1180.0755	64940.05	64027.05
865.5317	1182.0082	64920.7	64006.4
865.6764	1183.9401	64928.6	64012.6
865.8212	1185.8713	64901.2	63989.85
865.9659	1187.8017	64897.3	63988
866.1106	1189.7315	64901.75	63996.1
866.2554	1191.6605	64877.05	63945.1
866.4001	1193.5888	64862.3	63951.7
866.5448	1195.5163	64831.9	63922.4
866.6895	1197.4432	64835.1	63922.35
866.8342	1199.3693	64815.5	63900.65
866.9789	1201.2947	64783.15	63866.15
867.1236	1203.2193	64806.45	63892.1
867.2683	1205.1432	64734.1	63819.3
867.413	1207.0664	64750.9	63837.25
867.5576	1208.9889	64743.55	63824.05
867.7023	1210.9106	64721.15	63809.55
867.847	1212.8316	64688.05	63774.95
867.9916	1214.7519	64678.95	63755.55
868.1363	1216.6715	64648.8	63735.6
868.2809	1218.5903	64631.05	63717.25
868.4255	1220.5084	64618.9	63704.75
868.5701	1222.4257	64625.15	63709.25
868.7148	1224.3424	64607.1	63695.4
868.8594	1226.2583	64531.5	63611.95
869.004	1228.1735	64600.95	63685.05
869.1486	1230.0879	64478	63561.95
869.2932	1232.0016	64580.3	63667.1
869.4377	1233.9146	64476.25	63563.75
