Software Version:	3.9.2.0
Unit SN:	10000200
Spectrometer SN:	6960
Date:	3/6/2024 9:26:25 AM
Data Line Index:	25
Spectral Points:	2048
Integration time (ms):	125
Averages:	20
Delay (ms):	30
Sequence Number:	1
Processing:	dark subtract
Laser Power (mW):	305
Laser Current (mA):	819
Laser Diode Temp (C):	25
Laser Case Temp (C):	22.9
System Temp (C):	22.7
Spectrometer Temp (C):	20.7
CCD Temp (C):	-0.044
Secondary Temp (C):	20.008
Heatsink Temp (C):	17.513
CCDPCB Temp (C):	29.471
SecondaryPCB Temp (C):	25.058

Wavelength	RamanShift	Raw Counts	Dark Subtracted
787.061	30.1047	593.85	185.15
787.2016	32.3739	600.15	192.75
787.3422	34.6426	612.9	206.05
787.4828	36.9109	621.95	213.1
787.6235	39.1787	644.15	232.85
787.7642	41.4461	658.95	241.35
787.9049	43.7131	677.75	258.9
788.0456	45.9796	693.35	272.2
788.1863	48.2456	713.35	288.65
788.3271	50.5112	730.55	300.05
788.4679	52.7764	749.55	316.45
788.6087	55.0411	771.1	331.95
788.7496	57.3054	800.6	359.05
788.8904	59.5692	826	381.6
789.0313	61.8326	850.15	405.5
789.1722	64.0955	887.2	438.8
789.3132	66.3579	917.55	462.75
789.4541	68.6199	969.35	512.3
789.5951	70.8815	1047.2	585.75
789.7361	73.1426	1222.9	756.6
789.8771	75.4032	1673.3	1204.4
790.0181	77.6634	2753.85	2282.1
790.1592	79.9231	5420.9	4946.05
790.3003	82.1824	11309.15	10830.05
790.4414	84.4412	21772.45	21286.65
790.5825	86.6995	38562.6	38072.3
790.7237	88.9574	51307.05	50810.6
790.8648	91.2148	59388.05	58887.25
791.006	93.4717	61388.65	60886.5
791.1472	95.7282	62555.45	62049.7
791.2885	97.9842	63321.9	62814.2
791.4297	100.2398	63266	62755.8
791.571	102.4949	63569.4	63055.75
791.7123	104.7495	63594.85	63076.7
791.8536	107.0036	63543.25	63026.15
791.9949	109.2573	64057.5	63541.2
792.1363	111.5105	63936.3	63417.75
792.2777	113.7632	64010.8	63489.1
792.4191	116.0154	64328.75	63795.35
792.5605	118.2672	64613.8	64089.05
792.7019	120.5185	64676.15	64147.1
792.8434	122.7693	64712.95	64182.1
792.9849	125.0197	64377.7	63839.15
793.1264	127.2696	65097.9	64558.05
793.2679	129.519	64926.15	64385.6
793.4094	131.7679	65223.15	64677.85
793.551	134.0163	64793	64244.8
793.6926	136.2642	65038.55	64486.35
793.8342	138.5117	65312.75	64760.75
793.9758	140.7587	65260.1	64707.65
794.1175	143.0052	65249.95	64692.85
794.2591	145.2512	65053.35	64496.55
794.4008	147.4967	65336.35	64775.35
794.5425	149.7417	65320.95	64757.7
794.6842	151.9863	65305.95	64737.05
794.826	154.2304	65250.6	64678.65
794.9677	156.4739	65287.75	64711.1
795.1095	158.717	65465.85	64890.95
795.2513	160.9596	65415.55	64835.35
795.3931	163.2017	65283.6	64700.2
795.535	165.4433	65459.7	64874.95
795.6768	167.6844	65406.65	64820.6
795.8187	169.925	65473.2	64882.2
795.9606	172.1651	65408.95	64816.9
796.1025	174.4047	65493	64894.05
796.2445	176.6439	65479.35	64879
796.3864	178.8825	65432.2	64828
796.5284	181.1206	65521.55	64915.95
796.6704	183.3582	65514.25	64904.2
796.8124	185.5954	65508.75	64898.5
796.9544	187.832	65513.05	64895.95
797.0965	190.0681	65469.8	64854.25
797.2386	192.3037	65527.3	64905.3
797.3806	194.5388	65535	64913
797.5228	196.7734	65455.45	64832.95
797.6649	199.0075	65535	64910.05
797.807	201.2411	65532.9	64906.5
797.9492	203.4742	65535	64903.4
798.0914	205.7068	65535	64901.4
798.2336	207.9389	65535	64902.05
798.3758	210.1704	65535	64912
798.518	212.4015	65535	64920.3
798.6603	214.632	65535	64924.95
798.8025	216.862	65535	64924.4
798.9448	219.0915	65535	64919.85
799.0871	221.3205	65535	64917.15
799.2294	223.549	65535	64924.05
799.3718	225.777	65535	64919.7
799.5141	228.0044	65535	64909.85
799.6565	230.2314	65535	64911.55
799.7989	232.4578	65535	64905.2
799.9413	234.6837	65535	64896.55
800.0837	236.909	65535	64895.15
800.2262	239.1339	65535	64872.95
800.3687	241.3582	65535	64889.4
800.5111	243.582	65535	64854.1
800.6536	245.8053	65535	64868.05
800.7961	248.0281	65535	64872.55
800.9387	250.2503	65535	64873.35
801.0812	252.472	65535	64871.5
801.2238	254.6932	65535	64871.45
801.3664	256.9139	65535	64868.6
801.509	259.134	65535	64866.05
801.6516	261.3536	65535	64867.55
801.7942	263.5727	65535	64863
801.9369	265.7912	65535	64862.7
802.0795	268.0092	65535	64864.25
802.2222	270.2267	65535	64863.85
802.3649	272.4436	65535	64860.1
802.5076	274.6601	65535	64849.5
802.6504	276.8759	65535	64855.05
802.7931	279.0913	65535	64853.4
802.9359	281.3061	65535	64851.75
803.0787	283.5204	65535	64849.8
803.2215	285.7341	65535	64846.8
803.3643	287.9473	65535	64838.45
803.5071	290.16	65535	64845.4
803.6499	292.3721	65535	64849.3
803.7928	294.5837	65535	64848.75
803.9357	296.7947	65535	64849.9
804.0786	299.0052	65535	64847.65
804.2215	301.2152	65535	64845.15
804.3644	303.4246	65535	64846.8
804.5074	305.6334	65535	64846.05
804.6503	307.8418	65535	64842.45
804.7933	310.0495	65535	64841.85
804.9363	312.2568	65535	64841.05
805.0793	314.4635	65535	64839.65
805.2223	316.6696	65535	64837.6
805.3653	318.8752	65535	64826.3
805.5084	321.0802	65535	64834.5
805.6514	323.2847	65535	64831.5
805.7945	325.4887	65535	64828.75
805.9376	327.692	65535	64830
806.0807	329.8949	65535	64828.05
806.2238	332.0972	65535	64828.05
806.367	334.2989	65535	64821.65
806.5101	336.5001	65535	64821.55
806.6533	338.7007	65535	64821.95
806.7965	340.9008	65535	64820.7
806.9397	343.1003	65535	64819.85
807.0829	345.2992	65535	64817.15
807.2261	347.4976	65535	64817.85
807.3693	349.6955	65535	64810.95
807.5126	351.8927	65535	64810.7
807.6559	354.0895	65535	64799.45
807.7991	356.2856	65535	64809.85
807.9424	358.4812	65535	64808.75
808.0857	360.6763	65535	64806.4
808.2291	362.8707	65535	64802.4
808.3724	365.0646	65535	64800.1
808.5158	367.258	65535	64800.75
808.6591	369.4508	65535	64796.75
808.8025	371.643	65535	64797.05
808.9459	373.8346	65535	64792.25
809.0893	376.0257	65535	64788.6
809.2327	378.2162	65535	64792.25
809.3762	380.4062	65535	64790.85
809.5196	382.5956	65535	64793.75
809.6631	384.7844	65535	64798.45
809.8066	386.9726	65535	64799.5
809.9501	389.1603	65535	64801.65
810.0936	391.3474	65535	64750.95
810.2371	393.5339	65535	64796.85
810.3806	395.7199	65535	64800.45
810.5241	397.9052	65535	64800.1
810.6677	400.09	65535	64798.85
810.8113	402.2743	65535	64795.6
810.9548	404.4579	65535	64792.8
811.0984	406.641	65535	64792.65
811.2421	408.8235	65535	64790.35
811.3857	411.0054	65535	64787.35
811.5293	413.1868	65535	64785.4
811.673	415.3675	65535	64780.8
811.8166	417.5477	65535	64782.45
811.9603	419.7273	65535	64776.65
812.104	421.9064	65535	64771.45
812.2477	424.0848	65535	64775.6
812.3914	426.2627	65535	64778.25
812.5351	428.4399	65535	64775.2
812.6788	430.6166	65535	64769.9
812.8226	432.7928	65535	64769.3
812.9663	434.9683	65535	64769.3
813.1101	437.1432	65535	64767.9
813.2539	439.3176	65535	64768.1
813.3977	441.4914	65535	64769.6
813.5415	443.6645	65535	64768.65
813.6853	445.8371	65535	64769.25
813.8291	448.0091	65535	64765.5
813.973	450.1806	65535	64766.05
814.1168	452.3514	65535	64763.8
814.2607	454.5216	65535	64755.9
814.4046	456.6913	65535	64762.5
814.5485	458.8603	65535	64762.5
814.6924	461.0288	65535	64764
814.8363	463.1967	65535	64760.8
814.9802	465.3639	65535	64761.05
815.1241	467.5306	65535	64762.55
815.2681	469.6967	65535	64760.7
815.412	471.8622	65535	64760.6
815.556	474.0271	65535	64760.35
815.7	476.1914	65535	64756.6
815.844	478.3551	65535	64757.9
815.988	480.5182	65535	64757.05
816.132	482.6807	65535	64755.7
816.276	484.8426	65535	64756.45
816.4201	487.0039	65535	64756.95
816.5641	489.1647	65535	64753.85
816.7082	491.3248	65535	64755.4
816.8522	493.4843	65535	64752.35
816.9963	495.6432	65535	64754.15
817.1404	497.8015	65535	64749.9
817.2845	499.9592	65535	64751.4
817.4286	502.1163	65535	64750.65
817.5727	504.2728	65535	64745.4
817.7168	506.4287	65535	64748.2
817.861	508.5839	65535	64748.8
818.0051	510.7386	65535	64748.8
818.1493	512.8927	65535	64739.75
818.2935	515.0461	65535	64746.75
818.4377	517.199	65535	64745.45
818.5818	519.3512	65535	64744.6
818.726	521.5029	65535	64736.85
818.8703	523.6539	65535	64742.1
819.0145	525.8043	65535	64739.4
819.1587	527.9541	65535	64740.35
819.303	530.1033	65535	64740.35
819.4472	532.2519	65535	64739.75
819.5915	534.3999	65535	64737.45
819.7357	536.5472	65535	64738.05
819.88	538.694	65534.25	64737.55
820.0243	540.8401	65535	64736.85
820.1686	542.9856	65535	64735.55
820.3129	545.1305	65535	64736.1
820.4572	547.2748	65535	64735.2
820.6016	549.4185	65535	64735.5
820.7459	551.5615	65535	64736
820.8902	553.704	65535	64732.25
821.0346	555.8458	65535	64736.95
821.1789	557.987	65535	64736.4
821.3233	560.1276	65535	64737
821.4677	562.2675	65533.5	64735.1
821.6121	564.4069	65535	64736.55
821.7565	566.5456	65535	64735.7
821.9009	568.6837	65528.1	64726.6
822.0453	570.8212	65535	64732.5
822.1897	572.958	65507.45	64704.05
822.3342	575.0942	65535	64731.5
822.4786	577.2299	65523.45	64718.6
822.6231	579.3648	65514.15	64706.8
822.7675	581.4992	65506.45	64702.15
822.912	583.6329	65499.75	64694.6
823.0565	585.766	65500.85	64697.2
823.201	587.8985	65513.2	64708.35
823.3454	590.0304	65394.7	64564.95
823.4899	592.1616	65503.3	64689.35
823.6345	594.2922	65462.5	64651.7
823.779	596.4222	65322.6	64512.35
823.9235	598.5515	65381.8	64572.8
824.068	600.6802	65495.8	64685.05
824.2126	602.8083	65339.85	64529.15
824.3571	604.9358	65319.4	64506.05
824.5017	607.0626	65462.4	64650.95
824.6462	609.1888	65099.65	64285.95
824.7908	611.3144	65352.8	64537.5
824.9354	613.4393	65281.7	64468.55
825.08	615.5636	65047.95	64233.6
825.2246	617.6873	65322.4	64506.45
825.3692	619.8103	65019.6	64202.55
825.5138	621.9327	65357.45	64539.2
825.6584	624.0544	65341.85	64527.35
825.803	626.1756	65204.65	64389.4
825.9477	628.2961	65184.9	64367.65
826.0923	630.4159	65087.8	64270.5
826.237	632.5351	64980.05	64161.8
826.3816	634.6537	65439.4	64619.95
826.5263	636.7716	64909.75	64089.8
826.6709	638.8889	65075.8	64257.4
826.8156	641.0056	65035	64216.3
826.9603	643.1216	65087.5	64265.15
827.105	645.237	65204.45	64380.55
827.2497	647.3518	64878.3	64057.9
827.3944	649.4659	65021	64199.95
827.5391	651.5793	65016.75	64195.85
827.6838	653.6922	65094.8	64275.25
827.8285	655.8043	64596.25	63772.75
827.9733	657.9159	65192.55	64369.05
828.118	660.0268	64103.6	63278.15
828.2627	662.137	64820.35	63995.95
828.4075	664.2466	64872.95	64048
828.5522	666.3556	64607.55	63783.7
828.697	668.4639	64879.3	64050.8
828.8418	670.5716	64508.75	63684.6
828.9865	672.6786	64775.45	63948.9
829.1313	674.785	64400.55	63572.15
829.2761	676.8907	64413.65	63584.05
829.4209	678.9958	64627.9	63800.85
829.5657	681.1002	64643	63813.7
829.7105	683.204	64268.8	63438
829.8553	685.3072	64055.4	63227.65
830.0001	687.4097	64294.75	63466.5
830.1449	689.5115	64077.85	63248.75
830.2898	691.6127	64529.9	63700.4
830.4346	693.7132	64124.8	63296
830.5794	695.8131	64145.5	63291.55
830.7243	697.9123	64294.3	63460.6
830.8691	700.0109	64332.7	63503.65
831.014	702.1089	63776.95	62945.15
831.1588	704.2061	63921.65	63091.05
831.3037	706.3028	63975.95	63142.95
831.4486	708.3987	64112.85	63281.3
831.5935	710.4941	63815.3	62981.75
831.7383	712.5887	64154.7	63321.7
831.8832	714.6827	63731.5	62894
832.0281	716.7761	64006.95	63173
832.173	718.8688	64083.1	63245.8
832.3179	720.9608	63602	62764.3
832.4628	723.0522	63656.8	62816.25
832.6077	725.1429	63261.2	62425.1
832.7527	727.233	64405	63568.2
832.8976	729.3224	62688.05	61851.25
833.0425	731.4112	63512.25	62673.2
833.1874	733.4993	63587	62747.25
833.3324	735.5867	63601.15	62763.2
833.4773	737.6735	63116.9	62275.75
833.6222	739.7596	62721.05	61882.6
833.7672	741.845	62689	61846.55
833.9122	743.9298	63419.4	62577.05
834.0571	746.014	62674.1	61834.85
834.2021	748.0974	62132.55	61292.4
834.347	750.1802	63216.85	62377.7
834.492	752.2624	61923.8	61084.15
834.637	754.3439	62077.85	61236.15
834.782	756.4247	62379.1	61529.5
834.9269	758.5048	61730.9	60889.9
835.0719	760.5843	61831.8	60988.3
835.2169	762.6631	61966.4	61124.5
835.3619	764.7413	61553.2	60712.95
835.5069	766.8188	61498.05	60652.9
835.6519	768.8956	61845.7	61001.2
835.7969	770.9718	61704.75	60863.3
835.9419	773.0473	61514.3	60671.95
836.0869	775.1221	60935.3	60093
836.232	777.1962	60989	60144.1
836.377	779.2697	60255.35	59408.8
836.522	781.3426	60797.55	59941.3
836.667	783.4147	60923.25	60079.05
836.8121	785.4862	60649.75	59807.35
836.9571	787.557	59941.45	59094.65
837.1021	789.6271	60787.7	59943.35
837.2472	791.6966	60183.65	59338.55
837.3922	793.7654	59560.75	58714.15
837.5373	795.8335	59680.2	58836.65
837.6823	797.901	59958.45	59112.65
837.8274	799.9678	59441.7	58595.1
837.9724	802.0339	59323.7	58478.4
838.1175	804.0993	59350.6	58494.95
838.2626	806.1641	59061.6	58214.3
838.4076	808.2282	58904.05	58056.05
838.5527	810.2916	58839.2	57991.2
838.6978	812.3544	59318.35	58473.2
838.8428	814.4164	58427.95	57581.65
838.9879	816.4778	58601.75	57752.25
839.133	818.5385	58630.9	57784.15
839.2781	820.5986	58529.75	57683.6
839.4232	822.658	58616	57766
839.5682	824.7166	58670.9	57821.65
839.7133	826.7747	57936.75	57087.65
839.8584	828.832	58305.55	57455.6
840.0035	830.8886	58652.5	57800.7
840.1486	832.9446	58531.2	57681.95
840.2937	834.9999	57384.4	56534.55
840.4388	837.0545	57936.95	57082.3
840.5839	839.1085	58105.45	57255.85
840.729	841.1618	57877.25	57023.7
840.8741	843.2143	57063.65	56213.3
841.0192	845.2662	57067.6	56216.5
841.1643	847.3175	57352.4	56503
841.3095	849.368	56583.1	55731.8
841.4546	851.4179	57238.8	56387.45
841.5997	853.467	56639.45	55788.95
841.7448	855.5155	56917.95	56063.95
841.8899	857.5633	56496.05	55643.75
842.0351	859.6105	56211.5	55356.25
842.1802	861.6569	56603.35	55751.1
842.3253	863.7027	55964.65	55111.15
842.4704	865.7478	56144.15	55291.9
842.6156	867.7922	55995.75	55143.05
842.7607	869.8359	56325.85	55470.25
842.9058	871.8789	55557.2	54702.1
843.0509	873.9212	55900.15	55014.2
843.1961	875.9629	55686.95	54833.8
843.3412	878.0039	55623.1	54766.95
843.4863	880.0441	55403.05	54548.5
843.6315	882.0837	55418.55	54563
843.7766	884.1226	55463.3	54607.15
843.9218	886.1609	55446.15	54592.85
844.0669	888.1984	55333.4	54480.45
844.212	890.2352	55771.95	54916.15
844.3572	892.2714	55116.35	54256.15
844.5023	894.3069	55403.6	54546.7
844.6475	896.3416	55099.8	54244.75
844.7926	898.3757	54995.5	54138.5
844.9377	900.4091	54437.65	53580.9
845.0829	902.4418	54997.65	54136.7
845.228	904.4739	54508.55	53648.25
845.3732	906.5052	54717	53859.5
845.5183	908.5358	54463.55	53607.45
845.6635	910.5658	54240.2	53381.3
845.8086	912.595	54296.2	53437.6
845.9538	914.6236	53789.75	52931.4
846.0989	916.6515	54413.55	53557.65
846.2441	918.6786	53507.25	52647.45
846.3892	920.7051	53698.35	52839.5
846.5344	922.7309	53675.7	52817.9
846.6795	924.756	53692.4	52834.8
846.8246	926.7804	53385.7	52523.15
846.9698	928.8041	52884.55	52024
847.1149	930.8272	53175.6	52315.3
847.2601	932.8495	53058.25	52196.05
847.4052	934.8711	52700	51839.6
847.5504	936.892	52568.4	51706.7
847.6955	938.9123	52580.4	51717.85
847.8407	940.9318	52355.5	51494.35
847.9858	942.9506	52248.05	51386.6
848.131	944.9688	52309.35	51449.4
848.2761	946.9862	51743.6	50882.1
848.4213	949.003	51782.05	50921.7
848.5664	951.019	51340.85	50479.75
848.7115	953.0344	51339.95	50477.4
848.8567	955.0491	51231.95	50370.8
849.0018	957.063	51291.4	50430.55
849.147	959.0763	51331.4	50472.15
849.2921	961.0888	51021.5	50158.65
849.4373	963.1007	51110.15	50247.3
849.5824	965.1119	51037.15	50177.45
849.7275	967.1223	50826.7	49965.2
849.8727	969.1321	50861.85	49999.95
850.0178	971.1412	50640.2	49778.2
850.1629	973.1495	50433.75	49572.05
850.3081	975.1572	50489.15	49580.65
850.4532	977.1641	50422.9	49562.55
850.5983	979.1704	50248.7	49385.2
850.7435	981.1759	50130.3	49264
850.8886	983.1808	50028.7	49164.95
851.0337	985.1849	49882.4	49014.25
851.1788	987.1884	49786.65	48920.6
851.324	989.1911	49740.3	48872.55
851.4691	991.1932	49515	48650.15
851.6142	993.1945	49387.15	48524
851.7593	995.1951	49211.15	48347
851.9045	997.1951	49172.85	48302.6
852.0496	999.1943	48917.85	48054.5
852.1947	1001.1928	48742.4	47880
852.3398	1003.1906	48548.4	47682.95
852.4849	1005.1877	48427.6	47561.95
852.63	1007.1841	48260.65	47396.65
852.7751	1009.1798	48121.8	47255.8
852.9202	1011.1748	48012.05	47145.8
853.0653	1013.1691	47855.7	46988.55
853.2104	1015.1627	47556.9	46691.8
853.3555	1017.1556	47332.15	46467.2
853.5006	1019.1477	47225.6	46359.4
853.6457	1021.1392	46948.95	46085.95
853.7908	1023.1299	46761.45	45896.25
853.9359	1025.12	46646	45778.95
854.081	1027.1093	46395	45531.25
854.2261	1029.0979	46255.25	45389.9
854.3712	1031.0859	46126.55	45262.45
854.5163	1033.0731	46052.3	45184.2
854.6613	1035.0596	45900.45	45035.15
854.8064	1037.0454	45640.8	44775
854.9515	1039.0304	45565.25	44697.75
855.0965	1041.0148	45345.05	44478.5
855.2416	1042.9985	45228.05	44359.85
855.3867	1044.9814	45208.15	44343.7
855.5317	1046.9636	45008.45	44141.15
855.6768	1048.9452	44836.9	43968.3
855.8219	1050.926	44747.25	43879.55
855.9669	1052.9061	44624.55	43757.85
856.112	1054.8855	44497.1	43629.05
856.257	1056.8642	44461.4	43595.65
856.4021	1058.8421	44437.6	43567.8
856.5471	1060.8194	44239.4	43371.7
856.6921	1062.7959	44139.8	43272.95
856.8372	1064.7717	44099.85	43231.5
856.9822	1066.7469	43975.3	43104.75
857.1272	1068.7213	43901.85	43030.85
857.2723	1070.695	43876.5	43008.15
857.4173	1072.6679	43674.25	42804.65
857.5623	1074.6402	43634.4	42766.5
857.7073	1076.6117	43586.75	42714.1
857.8523	1078.5826	43533.75	42663.95
857.9973	1080.5527	43374.7	42504.7
858.1423	1082.5221	43140.55	42272.85
858.2873	1084.4908	43067.3	42197.2
858.4323	1086.4587	43001.9	42131.75
858.5773	1088.426	42869.85	41998.6
858.7223	1090.3925	42745.9	41871
858.8673	1092.3584	42711.5	41844.15
859.0123	1094.3235	42514.3	41645.2
859.1573	1096.2879	42464.1	41593.05
859.3022	1098.2515	42392.05	41522.65
859.4472	1100.2145	42304.9	41435.7
859.5922	1102.1767	42179	41308.1
859.7371	1104.1382	42165.15	41295.05
859.8821	1106.099	42115.25	41242.35
860.027	1108.0591	42006.95	41136.6
860.172	1110.0185	41937.3	41066.3
860.3169	1111.9771	41936.7	41067.25
860.4619	1113.9351	41865.7	40995.3
860.6068	1115.8923	41816.8	40948
860.7517	1117.8488	41773.4	40902.45
860.8967	1119.8045	41564.05	40694.45
861.0416	1121.7596	41440.45	40571.65
861.1865	1123.7139	41182.6	40312.3
861.3314	1125.6675	40987.85	40117.85
861.4763	1127.6204	41032.65	40161.45
861.6212	1129.5726	40905.3	40033.65
861.7661	1131.524	40870.95	40001.95
861.911	1133.4748	40777.8	39906.35
862.0559	1135.4248	40606.3	39734.4
862.2008	1137.3741	40480.45	39612.8
862.3457	1139.3226	40291.35	39418.25
862.4905	1141.2705	40365.35	39494.8
862.6354	1143.2176	40137.75	39259.8
862.7803	1145.164	40117.1	39243.95
862.9251	1147.1097	40101.55	39230.1
863.07	1149.0546	40057.55	39185.85
863.2148	1150.9989	40000.5	39128.9
863.3597	1152.9424	39906.15	39033.55
863.5045	1154.8852	39811.25	38938.6
863.6493	1156.8272	39751.25	38880.5
863.7942	1158.7686	39754.8	38876.25
863.939	1160.7092	39617.45	38745.2
864.0838	1162.6491	39479.65	38604.7
864.2286	1164.5883	39474.1	38602.4
864.3734	1166.5267	39402.1	38530.6
864.5182	1168.4644	39341.7	38468.9
864.663	1170.4014	39303.4	38427.25
864.8078	1172.3377	39315.35	38445.6
864.9526	1174.2732	39273.9	38402.25
865.0974	1176.2081	39393.3	38520.95
865.2421	1178.1421	39321	38442.25
865.3869	1180.0755	39479	38606
865.5317	1182.0082	39346.2	38472.35
865.6764	1183.9401	39324.8	38451.5
865.8212	1185.8713	39091.2	38219.95
865.9659	1187.8017	38931.15	38058.7
866.1106	1189.7315	38820.1	37949
866.2554	1191.6605	38483	37610.55
866.4001	1193.5888	38346.45	37474.2
866.5448	1195.5163	38260.2	37386.8
866.6895	1197.4432	38112.8	37236.35
866.8342	1199.3693	38004.25	37130.95
866.9789	1201.2947	37836.85	36960.25
867.1236	1203.2193	37739.7	36865.1
