Software Version:	3.9.2.0
Unit SN:	10000200
Spectrometer SN:	6960
Date:	3/6/2024 9:37:12 AM
Data Line Index:	25
Spectral Points:	2048
Integration time (ms):	125
Averages:	20
Delay (ms):	30
Sequence Number:	1
Processing:	dark subtract
Laser Power (mW):	305
Laser Current (mA):	823
Laser Diode Temp (C):	25.1
Laser Case Temp (C):	23.9
System Temp (C):	23.7
Spectrometer Temp (C):	21.2
CCD Temp (C):	-0.035
Secondary Temp (C):	19.997
Heatsink Temp (C):	17.215
CCDPCB Temp (C):	30.293
SecondaryPCB Temp (C):	25.814

Wavelength	RamanShift	Raw Counts	Dark Subtracted
787.061	30.1047	509.1	100.75
787.2016	32.3739	508.6	103.2
787.3422	34.6426	518.2	110.7
787.4828	36.9109	525.1	116.5
787.6235	39.1787	534.05	122.35
787.7642	41.4461	550.05	132.95
787.9049	43.7131	561.1	142.05
788.0456	45.9796	565.15	143.8
788.1863	48.2456	576.9	149.8
788.3271	50.5112	593.6	162.4
788.4679	52.7764	600.45	165.9
788.6087	55.0411	616.9	178.6
788.7496	57.3054	631.5	190.3
788.8904	59.5692	648.45	206.35
789.0313	61.8326	666.05	219.75
789.1722	64.0955	682.9	234.05
789.3132	66.3579	700.3	245.35
789.4541	68.6199	732.25	273.95
789.5951	70.8815	780.8	318.3
789.7361	73.1426	880.15	413.9
789.8771	75.4032	1147.9	679.1
790.0181	77.6634	1772.65	1300.05
790.1592	79.9231	3298.9	2824.05
790.3003	82.1824	6591.35	6115.05
790.4414	84.4412	12410.85	11926.25
790.5825	86.6995	20193.7	19702
790.7237	88.9574	27699.55	27203.55
790.8648	91.2148	33023.5	32525.55
791.006	93.4717	35825.8	35321.4
791.1472	95.7282	37025.9	36517.9
791.2885	97.9842	37654.55	37144.9
791.4297	100.2398	37855.45	37345.75
791.571	102.4949	37960.55	37448.3
791.7123	104.7495	38075.2	37557.4
791.8536	107.0036	38039.8	37520.15
791.9949	109.2573	38190.75	37673.45
792.1363	111.5105	38126.65	37606.9
792.2777	113.7632	38176.9	37654.15
792.4191	116.0154	38225.75	37691.2
792.5605	118.2672	38386.35	37858.2
792.7019	120.5185	38454.05	37924.85
792.8434	122.7693	38503.25	37971.6
792.9849	125.0197	38559.5	38023.05
793.1264	127.2696	38648.6	38109.15
793.2679	129.519	38826.45	38285.1
793.4094	131.7679	38984.75	38440.8
793.551	134.0163	38882.75	38335.35
793.6926	136.2642	39018	38467.2
793.8342	138.5117	39153.1	38597.65
793.9758	140.7587	39193.45	38639.4
794.1175	143.0052	39319.6	38761.85
794.2591	145.2512	39200	38641.7
794.4008	147.4967	39276.9	38717.3
794.5425	149.7417	39262.9	38698.3
794.6842	151.9863	39290.7	38721.3
794.826	154.2304	39266.2	38695.6
794.9677	156.4739	39254.45	38676.6
795.1095	158.717	39396.1	38819.2
795.2513	160.9596	39427.8	38846.65
795.3931	163.2017	39385.95	38799.75
795.535	165.4433	39490.95	38905.5
795.6768	167.6844	39511.35	38923.55
795.8187	169.925	39659.55	39068.1
795.9606	172.1651	39535.2	38941.35
796.1025	174.4047	39528.45	38929.2
796.2445	176.6439	39573.35	38970.95
796.3864	178.8825	39592.35	38988.9
796.5284	181.1206	39735	39126.5
796.6704	183.3582	39717.7	39106.85
796.8124	185.5954	39736.25	39122.2
796.9544	187.832	39879.6	39261.25
797.0965	190.0681	39972.75	39351.8
797.2386	192.3037	40078.85	39454.55
797.3806	194.5388	40247.9	39622.1
797.5228	196.7734	40139.3	39514.95
797.6649	199.0075	40382.8	39757.2
797.807	201.2411	40611.45	39983.9
797.9492	203.4742	40744.45	40112.6
798.0914	205.7068	40862.95	40225.7
798.2336	207.9389	40894.65	40258.35
798.3758	210.1704	41044.8	40419.9
798.518	212.4015	41054.2	40434.7
798.6603	214.632	41084.55	40471.85
798.8025	216.862	41242.9	40630.35
798.9448	219.0915	41294.1	40678.3
799.0871	221.3205	41321.7	40702.4
799.2294	223.549	41508.6	40894.15
799.3718	225.777	41607.25	40990.85
799.5141	228.0044	41646.9	41022.55
799.6565	230.2314	41798.25	41170.7
799.7989	232.4578	41707.35	41078.5
799.9413	234.6837	41769.5	41128.75
800.0837	236.909	42017.5	41374.35
800.2262	239.1339	41864.75	41198.3
800.3687	241.3582	42020.35	41370.15
800.5111	243.582	42036.9	41359.4
800.6536	245.8053	42129.15	41461.1
800.7961	248.0281	42116.25	41454.05
800.9387	250.2503	42158.15	41495.05
801.0812	252.472	42211.75	41545.75
801.2238	254.6932	42349.25	41683.2
801.3664	256.9139	42278.85	41611.1
801.509	259.134	42480.25	41808.8
801.6516	261.3536	42318.6	41646.9
801.7942	263.5727	42632.1	41958.95
801.9369	265.7912	42563.65	41891.85
802.0795	268.0092	42657.65	41986
802.2222	270.2267	42749	42076.95
802.3649	272.4436	42784.8	42110.85
802.5076	274.6601	42888.15	42202.9
802.6504	276.8759	42875.65	42193.75
802.7931	279.0913	42976.05	42291.9
802.9359	281.3061	42962.4	42279.45
803.0787	283.5204	43118	42431.25
803.2215	285.7341	43149.15	42460.65
803.3643	287.9473	43305.3	42607.9
803.5071	290.16	43225.95	42534.05
803.6499	292.3721	43344	42656.95
803.7928	294.5837	43107.2	42418.35
803.9357	296.7947	43057.65	42370.15
804.0786	299.0052	43199.65	42511.4
804.2215	301.2152	43051.05	42358.5
804.3644	303.4246	43188.35	42499.1
804.5074	305.6334	43164.65	42474.2
804.6503	307.8418	43109.45	42412.35
804.7933	310.0495	43127.35	42432.25
804.9363	312.2568	43078.2	42383.05
805.0793	314.4635	42941.25	42242.15
805.2223	316.6696	42906.7	42204.65
805.3653	318.8752	42825.3	42115.9
805.5084	321.0802	42632.2	41931.95
805.6514	323.2847	42736.55	42034.8
805.7945	325.4887	42710.9	42005.65
805.9376	327.692	42619.8	41914.1
806.0807	329.8949	42804.85	42097.2
806.2238	332.0972	42836.7	42124.95
806.367	334.2989	42960.6	42246.2
806.5101	336.5001	42958.3	42244.6
806.6533	338.7007	42903.8	42191.3
806.7965	340.9008	42936.6	42221.7
806.9397	343.1003	42889.75	42170
807.0829	345.2992	42892	42173.85
807.2261	347.4976	42845.3	42125.25
807.3693	349.6955	42788.55	42064.1
807.5126	351.8927	42830.6	42105.35
807.6559	354.0895	42763	42026.9
807.7991	356.2856	42844.95	42118.05
807.9424	358.4812	42786.5	42058.25
808.0857	360.6763	42833.2	42102.4
808.2291	362.8707	42711.05	41978.55
808.3724	365.0646	42839.6	42103.35
808.5158	367.258	42792.45	42057.05
808.6591	369.4508	42665	41925.85
808.8025	371.643	42759.5	42021.65
808.9459	373.8346	42655.3	41913.05
809.0893	376.0257	42664.5	41919.7
809.2327	378.2162	42618.45	41878.1
809.3762	380.4062	42691.55	41949.95
809.5196	382.5956	42594	41853
809.6631	384.7844	42591	41852.65
809.8066	386.9726	42471.55	41734
809.9501	389.1603	42450.1	41713.4
810.0936	391.3474	42353.35	41569.55
810.2371	393.5339	42390.95	41653.65
810.3806	395.7199	42185.2	41446.75
810.5241	397.9052	42212.8	41477.2
810.6677	400.09	42226.75	41488.45
810.8113	402.2743	42245.4	41506.65
810.9548	404.4579	42253.6	41510.2
811.0984	406.641	42364.45	41619.2
811.2421	408.8235	42387.85	41642.15
811.3857	411.0054	42448.5	41700.7
811.5293	413.1868	42546.8	41795.3
811.673	415.3675	42490	41735.2
811.8166	417.5477	42534.35	41779.7
811.9603	419.7273	42484.65	41725.35
812.104	421.9064	42276.5	41512.4
812.2477	424.0848	42134.35	41375.9
812.3914	426.2627	42056.6	41298.15
812.5351	428.4399	41946.05	41183.2
812.6788	430.6166	41842.95	41075.5
812.8226	432.7928	41679.15	40914.95
812.9663	434.9683	41574.65	40806.55
813.1101	437.1432	41520.7	40752.25
813.2539	439.3176	41395.6	40630.55
813.3977	441.4914	41230.95	40464.45
813.5415	443.6645	41190.15	40422.95
813.6853	445.8371	41065.45	40296.85
813.8291	448.0091	40942.7	40175.9
813.973	450.1806	40855.5	40085.6
814.1168	452.3514	40701.7	39928.95
814.2607	454.5216	40743.2	39963.05
814.4046	456.6913	40545	39771
814.5485	458.8603	40566.15	39792.95
814.6924	461.0288	40620.7	39849.35
814.8363	463.1967	40494.6	39721.05
814.9802	465.3639	40591.75	39816.5
815.1241	467.5306	40509.55	39732.85
815.2681	469.6967	40399.8	39625
815.412	471.8622	40272.75	39496.7
815.556	474.0271	40274.65	39498.75
815.7	476.1914	40244.3	39464.65
815.844	478.3551	40190.85	39413.5
815.988	480.5182	40250.1	39472.75
816.132	482.6807	40240.85	39461.75
816.276	484.8426	40305.5	39528.05
816.4201	487.0039	40334.8	39554.05
816.5641	489.1647	40361.1	39580.7
816.7082	491.3248	40506.1	39726.35
816.8522	493.4843	40457.4	39676.85
816.9963	495.6432	40418.95	39637.75
817.1404	497.8015	40265.65	39481.4
817.2845	499.9592	40325.05	39541
817.4286	502.1163	40203.5	39417.9
817.5727	504.2728	40075.3	39287.15
817.7168	506.4287	40165.3	39379.85
817.861	508.5839	40034.05	39246.95
818.0051	510.7386	39955.55	39169.1
818.1493	512.8927	40011	39216.3
818.2935	515.0461	39976.8	39184.9
818.4377	517.199	39953.45	39164.8
818.5818	519.3512	40011.65	39221.5
818.726	521.5029	39996.65	39200.2
818.8703	523.6539	39978.8	39186.4
819.0145	525.8043	39985.3	39189.85
819.1587	527.9541	39880.05	39083.2
819.303	530.1033	39760.85	38965.75
819.4472	532.2519	39662.8	38869.1
819.5915	534.3999	39646.35	38849.35
819.7357	536.5472	39611.2	38814.8
819.88	538.694	39570.1	38775.5
820.0243	540.8401	39622.35	38824.45
820.1686	542.9856	39658.6	38860.35
820.3129	545.1305	39556.25	38754.9
820.4572	547.2748	39648.6	38846.95
820.6016	549.4185	39598.95	38797.65
820.7459	551.5615	39475.6	38673.45
820.8902	553.704	39523.95	38723.7
821.0346	555.8458	39426.6	38625.75
821.1789	557.987	39489.15	38692.45
821.3233	560.1276	39407.8	38606.75
821.4677	562.2675	39490.75	38691.35
821.6121	564.4069	39525.2	38723.5
821.7565	566.5456	39458.5	38659.25
821.9009	568.6837	39447.75	38643.75
822.0453	570.8212	39202.25	38399.55
822.1897	572.958	39049.7	38245.55
822.3342	575.0942	38991.65	38188.6
822.4786	577.2299	38834.45	38030.25
822.6231	579.3648	38710.25	37905.15
822.7675	581.4992	38544.85	37741.75
822.912	583.6329	38471.9	37667.7
823.0565	585.766	38439.6	37635.25
823.201	587.8985	38371.7	37567.1
823.3454	590.0304	38296.8	37479.7
823.4899	592.1616	38245.75	37434.4
823.6345	594.2922	38171.25	37362.75
823.779	596.4222	38138.8	37330.35
823.9235	598.5515	38000.1	37188.85
824.068	600.6802	37823.15	37012.95
824.2126	602.8083	37572.8	36761.8
824.3571	604.9358	37591.2	36778.3
824.5017	607.0626	37513.5	36702.1
824.6462	609.1888	37460.55	36648.7
824.7908	611.3144	37453.05	36639.15
824.9354	613.4393	37397.25	36584.5
825.08	615.5636	37388.05	36574.7
825.2246	617.6873	37423.35	36607.25
825.3692	619.8103	37486.35	36671.9
825.5138	621.9327	37432.7	36612.05
825.6584	624.0544	37360.95	36547.5
825.803	626.1756	37255.45	36441
825.9477	628.2961	37142.35	36326.55
826.0923	630.4159	37057.15	36240.95
826.237	632.5351	37063	36245.75
826.3816	634.6537	37015.9	36198.95
826.5263	636.7716	36911.6	36091.35
826.6709	638.8889	36911.6	36095.55
826.8156	641.0056	36974.95	36157.25
826.9603	643.1216	36864.1	36042.05
827.105	645.237	36936.1	36113.65
827.2497	647.3518	36802.4	35981.85
827.3944	649.4659	36768.3	35947.4
827.5391	651.5793	36695.2	35874.2
827.6838	653.6922	36617.95	35795.6
827.8285	655.8043	36515.05	35694
827.9733	657.9159	36508.75	35684.3
828.118	660.0268	36441.2	35616.3
828.2627	662.137	36372.8	35550.45
828.4075	664.2466	36328.15	35501.9
828.5522	666.3556	36319.5	35496.1
828.697	668.4639	36210.3	35383.85
828.8418	670.5716	36250.5	35426.8
828.9865	672.6786	36238.2	35411.55
829.1313	674.785	36037.95	35209.9
829.2761	676.8907	35894.15	35067.7
829.4209	678.9958	35930.8	35108.8
829.5657	681.1002	35815.6	34986.65
829.7105	683.204	35727.15	34895.9
829.8553	685.3072	35710.55	34881.5
830.0001	687.4097	35589.15	34760.65
830.1449	689.5115	35626.05	34796.8
830.2898	691.6127	35655.05	34827.7
830.4346	693.7132	35527	34698
830.5794	695.8131	35549.1	34709.6
830.7243	697.9123	35562.95	34730.9
830.8691	700.0109	35451.95	34622
831.014	702.1089	35394.45	34567
831.1588	704.2061	35400	34568.95
831.3037	706.3028	35395.85	34564.2
831.4486	708.3987	35352.5	34520.1
831.5935	710.4941	35350	34518.9
831.7383	712.5887	35303	34467.95
831.8832	714.6827	35295.05	34457.65
832.0281	716.7761	35279.5	34447.2
832.173	718.8688	35238.35	34404.5
832.3179	720.9608	35120	34282
832.4628	723.0522	35158.8	34322.2
832.6077	725.1429	35035.65	34200
832.7527	727.233	35050.7	34215.65
832.8976	729.3224	35141	34306.3
833.0425	731.4112	35059.95	34223.6
833.1874	733.4993	34988.85	34151.05
833.3324	735.5867	34864.6	34026.75
833.4773	737.6735	34808.8	33970
833.6222	739.7596	34695.25	33856.8
833.7672	741.845	34550.55	33712.9
833.9122	743.9298	34467.2	33627.9
834.0571	746.014	34391.2	33555.4
834.2021	748.0974	34403.8	33566.25
834.347	750.1802	34276.9	33437.1
834.492	752.2624	34154.6	33314.7
834.637	754.3439	34060	33219.95
834.782	756.4247	33941.95	33091.7
834.9269	758.5048	33829.3	32991.3
835.0719	760.5843	33762.65	32921.5
835.2169	762.6631	33717	32876.7
835.3619	764.7413	33715.55	32876.9
835.5069	766.8188	33814.95	32972.7
835.6519	768.8956	33703.5	32858.65
835.7969	770.9718	33780.9	32939.75
835.9419	773.0473	33700.85	32861.25
836.0869	775.1221	33605.5	32764.7
836.232	777.1962	33497.6	32656.2
836.377	779.2697	33466.85	32622.25
836.522	781.3426	33474.2	32612.9
836.667	783.4147	33484.15	32639.4
836.8121	785.4862	33473.8	32632.4
836.9571	787.557	33325.2	32483.25
837.1021	789.6271	33192.15	32348.65
837.2472	791.6966	32985.05	32139.2
837.3922	793.7654	32741.4	31895.15
837.5373	795.8335	32719.3	31875.95
837.6823	797.901	32559.25	31715.75
837.8274	799.9678	32546.85	31701.7
837.9724	802.0339	32432.9	31589.8
838.1175	804.0993	32426.55	31571.8
838.2626	806.1641	32328.35	31484.35
838.4076	808.2282	32209.6	31364.95
838.5527	810.2916	32209.5	31362.3
838.6978	812.3544	32185.6	31341.35
838.8428	814.4164	32128.85	31285.2
838.9879	816.4778	32129.55	31282.85
839.133	818.5385	32091.1	31246.05
839.2781	820.5986	32119.9	31273.7
839.4232	822.658	32129.6	31282.1
839.5682	824.7166	32044.4	31197.75
839.7133	826.7747	32138.95	31292.1
839.8584	828.832	32116.5	31268
840.0035	830.8886	32051.9	31203.5
840.1486	832.9446	32085.95	31235.95
840.2937	834.9999	31966.85	31120.95
840.4388	837.0545	31920.7	31069.65
840.5839	839.1085	31782.45	30931.65
840.729	841.1618	31648.4	30795.55
840.8741	843.2143	31543.55	30695.8
841.0192	845.2662	31375.5	30526.35
841.1643	847.3175	31411.8	30564.15
841.3095	849.368	31284.5	30436.2
841.4546	851.4179	31233	30381.25
841.5997	853.467	31052.85	30203.75
841.7448	855.5155	31091	30239.35
841.8899	857.5633	30994.1	30144.05
842.0351	859.6105	30934.45	30083.95
842.1802	861.6569	30937.95	30087.6
842.3253	863.7027	30887.9	30036.7
842.4704	865.7478	30837.8	29986.55
842.6156	867.7922	30764.7	29914.1
842.7607	869.8359	30697.1	29845.65
842.9058	871.8789	30723.3	29871.65
843.0509	873.9212	30669.45	29788.85
843.1961	875.9629	30560.1	29707.95
843.3412	878.0039	30602	29748.3
843.4863	880.0441	30516.9	29665.6
843.6315	882.0837	30584.55	29730.75
843.7766	884.1226	30522.45	29667.75
843.9218	886.1609	30544.6	29693.55
844.0669	888.1984	30593.25	29741.95
844.212	890.2352	30692.35	29838.15
844.3572	892.2714	30576.4	29717.85
844.5023	894.3069	30578.25	29724.6
844.6475	896.3416	30380.55	29525.25
844.7926	898.3757	30313.4	29458.3
844.9377	900.4091	30237.4	29381.75
845.0829	902.4418	30232.7	29372.5
845.228	904.4739	30116.25	29257.7
845.3732	906.5052	30097.3	29242.95
845.5183	908.5358	30138.3	29284.55
845.6635	910.5658	30027	29171.8
845.8086	912.595	29937.9	29082.95
845.9538	914.6236	29836.65	28982.95
846.0989	916.6515	29787.3	28931.85
846.2441	918.6786	29650.15	28793
846.3892	920.7051	29681.55	28822.9
846.5344	922.7309	29682.9	28827.75
846.6795	924.756	29535.25	28678.7
846.8246	926.7804	29557.75	28698.55
846.9698	928.8041	29328.9	28470
847.1149	930.8272	29344.05	28487.15
847.2601	932.8495	29259.95	28399.85
847.4052	934.8711	29281.85	28421.9
847.5504	936.892	29124.75	28266.7
847.6955	938.9123	29065	28206.75
847.8407	940.9318	29073	28215.5
847.9858	942.9506	28968.95	28109.7
848.131	944.9688	28909.1	28051.2
848.2761	946.9862	28781.1	27923.3
848.4213	949.003	28604.3	27746.25
848.5664	951.019	28553.65	27697.15
848.7115	953.0344	28435.9	27574.15
848.8567	955.0491	28405.65	27546
849.0018	957.063	28406.1	27548.15
849.147	959.0763	28430.25	27572.45
849.2921	961.0888	28321.45	27461.45
849.4373	963.1007	28308	27447.25
849.5824	965.1119	28252.85	27393.7
849.7275	967.1223	28250.2	27389.95
849.8727	969.1321	28185	27327.1
850.0178	971.1412	28166.1	27307.3
850.1629	973.1495	28013.55	27154.05
850.3081	975.1572	28046	27138.85
850.4532	977.1641	27994.5	27134.5
850.5983	979.1704	27879.5	27018.1
850.7435	981.1759	27851.6	26989.5
850.8886	983.1808	27831.35	26969.45
851.0337	985.1849	27749.6	26881.8
851.1788	987.1884	27679.85	26814.55
851.324	989.1911	27664.65	26802.55
851.4691	991.1932	27584.9	26721.5
851.6142	993.1945	27494.2	26635.6
851.7593	995.1951	27390.25	26529.1
851.9045	997.1951	27343.7	26477.15
852.0496	999.1943	27216.2	26355.1
852.1947	1001.1928	27177.6	26315.75
852.3398	1003.1906	27050.8	26187.75
852.4849	1005.1877	27037.05	26174.2
852.63	1007.1841	26940.35	26076.85
852.7751	1009.1798	26898.6	26035.5
852.9202	1011.1748	26763.35	25901.9
853.0653	1013.1691	26732.95	25867.35
853.2104	1015.1627	26642.3	25779.4
853.3555	1017.1556	26426.55	25563.75
853.5006	1019.1477	26359.1	25495.15
853.6457	1021.1392	26217.1	25356.95
853.7908	1023.1299	26123.3	25259.75
853.9359	1025.12	26011.65	25148.45
854.081	1027.1093	25936.05	25074.6
854.2261	1029.0979	25895.95	25035.4
854.3712	1031.0859	25828.2	24965.85
854.5163	1033.0731	25770.8	24906.7
854.6613	1035.0596	25663.55	24800.55
854.8064	1037.0454	25574.9	24710.35
854.9515	1039.0304	25528.35	24664.55
855.0965	1041.0148	25387.15	24523.9
855.2416	1042.9985	25323.85	24458.95
855.3867	1044.9814	25284.45	24420.55
855.5317	1046.9636	25188.9	24321.35
855.6768	1048.9452	25084.95	24219.9
855.8219	1050.926	25076.3	24213.5
855.9669	1052.9061	25043.1	24181.25
856.112	1054.8855	24966.6	24103.35
856.257	1056.8642	24963.45	24099.4
856.4021	1058.8421	24931.35	24062.15
856.5471	1060.8194	24846.75	23982.25
856.6921	1062.7959	24780.9	23915.3
856.8372	1064.7717	24756.4	23888.9
856.9822	1066.7469	24725.5	23860.95
857.1272	1068.7213	24659.35	23789.25
857.2723	1070.695	24662.85	23798.9
857.4173	1072.6679	24583.35	23717.15
857.5623	1074.6402	24617.75	23750.4
857.7073	1076.6117	24593.25	23722.9
857.8523	1078.5826	24532.05	23664.9
857.9973	1080.5527	24444.65	23574.85
858.1423	1082.5221	24317.55	23450.65
858.2873	1084.4908	24243.85	23376.15
858.4323	1086.4587	24194.45	23327.9
858.5773	1088.426	24140.5	23273.55
858.7223	1090.3925	24056.8	23185.5
858.8673	1092.3584	24052.05	23185.45
859.0123	1094.3235	23926.45	23059.35
859.1573	1096.2879	23932.05	23063.95
859.3022	1098.2515	23922.1	23055
859.4472	1100.2145	23956.3	23090.25
859.5922	1102.1767	23885.9	23015.9
859.7371	1104.1382	23884.45	23016.15
859.8821	1106.099	23909.7	23041.9
860.027	1108.0591	23881.4	23016.95
860.172	1110.0185	23862.95	22993.2
860.3169	1111.9771	23900.5	23033.85
860.4619	1113.9351	23858.95	22989.1
860.6068	1115.8923	23869.5	23000.85
860.7517	1117.8488	23843.95	22975.65
860.8967	1119.8045	23706.35	22838.5
861.0416	1121.7596	23610.75	22743.2
861.1865	1123.7139	23405.05	22537.8
861.3314	1125.6675	23296.6	22428.25
861.4763	1127.6204	23307	22439.95
861.6212	1129.5726	23248.1	22376.65
861.7661	1131.524	23253.5	22386.5
861.911	1133.4748	23195.35	22326.05
862.0559	1135.4248	23056.75	22186.7
862.2008	1137.3741	22993.15	22124
862.3457	1139.3226	22887.9	22017.35
862.4905	1141.2705	22892.8	22026.45
862.6354	1143.2176	22766.3	21893.2
862.7803	1145.164	22768.75	21898.3
862.9251	1147.1097	22745.55	21877.15
863.07	1149.0546	22717.8	21847.8
863.2148	1150.9989	22717.5	21847.3
863.3597	1152.9424	22652.35	21781.85
863.5045	1154.8852	22549.25	21677.05
863.6493	1156.8272	22525.5	21657.3
863.7942	1158.7686	22531.65	21654.5
863.939	1160.7092	22463.6	21594.25
864.0838	1162.6491	22387.8	21516.35
864.2286	1164.5883	22392.75	21521
864.3734	1166.5267	22368.05	21499.55
864.5182	1168.4644	22371.9	21504.45
864.663	1170.4014	22371.3	21495.2
864.8078	1172.3377	22455.75	21588.05
864.9526	1174.2732	22427.8	21559.35
865.0974	1176.2081	22548	21677.85
865.2421	1178.1421	22629.2	21753
865.3869	1180.0755	22755.1	21887.25
865.5317	1182.0082	22741.1	21871.15
