Software Version:	3.9.2.0
Unit SN:	10000200
Spectrometer SN:	6960
Date:	3/6/2024 10:02:10 AM
Data Line Index:	25
Spectral Points:	2048
Integration time (ms):	125
Averages:	20
Delay (ms):	30
Sequence Number:	1
Processing:	dark subtract
Laser Power (mW):	305
Laser Current (mA):	825
Laser Diode Temp (C):	25.1
Laser Case Temp (C):	24.7
System Temp (C):	24.5
Spectrometer Temp (C):	22.2
CCD Temp (C):	0
Secondary Temp (C):	20.007
Heatsink Temp (C):	18.425
CCDPCB Temp (C):	31.371
SecondaryPCB Temp (C):	26.247

Wavelength	RamanShift	Raw Counts	Dark Subtracted
787.061	30.1047	724	316.9
787.2016	32.3739	747.65	339.3
787.3422	34.6426	755.8	348.75
787.4828	36.9109	782.75	373.05
787.6235	39.1787	811.85	399.4
787.7642	41.4461	839.7	422.25
787.9049	43.7131	869.2	449.25
788.0456	45.9796	899.55	474.15
788.1863	48.2456	929.55	502.95
788.3271	50.5112	962.45	529.6
788.4679	52.7764	996.35	561.1
788.6087	55.0411	1027.5	587.4
788.7496	57.3054	1073.6	628.2
788.8904	59.5692	1105.15	658.35
789.0313	61.8326	1158.6	709.15
789.1722	64.0955	1213.15	762.8
789.3132	66.3579	1268	811.2
789.4541	68.6199	1341.55	881.65
789.5951	70.8815	1473.9	1011.15
789.7361	73.1426	1754.6	1285.2
789.8771	75.4032	2479.7	2006.7
790.0181	77.6634	4311.75	3835.35
790.1592	79.9231	8900.85	8419.75
790.3003	82.1824	22102.25	21611.85
790.4414	84.4412	42857.75	42350.6
790.5825	86.6995	54933.7	54407.05
790.7237	88.9574	59296.35	58753.65
790.8648	91.2148	61760.3	61206.6
791.006	93.4717	62364.8	61801.05
791.1472	95.7282	62674.15	62105.25
791.2885	97.9842	62852.25	62279.3
791.4297	100.2398	62834.85	62261.6
791.571	102.4949	62847.55	62270.3
791.7123	104.7495	62856.2	62274.1
791.8536	107.0036	62766.45	62185.6
791.9949	109.2573	62934.05	62354.05
792.1363	111.5105	62838.6	62256.35
792.2777	113.7632	62888.15	62304.95
792.4191	116.0154	62959.7	62364.05
792.5605	118.2672	63052.6	62461.95
792.7019	120.5185	63062.7	62469.05
792.8434	122.7693	63081.9	62487.65
792.9849	125.0197	62931.25	62331.75
793.1264	127.2696	63193.7	62591.5
793.2679	129.519	63145.15	62535.65
793.4094	131.7679	63271.7	62660.8
793.551	134.0163	63020.75	62411.4
793.6926	136.2642	63142.85	62527.3
793.8342	138.5117	63277.05	62658.85
793.9758	140.7587	63217.55	62599.35
794.1175	143.0052	63227.9	62605.1
794.2591	145.2512	63098.25	62476.85
794.4008	147.4967	63279.3	62654.6
794.5425	149.7417	63221.35	62595.6
794.6842	151.9863	63228.2	62596.95
794.826	154.2304	63158.15	62521
794.9677	156.4739	63202.15	62560.4
795.1095	158.717	63335.4	62694
795.2513	160.9596	63251.85	62605.2
795.3931	163.2017	63120.65	62476.05
795.535	165.4433	63253.6	62600.8
795.6768	167.6844	63177	62527.4
795.8187	169.925	63255.3	62601.65
795.9606	172.1651	63170.7	62515.3
796.1025	174.4047	63247.7	62588.3
796.2445	176.6439	63223.8	62562.95
796.3864	178.8825	63178.5	62514.5
796.5284	181.1206	63326.15	62659.45
796.6704	183.3582	63294.15	62624.05
796.8124	185.5954	63250.2	62573.9
796.9544	187.832	63246.15	62567.85
797.0965	190.0681	63180.55	62498.1
797.2386	192.3037	63345.9	62659.25
797.3806	194.5388	63489.3	62801.05
797.5228	196.7734	63114.55	62424.3
797.6649	199.0075	63494.7	62804.5
797.807	201.2411	63326.8	62632.9
797.9492	203.4742	63548.25	62850.05
798.0914	205.7068	63485	62784.9
798.2336	207.9389	63470.3	62770.65
798.3758	210.1704	63462.9	62770.55
798.518	212.4015	63615.6	62931.95
798.6603	214.632	63442.6	62764.45
798.8025	216.862	63647	62970.05
798.9448	219.0915	63512.35	62836.7
799.0871	221.3205	63507.25	62827.5
799.2294	223.549	63656.6	62982.1
799.3718	225.777	63637.7	62958.75
799.5141	228.0044	63743.8	63057.4
799.6565	230.2314	63655.55	62965.85
799.7989	232.4578	63642.65	62950.7
799.9413	234.6837	63697.95	62996.85
800.0837	236.909	63986.4	63281.9
800.2262	239.1339	63578.6	62852
800.3687	241.3582	63774.9	63065.9
800.5111	243.582	63778.2	63039.85
800.6536	245.8053	63772.65	63047.15
800.7961	248.0281	63790.75	63067.95
800.9387	250.2503	63842.7	63112.95
801.0812	252.472	63695.6	62965.25
801.2238	254.6932	63806.9	63081.85
801.3664	256.9139	63735.6	63008.3
801.509	259.134	64006.3	63274.35
801.6516	261.3536	63728.65	62994.45
801.7942	263.5727	63872.4	63137.4
801.9369	265.7912	63808.85	63076.15
802.0795	268.0092	63835.2	63102
802.2222	270.2267	63874.7	63142
802.3649	272.4436	63726.65	62988.5
802.5076	274.6601	63871.05	63120.65
802.6504	276.8759	63932.55	63188.65
802.7931	279.0913	63843.85	63100.65
802.9359	281.3061	63912.8	63168.3
803.0787	283.5204	63913.55	63161.45
803.2215	285.7341	63923.25	63173.7
803.3643	287.9473	63993.3	63232.95
803.5071	290.16	63922.7	63169.1
803.6499	292.3721	63945.85	63197.6
803.7928	294.5837	63868.85	63119.75
803.9357	296.7947	63785.6	63035.9
804.0786	299.0052	63987.75	63235.4
804.2215	301.2152	63915.55	63160.2
804.3644	303.4246	63978.35	63228.5
804.5074	305.6334	63991.15	63236.85
804.6503	307.8418	63860.85	63105.4
804.7933	310.0495	63840.5	63081.7
804.9363	312.2568	63876.8	63119.9
805.0793	314.4635	63873	63114.75
805.2223	316.6696	63935.35	63173.45
805.3653	318.8752	63974.55	63204.4
805.5084	321.0802	63700.2	62936.35
805.6514	323.2847	63837.25	63069.35
805.7945	325.4887	63802.05	63037.3
805.9376	327.692	63775.9	63009.9
806.0807	329.8949	63845.6	63077.15
806.2238	332.0972	63770.9	63001
806.367	334.2989	63836.55	63061.75
806.5101	336.5001	63913.15	63137
806.6533	338.7007	63705.95	62930.7
806.7965	340.9008	63852.8	63076.65
806.9397	343.1003	63883.7	63106.85
807.0829	345.2992	63947.1	63169.65
807.2261	347.4976	63818.3	63036.85
807.3693	349.6955	63866.65	63081.45
807.5126	351.8927	63788.15	63005.5
807.6559	354.0895	63882.65	63086.1
807.7991	356.2856	63889	63105.75
807.9424	358.4812	63944.2	63156.2
808.0857	360.6763	63756.25	62964.65
808.2291	362.8707	63949.15	63157.55
808.3724	365.0646	63832	63036.15
808.5158	367.258	63826.25	63029.7
808.6591	369.4508	63724	62926.1
808.8025	371.643	63922.1	63124.65
808.9459	373.8346	63808.25	63010
809.0893	376.0257	63840.45	63033.05
809.2327	378.2162	63821.55	63016.6
809.3762	380.4062	63662.05	62861.85
809.5196	382.5956	63808.9	63005.75
809.6631	384.7844	63783.3	62986.25
809.8066	386.9726	63860.85	63065.45
809.9501	389.1603	63824.35	63030.65
810.0936	391.3474	63737.65	62912.25
810.2371	393.5339	63821.4	63019.3
810.3806	395.7199	63637.5	62839.9
810.5241	397.9052	63666.15	62870.7
810.6677	400.09	63726.35	62933.55
810.8113	402.2743	63839.1	63043
810.9548	404.4579	63670.05	62874.05
811.0984	406.641	63696.35	62895.6
811.2421	408.8235	63764.05	62962.3
811.3857	411.0054	63796.5	62989.65
811.5293	413.1868	63818.3	63011.85
811.673	415.3675	63712	62899.7
811.8166	417.5477	63729.7	62918.65
811.9603	419.7273	63720.1	62906.65
812.104	421.9064	63707.6	62887
812.2477	424.0848	63721.3	62904.25
812.3914	426.2627	63847.6	63031.3
812.5351	428.4399	63670.45	62857.6
812.6788	430.6166	63522.7	62703
812.8226	432.7928	63706.85	62886.8
812.9663	434.9683	63571.2	62750.3
813.1101	437.1432	63587.55	62763.45
813.2539	439.3176	63698.7	62879.5
813.3977	441.4914	63497.55	62680.85
813.5415	443.6645	63507.3	62690.95
813.6853	445.8371	63536.45	62716.6
813.8291	448.0091	63469.5	62644.65
813.973	450.1806	63409.9	62588.35
814.1168	452.3514	63449.35	62626.55
814.2607	454.5216	63338.8	62509.45
814.4046	456.6913	63457.45	62631.55
814.5485	458.8603	63468.65	62646.15
814.6924	461.0288	63326.1	62503.2
814.8363	463.1967	63441.85	62621.65
814.9802	465.3639	63413.35	62590.3
815.1241	467.5306	63187.25	62360.8
815.2681	469.6967	63321.3	62496.7
815.412	471.8622	63386.5	62565.9
815.556	474.0271	63279.2	62454.95
815.7	476.1914	63323.8	62495.05
815.844	478.3551	63348.2	62519.5
815.988	480.5182	63494.5	62667.95
816.132	482.6807	63280.2	62456.5
816.276	484.8426	63307.25	62483.65
816.4201	487.0039	63437.2	62612.9
816.5641	489.1647	63445.05	62616.2
816.7082	491.3248	63252.95	62422.2
816.8522	493.4843	63454.05	62625.85
816.9963	495.6432	63464.8	62637.75
817.1404	497.8015	63258.5	62422.7
817.2845	499.9592	63394.5	62558.6
817.4286	502.1163	63350.15	62513.8
817.5727	504.2728	63356.7	62521.45
817.7168	506.4287	63349.6	62520.2
817.861	508.5839	63239.4	62406.95
818.0051	510.7386	63305.4	62471.65
818.1493	512.8927	63359.15	62518.3
818.2935	515.0461	63316.75	62478.25
818.4377	517.199	63410.5	62571.4
818.5818	519.3512	63313.2	62474.85
818.726	521.5029	63296.6	62451.35
818.8703	523.6539	63311.85	62469.6
819.0145	525.8043	63186.65	62343.55
819.1587	527.9541	63315.75	62468
819.303	530.1033	63287.1	62442.6
819.4472	532.2519	63217.35	62374.55
819.5915	534.3999	63291.6	62443.6
819.7357	536.5472	63359.7	62514.15
819.88	538.694	63164.05	62322.35
820.0243	540.8401	63270.3	62425.1
820.1686	542.9856	63280.25	62432.95
820.3129	545.1305	63367.75	62513.9
820.4572	547.2748	63245.95	62393.6
820.6016	549.4185	63225.25	62371.85
820.7459	551.5615	63340.15	62487.9
820.8902	553.704	63302.65	62449.65
821.0346	555.8458	63227.3	62376.6
821.1789	557.987	63232.85	62383.85
821.3233	560.1276	63275.15	62422.85
821.4677	562.2675	63223.4	62375.35
821.6121	564.4069	63228.55	62379.6
821.7565	566.5456	63313.75	62462.2
821.9009	568.6837	63182.3	62332.55
822.0453	570.8212	63234.1	62383.45
822.1897	572.958	63046.55	62194.8
822.3342	575.0942	63211.5	62358.55
822.4786	577.2299	63104.15	62254.8
822.6231	579.3648	63062.75	62217.95
822.7675	581.4992	63026.75	62187.5
822.912	583.6329	63011.2	62171.5
823.0565	585.766	63018.5	62173.1
823.201	587.8985	63033.15	62185.75
823.3454	590.0304	62880.05	62004.35
823.4899	592.1616	62996.9	62140.45
823.6345	594.2922	62906.8	62050.75
823.779	596.4222	62834.85	61978.15
823.9235	598.5515	62856.9	62000.35
824.068	600.6802	62934	62075.15
824.2126	602.8083	62814.2	61958.45
824.3571	604.9358	62806.4	61949.7
824.5017	607.0626	62890.65	62029.5
824.6462	609.1888	62747.05	61885.35
824.7908	611.3144	62819.75	61955.1
824.9354	613.4393	62759.6	61900
825.08	615.5636	62706.45	61842.95
825.2246	617.6873	62780.95	61918
825.3692	619.8103	62684.15	61821.9
825.5138	621.9327	62772.95	61908.2
825.6584	624.0544	62792.25	61933.95
825.803	626.1756	62692.35	61831.85
825.9477	628.2961	62702.65	61838.85
826.0923	630.4159	62643.05	61776.7
826.237	632.5351	62601.45	61737.4
826.3816	634.6537	62759.6	61892.85
826.5263	636.7716	62609.3	61741.45
826.6709	638.8889	62647.15	61774.4
826.8156	641.0056	62627.8	61761.2
826.9603	643.1216	62669.85	61802.55
827.105	645.237	62713.95	61845.5
827.2497	647.3518	62577.4	61712.9
827.3944	649.4659	62634.95	61771.5
827.5391	651.5793	62644.8	61783.35
827.6838	653.6922	62655.1	61792.1
827.8285	655.8043	62486.35	61621.2
827.9733	657.9159	62681.2	61816.5
828.118	660.0268	62332.05	61465.55
828.2627	662.137	62521.1	61651.2
828.4075	664.2466	62557	61684.55
828.5522	666.3556	62485.9	61616.05
828.697	668.4639	62541.4	61668.85
828.8418	670.5716	62436.6	61568.8
828.9865	672.6786	62507	61635.25
829.1313	674.785	62363.4	61491.7
829.2761	676.8907	62374.4	61503.25
829.4209	678.9958	62437.5	61570.05
829.5657	681.1002	62457.6	61585.45
829.7105	683.204	62322.35	61446
829.8553	685.3072	62262.4	61384.45
830.0001	687.4097	62280.35	61409.7
830.1449	689.5115	62257.8	61383.2
830.2898	691.6127	62345.5	61472.75
830.4346	693.7132	62238.25	61365.45
830.5794	695.8131	62296.15	61397.6
830.7243	697.9123	62298.55	61422.3
830.8691	700.0109	62310.2	61434.35
831.014	702.1089	62146.2	61269.25
831.1588	704.2061	62195.5	61316.95
831.3037	706.3028	62212.55	61334.7
831.4486	708.3987	62211.5	61333.05
831.5935	710.4941	62148.7	61273.65
831.7383	712.5887	62223	61345.35
831.8832	714.6827	62137.9	61258.65
832.0281	716.7761	62194.25	61321.7
832.173	718.8688	62187.8	61310.65
832.3179	720.9608	62088.85	61205.35
832.4628	723.0522	62136.15	61251.15
832.6077	725.1429	62031.7	61150.15
832.7527	727.233	62268.35	61386.4
832.8976	729.3224	61931.7	61049.95
833.0425	731.4112	62040.05	61155.95
833.1874	733.4993	62041.6	61157.75
833.3324	735.5867	62018.9	61135.8
833.4773	737.6735	61947.3	61067.1
833.6222	739.7596	61876.3	60995.5
833.7672	741.845	61863.85	60979.85
833.9122	743.9298	61916.7	61033.9
834.0571	746.014	61862.45	60980.9
834.2021	748.0974	61761.85	60877.65
834.347	750.1802	61858.95	60972.9
834.492	752.2624	61692.7	60810.2
834.637	754.3439	61715.95	60829.95
834.782	756.4247	61715.5	60821
834.9269	758.5048	61626.6	60741.35
835.0719	760.5843	61621.75	60736.45
835.2169	762.6631	61633.75	60748.05
835.3619	764.7413	61607	60722.95
835.5069	766.8188	61605.95	60719.75
835.6519	768.8956	61624.75	60736.65
835.7969	770.9718	61615.55	60729.1
835.9419	773.0473	61565.55	60679.15
836.0869	775.1221	61484.4	60599.8
836.232	777.1962	61464.05	60577.5
836.377	779.2697	61380.65	60494.6
836.522	781.3426	61389.9	60483.75
836.667	783.4147	61375.65	60483.45
836.8121	785.4862	61334.25	60449.3
836.9571	787.557	61306.5	60419.2
837.1021	789.6271	61374.35	60483.35
837.2472	791.6966	61281.6	60394.05
837.3922	793.7654	61194.45	60305.5
837.5373	795.8335	61183.95	60295.3
837.6823	797.901	61186.5	60300.3
837.8274	799.9678	61128.05	60237.25
837.9724	802.0339	61114.7	60225.55
838.1175	804.0993	61095.55	60194.4
838.2626	806.1641	61076.55	60185.65
838.4076	808.2282	61023.45	60132.65
838.5527	810.2916	61022.55	60130.2
838.6978	812.3544	61040.4	60154.7
838.8428	814.4164	60953.75	60066.35
838.9879	816.4778	60996.05	60103.35
839.133	818.5385	60934.7	60044.15
839.2781	820.5986	60934.25	60042.9
839.4232	822.658	60938.65	60047.2
839.5682	824.7166	60888.7	59999.3
839.7133	826.7747	60897.25	60004.8
839.8584	828.832	60923.7	60031.75
840.0035	830.8886	60866	59974.65
840.1486	832.9446	60859.85	59964.15
840.2937	834.9999	60768.05	59878.5
840.4388	837.0545	60803.4	59905.65
840.5839	839.1085	60791.35	59899.15
840.729	841.1618	60783.9	59888.15
840.8741	843.2143	60700.05	59810.6
841.0192	845.2662	60651.5	59759.1
841.1643	847.3175	60682.3	59789.7
841.3095	849.368	60570.05	59675.65
841.4546	851.4179	60630.05	59737.35
841.5997	853.467	60525.85	59632.55
841.7448	855.5155	60551.85	59656.95
841.8899	857.5633	60475.05	59583.2
842.0351	859.6105	60432.4	59538.7
842.1802	861.6569	60479.95	59588.7
842.3253	863.7027	60348.85	59452.95
842.4704	865.7478	60367.9	59471.15
842.6156	867.7922	60347.3	59452.1
842.7607	869.8359	60357.75	59459.15
842.9058	871.8789	60265.25	59369.75
843.0509	873.9212	60289	59363.1
843.1961	875.9629	60284.8	59386.35
843.3412	878.0039	60272.5	59376.9
843.4863	880.0441	60238.65	59344.15
843.6315	882.0837	60241.95	59345.85
843.7766	884.1226	60209.4	59312.25
843.9218	886.1609	60183.3	59288.4
844.0669	888.1984	60150.15	59254.2
844.212	890.2352	60246.6	59349.9
844.3572	892.2714	60108.6	59207.15
844.5023	894.3069	60160.2	59259.35
844.6475	896.3416	60083.95	59187.95
844.7926	898.3757	60081.15	59184.4
844.9377	900.4091	59911.25	59016.55
845.0829	902.4418	60049.8	59147.5
845.228	904.4739	59954	59052.6
845.3732	906.5052	59971.4	59073.75
845.5183	908.5358	59888.6	58988.7
845.6635	910.5658	59825.05	58921.45
845.8086	912.595	59804.15	58905.95
845.9538	914.6236	59692	58792.9
846.0989	916.6515	59850.25	58953.7
846.2441	918.6786	59644.55	58743.3
846.3892	920.7051	59651.1	58750
846.5344	922.7309	59621.2	58722
846.6795	924.756	59620.15	58720.75
846.8246	926.7804	59573.65	58674.25
846.9698	928.8041	59370.05	58469.1
847.1149	930.8272	59462.1	58564.3
847.2601	932.8495	59398.9	58499
847.4052	934.8711	59325.4	58422.25
847.5504	936.892	59230.7	58330.05
847.6955	938.9123	59239.8	58336.65
847.8407	940.9318	59174.7	58275.3
847.9858	942.9506	59117.6	58218.8
848.131	944.9688	59118.75	58218.9
848.2761	946.9862	58995.75	58092.75
848.4213	949.003	58970.95	58069.65
848.5664	951.019	58825.55	57925.7
848.7115	953.0344	58857.35	57956.5
848.8567	955.0491	58809.3	57908.35
849.0018	957.063	58841.7	57943.35
849.147	959.0763	58852.65	57955.15
849.2921	961.0888	58742.2	57840.5
849.4373	963.1007	58787.55	57888.4
849.5824	965.1119	58769.05	57873.6
849.7275	967.1223	58690.3	57792.75
849.8727	969.1321	58744.45	57850.15
850.0178	971.1412	58657.8	57763.5
850.1629	973.1495	58597.65	57700.35
850.3081	975.1572	58621.3	57682.15
850.4532	977.1641	58567.55	57667.2
850.5983	979.1704	58459.85	57560.1
850.7435	981.1759	58474.55	57571.35
850.8886	983.1808	58412.5	57510.15
851.0337	985.1849	58404.65	57495.2
851.1788	987.1884	58389.45	57486.1
851.324	989.1911	58399.3	57495.75
851.4691	991.1932	58269.5	57366.9
851.6142	993.1945	58230.3	57329.25
851.7593	995.1951	58211.5	57309.45
851.9045	997.1951	58143.3	57234.25
852.0496	999.1943	58075.8	57174.45
852.1947	1001.1928	58008.4	57104
852.3398	1003.1906	57962.85	57063.25
852.4849	1005.1877	57903.9	57001.25
852.63	1007.1841	57842.25	56941.65
852.7751	1009.1798	57829.15	56927
852.9202	1011.1748	57744.1	56843.35
853.0653	1013.1691	57698.45	56794.75
853.2104	1015.1627	57540.95	56640.35
853.3555	1017.1556	57512.95	56612.7
853.5006	1019.1477	57534.9	56632.75
853.6457	1021.1392	57414.85	56517.2
853.7908	1023.1299	57322.5	56427.6
853.9359	1025.12	57303.3	56408.15
854.081	1027.1093	57221.65	56329.8
854.2261	1029.0979	57167.6	56278.3
854.3712	1031.0859	57124	56231
854.5163	1033.0731	57039.1	56143.9
854.6613	1035.0596	57030	56133.6
854.8064	1037.0454	56998.7	56099.4
854.9515	1039.0304	56920.85	56020.4
855.0965	1041.0148	56803.95	55904.05
855.2416	1042.9985	56773.3	55870.2
855.3867	1044.9814	56836.6	55936.65
855.5317	1046.9636	56688.05	55784
855.6768	1048.9452	56655.05	55756.1
855.8219	1050.926	56630.55	55732.15
855.9669	1052.9061	56597.4	55695.25
856.112	1054.8855	56574.55	55672.45
856.257	1056.8642	56521.2	55619.85
856.4021	1058.8421	56468.5	55560.6
856.5471	1060.8194	56458.6	55557.7
856.6921	1062.7959	56366.25	55462.95
856.8372	1064.7717	56444.6	55540.7
856.9822	1066.7469	56385.2	55479.7
857.1272	1068.7213	56344.65	55440.25
857.2723	1070.695	56262.15	55360.35
857.4173	1072.6679	56175	55273.85
857.5623	1074.6402	56216.9	55314.9
857.7073	1076.6117	56134.1	55225.25
857.8523	1078.5826	56154.25	55249.2
857.9973	1080.5527	56140.5	55234.3
858.1423	1082.5221	56043.85	55140.15
858.2873	1084.4908	56024.7	55119.05
858.4323	1086.4587	55972.35	55069.9
858.5773	1088.426	55905.1	55003.55
858.7223	1090.3925	55869.3	54962.35
858.8673	1092.3584	55894.45	54994.4
859.0123	1094.3235	55756.1	54854
859.1573	1096.2879	55726.45	54823.3
859.3022	1098.2515	55724.2	54822.1
859.4472	1100.2145	55714.3	54814.2
859.5922	1102.1767	55652.45	54747.5
859.7371	1104.1382	55639.15	54735.75
859.8821	1106.099	55631.9	54729.45
860.027	1108.0591	55555.1	54652.6
860.172	1110.0185	55459.35	54555.65
860.3169	1111.9771	55549.75	54647
860.4619	1113.9351	55435.45	54534.6
860.6068	1115.8923	55349.55	54448.15
860.7517	1117.8488	55303.05	54397.8
860.8967	1119.8045	55196.9	54293.5
861.0416	1121.7596	55175.55	54276.4
861.1865	1123.7139	55163.75	54262
861.3314	1125.6675	55138.7	54236.75
861.4763	1127.6204	55124.6	54219.15
861.6212	1129.5726	55016.95	54112.45
861.7661	1131.524	55040.3	54140
861.911	1133.4748	55024.85	54121.05
862.0559	1135.4248	54896.9	53993.85
862.2008	1137.3741	54849.75	53948.3
862.3457	1139.3226	54850.6	53947.6
862.4905	1141.2705	54824.75	53924.65
862.6354	1143.2176	54732.5	53824.2
862.7803	1145.164	54653.2	53748
862.9251	1147.1097	54660.8	53758.6
863.07	1149.0546	54684.75	53780.7
863.2148	1150.9989	54674.55	53773.3
863.3597	1152.9424	54566.5	53662
863.5045	1154.8852	54630.35	53727.6
863.6493	1156.8272	54520.65	53619.65
863.7942	1158.7686	54568.75	53657.75
863.939	1160.7092	54419.45	53516.85
864.0838	1162.6491	54396.25	53491.15
864.2286	1164.5883	54412.9	53507.65
864.3734	1166.5267	54307.9	53403.9
864.5182	1168.4644	54389.45	53486.55
864.663	1170.4014	54335.45	53430.1
864.8078	1172.3377	54351.55	53449.75
864.9526	1174.2732	54388.2	53484.9
865.0974	1176.2081	54363.6	53463.75
865.2421	1178.1421	54338.9	53432.8
865.3869	1180.0755	54400.85	53496.95
