Software Version:	3.9.2.0
Unit SN:	10000200
Spectrometer SN:	6960
Date:	3/6/2024 10:10:47 AM
Data Line Index:	25
Spectral Points:	2048
Integration time (ms):	125
Averages:	20
Delay (ms):	30
Sequence Number:	1
Processing:	dark subtract
Laser Power (mW):	305
Laser Current (mA):	826
Laser Diode Temp (C):	25.1
Laser Case Temp (C):	24.9
System Temp (C):	24.7
Spectrometer Temp (C):	22.3
CCD Temp (C):	0
Secondary Temp (C):	20.006
Heatsink Temp (C):	18.61
CCDPCB Temp (C):	31.271
SecondaryPCB Temp (C):	25.636

Wavelength	RamanShift	Raw Counts	Dark Subtracted
787.061	30.1047	935.4	525.15
787.2016	32.3739	961.95	554.55
787.3422	34.6426	993.9	586.5
787.4828	36.9109	1023	612.5
787.6235	39.1787	1066.85	652.75
787.7642	41.4461	1120.3	702.8
787.9049	43.7131	1167.15	745.3
788.0456	45.9796	1202.35	778.85
788.1863	48.2456	1260.25	833.4
788.3271	50.5112	1312.35	881.4
788.4679	52.7764	1370.35	937.15
788.6087	55.0411	1418.6	980.85
788.7496	57.3054	1488.3	1043.85
788.8904	59.5692	1558.85	1112.8
789.0313	61.8326	1627.9	1178.85
789.1722	64.0955	1703.2	1253.05
789.3132	66.3579	1800.1	1343
789.4541	68.6199	1918.5	1459.45
789.5951	70.8815	2120.45	1655.2
789.7361	73.1426	2543.55	2074.05
789.8771	75.4032	3652	3179.95
790.0181	77.6634	6513.65	6036.3
790.1592	79.9231	13809.35	13326.3
790.3003	82.1824	40591.45	40096.75
790.4414	84.4412	63092.2	62573.3
790.5825	86.6995	64565.9	64019
790.7237	88.9574	65231	64662.85
790.8648	91.2148	65535	64947.5
791.006	93.4717	65535	64944.05
791.1472	95.7282	65535	64934.25
791.2885	97.9842	65535	64928.95
791.4297	100.2398	65535	64925.6
791.571	102.4949	65535	64924.25
791.7123	104.7495	65535	64920.95
791.8536	107.0036	65535	64917.65
791.9949	109.2573	65535	64923.15
792.1363	111.5105	65535	64919.65
792.2777	113.7632	65535	64915.9
792.4191	116.0154	65535	64906.4
792.5605	118.2672	65535	64910
792.7019	120.5185	65535	64910.35
792.8434	122.7693	65535	64905.4
792.9849	125.0197	65535	64900.8
793.1264	127.2696	65535	64894.4
793.2679	129.519	65535	64896.2
793.4094	131.7679	65535	64891.55
793.551	134.0163	65535	64888
793.6926	136.2642	65535	64884.9
793.8342	138.5117	65535	64882.25
793.9758	140.7587	65535	64882.2
794.1175	143.0052	65535	64875.8
794.2591	145.2512	65535	64878.95
794.4008	147.4967	65535	64879.3
794.5425	149.7417	65535	64874.8
794.6842	151.9863	65535	64869.05
794.826	154.2304	65535	64864.05
794.9677	156.4739	65535	64857.55
795.1095	158.717	65535	64859.6
795.2513	160.9596	65535	64856.3
795.3931	163.2017	65535	64856.35
795.535	165.4433	65535	64854.45
795.6768	167.6844	65535	64849.4
795.8187	169.925	65535	64847.25
795.9606	172.1651	65535	64848.6
796.1025	174.4047	65535	64841.45
796.2445	176.6439	65535	64840.25
796.3864	178.8825	65535	64839.25
796.5284	181.1206	65535	64833.2
796.6704	183.3582	65535	64828.15
796.8124	185.5954	65535	64827.55
796.9544	187.832	65535	64822.3
797.0965	190.0681	65535	64822.15
797.2386	192.3037	65535	64813.9
797.3806	194.5388	65535	64816.95
797.5228	196.7734	65535	64812.35
797.6649	199.0075	65535	64811.55
797.807	201.2411	65535	64810.6
797.9492	203.4742	65535	64809.8
798.0914	205.7068	65535	64805.3
798.2336	207.9389	65535	64803
798.3758	210.1704	65535	64807.7
798.518	212.4015	65535	64815.75
798.6603	214.632	65535	64823.4
798.8025	216.862	65535	64825
798.9448	219.0915	65535	64820.6
799.0871	221.3205	65535	64821.7
799.2294	223.549	65535	64826.75
799.3718	225.777	65535	64825.2
799.5141	228.0044	65535	64818.7
799.6565	230.2314	65535	64815.7
799.7989	232.4578	65535	64811.55
799.9413	234.6837	65535	64803.3
800.0837	236.909	65535	64803.85
800.2262	239.1339	65535	64779.3
800.3687	241.3582	65535	64785.6
800.5111	243.582	65535	64756.2
800.6536	245.8053	65535	64777.5
800.7961	248.0281	65535	64777.95
800.9387	250.2503	65535	64778
801.0812	252.472	65535	64773.45
801.2238	254.6932	65535	64774.9
801.3664	256.9139	65535	64775.8
801.509	259.134	65535	64767
801.6516	261.3536	65535	64770.45
801.7942	263.5727	65535	64767.9
801.9369	265.7912	65535	64768.7
802.0795	268.0092	65535	64768.85
802.2222	270.2267	65535	64770.75
802.3649	272.4436	65535	64763.7
802.5076	274.6601	65535	64756.3
802.6504	276.8759	65535	64760.25
802.7931	279.0913	65535	64758.15
802.9359	281.3061	65535	64756.65
803.0787	283.5204	65535	64753.8
803.2215	285.7341	65535	64753.4
803.3643	287.9473	65535	64741.5
803.5071	290.16	65535	64751.05
803.6499	292.3721	65535	64755.45
803.7928	294.5837	65535	64753.75
803.9357	296.7947	65535	64754.2
804.0786	299.0052	65535	64750.75
804.2215	301.2152	65535	64753.25
804.3644	303.4246	65535	64757
804.5074	305.6334	65535	64751.25
804.6503	307.8418	65535	64750.2
804.7933	310.0495	65535	64746.1
804.9363	312.2568	65535	64746.55
805.0793	314.4635	65535	64746.4
805.2223	316.6696	65535	64740.5
805.3653	318.8752	65535	64734.45
805.5084	321.0802	65535	64736.35
805.6514	323.2847	65535	64737.85
805.7945	325.4887	65535	64738.3
805.9376	327.692	65535	64734.6
806.0807	329.8949	65535	64732.3
806.2238	332.0972	65535	64733.05
806.367	334.2989	65535	64729.25
806.5101	336.5001	65535	64731.55
806.6533	338.7007	65535	64727.65
806.7965	340.9008	65535	64729.25
806.9397	343.1003	65535	64726.05
807.0829	345.2992	65535	64730.2
807.2261	347.4976	65535	64724
807.3693	349.6955	65535	64720.15
807.5126	351.8927	65535	64721.35
807.6559	354.0895	65535	64708.05
807.7991	356.2856	65535	64716.95
807.9424	358.4812	65535	64716.95
808.0857	360.6763	65535	64715.85
808.2291	362.8707	65535	64713.7
808.3724	365.0646	65535	64709.95
808.5158	367.258	65535	64710.8
808.6591	369.4508	65535	64707.75
808.8025	371.643	65535	64708.35
808.9459	373.8346	65535	64705
809.0893	376.0257	65535	64703.35
809.2327	378.2162	65535	64702.1
809.3762	380.4062	65535	64703.6
809.5196	382.5956	65535	64703.45
809.6631	384.7844	65535	64712.3
809.8066	386.9726	65535	64712.65
809.9501	389.1603	65535	64712
810.0936	391.3474	65535	64672.3
810.2371	393.5339	65535	64710.2
810.3806	395.7199	65535	64708.8
810.5241	397.9052	65535	64712.75
810.6677	400.09	65535	64708.85
810.8113	402.2743	65535	64711.85
810.9548	404.4579	65535	64712.5
811.0984	406.641	65535	64700.8
811.2421	408.8235	65535	64705.5
811.3857	411.0054	65535	64704.1
811.5293	413.1868	65535	64697.35
811.673	415.3675	65535	64693.5
811.8166	417.5477	65535	64695.25
811.9603	419.7273	65535	64692.25
812.104	421.9064	65535	64684.65
812.2477	424.0848	65535	64693.75
812.3914	426.2627	65535	64694.4
812.5351	428.4399	65535	64690.35
812.6788	430.6166	65535	64685.05
812.8226	432.7928	65535	64684.3
812.9663	434.9683	65535	64689.05
813.1101	437.1432	65535	64686.85
813.2539	439.3176	65535	64688.65
813.3977	441.4914	65535	64692.4
813.5415	443.6645	65535	64687.3
813.6853	445.8371	65535	64687.55
813.8291	448.0091	65535	64687.95
813.973	450.1806	65535	64685.8
814.1168	452.3514	65535	64689.35
814.2607	454.5216	65535	64678.5
814.4046	456.6913	65535	64686.25
814.5485	458.8603	65535	64686.7
814.6924	461.0288	65535	64690.35
814.8363	463.1967	65535	64689.75
814.9802	465.3639	65535	64685.45
815.1241	467.5306	65535	64687.2
815.2681	469.6967	65535	64688.1
815.412	471.8622	65535	64687.15
815.556	474.0271	65535	64683.95
815.7	476.1914	65535	64679.65
815.844	478.3551	65535	64681.05
815.988	480.5182	65535	64683.9
816.132	482.6807	65535	64686.2
816.276	484.8426	65535	64691.15
816.4201	487.0039	65535	64686
816.5641	489.1647	65535	64681.5
816.7082	491.3248	65535	64682.85
816.8522	493.4843	65535	64681.4
816.9963	495.6432	65535	64680.95
817.1404	497.8015	65535	64677.85
817.2845	499.9592	65535	64674.4
817.4286	502.1163	65535	64670.35
817.5727	504.2728	65535	64678.05
817.7168	506.4287	65535	64682.65
817.861	508.5839	65535	64681.45
818.0051	510.7386	65535	64679.7
818.1493	512.8927	65535	64672.75
818.2935	515.0461	65535	64673.7
818.4377	517.199	65535	64670.5
818.5818	519.3512	65535	64671.25
818.726	521.5029	65535	64668
818.8703	523.6539	65535	64668.8
819.0145	525.8043	65535	64668.05
819.1587	527.9541	65535	64667.2
819.303	530.1033	65535	64666.45
819.4472	532.2519	65535	64671.85
819.5915	534.3999	65535	64666.6
819.7357	536.5472	65535	64664.55
819.88	538.694	65535	64669.1
820.0243	540.8401	65535	64665.35
820.1686	542.9856	65535	64662.65
820.3129	545.1305	65535	64658.25
820.4572	547.2748	65535	64654.35
820.6016	549.4185	65535	64655.95
820.7459	551.5615	65535	64652.8
820.8902	553.704	65535	64657
821.0346	555.8458	65535	64660.35
821.1789	557.987	65535	64661.75
821.3233	560.1276	65535	64658.7
821.4677	562.2675	65535	64660.15
821.6121	564.4069	65535	64659.05
821.7565	566.5456	65535	64664.4
821.9009	568.6837	65535	64662.6
822.0453	570.8212	65535	64660.15
822.1897	572.958	65535	64657.4
822.3342	575.0942	65535	64664.4
822.4786	577.2299	65535	64664.75
822.6231	579.3648	65535	64670.9
822.7675	581.4992	65535	64673.3
822.912	583.6329	65535	64675
823.0565	585.766	65535	64669.9
823.201	587.8985	65535	64667.65
823.3454	590.0304	65535	64641.6
823.4899	592.1616	65535	64657.05
823.6345	594.2922	65535	64654.35
823.779	596.4222	65535	64649
823.9235	598.5515	65535	64651.05
824.068	600.6802	65535	64650.9
824.2126	602.8083	65535	64654.7
824.3571	604.9358	65535	64650.95
824.5017	607.0626	65535	64651.55
824.6462	609.1888	65535	64646.7
824.7908	611.3144	65535	64650.5
824.9354	613.4393	65535	64649.05
825.08	615.5636	65535	64650.2
825.2246	617.6873	65535	64646.8
825.3692	619.8103	65535	64645.5
825.5138	621.9327	65535	64647.3
825.6584	624.0544	65535	64656.75
825.803	626.1756	65535	64653.95
825.9477	628.2961	65535	64648.65
826.0923	630.4159	65535	64648.9
826.237	632.5351	65535	64646.95
826.3816	634.6537	65535	64643.25
826.5263	636.7716	65535	64642.15
826.6709	638.8889	65535	64641.75
826.8156	641.0056	65535	64642.5
826.9603	643.1216	65535	64640.45
827.105	645.237	65535	64644.65
827.2497	647.3518	65535	64646.15
827.3944	649.4659	65535	64652.75
827.5391	651.5793	65535	64651.65
827.6838	653.6922	65535	64654.55
827.8285	655.8043	65535	64650.8
827.9733	657.9159	65535	64647.45
828.118	660.0268	65535	64645.3
828.2627	662.137	65535	64644
828.4075	664.2466	65535	64639.8
828.5522	666.3556	65535	64640.9
828.697	668.4639	65535	64642.9
828.8418	670.5716	65535	64646.3
828.9865	672.6786	65535	64643.85
829.1313	674.785	65535	64639.2
829.2761	676.8907	65535	64641.75
829.4209	678.9958	65535	64646.2
829.5657	681.1002	65535	64642.4
829.7105	683.204	65535	64636.1
829.8553	685.3072	65535	64637.35
830.0001	687.4097	65535	64640.15
830.1449	689.5115	65535	64638.55
830.2898	691.6127	65535	64639.8
830.4346	693.7132	65535	64641.1
830.5794	695.8131	65535	64621.35
830.7243	697.9123	65535	64638.3
830.8691	700.0109	65535	64632
831.014	702.1089	65535	64638.25
831.1588	704.2061	65535	64638.8
831.3037	706.3028	65535	64635.6
831.4486	708.3987	65535	64636.5
831.5935	710.4941	65535	64637.45
831.7383	712.5887	65535	64639.9
831.8832	714.6827	65535	64629.55
832.0281	716.7761	65535	64640.8
832.173	718.8688	65535	64633.2
832.3179	720.9608	65535	64631.4
832.4628	723.0522	65535	64627.85
832.6077	725.1429	65535	64633.85
832.7527	727.233	65535	64634.15
832.8976	729.3224	65535	64637.1
833.0425	731.4112	65535	64634.85
833.1874	733.4993	65535	64631.9
833.3324	735.5867	65535	64631.8
833.4773	737.6735	65535	64633.85
833.6222	739.7596	65535	64630.05
833.7672	741.845	65535	64630.8
833.9122	743.9298	65535	64629.2
834.0571	746.014	65535	64630.5
834.2021	748.0974	65535	64629.2
834.347	750.1802	65535	64625.45
834.492	752.2624	65535	64625.8
834.637	754.3439	65535	64629.25
834.782	756.4247	65535	64619.75
834.9269	758.5048	65535	64631.35
835.0719	760.5843	65535	64628.75
835.2169	762.6631	65535	64626.55
835.3619	764.7413	65535	64630
835.5069	766.8188	65535	64625.35
835.6519	768.8956	65535	64626.75
835.7969	770.9718	65535	64627.8
835.9419	773.0473	65535	64630.6
836.0869	775.1221	65535	64628.9
836.232	777.1962	65535	64627.7
836.377	779.2697	65535	64627.55
836.522	781.3426	65535	64607.6
836.667	783.4147	65535	64624.85
836.8121	785.4862	65535	64628.4
836.9571	787.557	65535	64623.45
837.1021	789.6271	65535	64624.55
837.2472	791.6966	65535	64623.2
837.3922	793.7654	65534.35	64623.15
837.5373	795.8335	65535	64626.8
837.6823	797.901	65535	64625.55
837.8274	799.9678	65535	64621.35
837.9724	802.0339	65535	64627.4
838.1175	804.0993	65535	64613.25
838.2626	806.1641	65532.2	64624.8
838.4076	808.2282	65531.8	64622
838.5527	810.2916	65526.85	64614.9
838.6978	812.3544	65535	64627.15
838.8428	814.4164	65524	64615.85
838.9879	816.4778	65519.65	64607
839.133	818.5385	65524.45	64612.3
839.2781	820.5986	65525.9	64614.2
839.4232	822.658	65527.4	64617.35
839.5682	824.7166	65529.45	64617.95
839.7133	826.7747	65515.25	64605.15
839.8584	828.832	65518.45	64603.45
840.0035	830.8886	65524.85	64609.55
840.1486	832.9446	65525.3	64610.6
840.2937	834.9999	65465.15	64555.3
840.4388	837.0545	65506.4	64589.05
840.5839	839.1085	65523.85	64611.2
840.729	841.1618	65511	64593.35
840.8741	843.2143	65458	64544.45
841.0192	845.2662	65458.05	64543.85
841.1643	847.3175	65489.05	64576.1
841.3095	849.368	65421.65	64508.25
841.4546	851.4179	65494.7	64581.05
841.5997	853.467	65443.85	64531.6
841.7448	855.5155	65467.9	64555.05
841.8899	857.5633	65418.95	64506.15
842.0351	859.6105	65406.4	64490.3
842.1802	861.6569	65434.35	64523.45
842.3253	863.7027	65385.3	64467.6
842.4704	865.7478	65407.4	64491.4
842.6156	867.7922	65390.5	64476.9
842.7607	869.8359	65418	64502.45
842.9058	871.8789	65370.25	64454.1
843.0509	873.9212	65394.85	64450.45
843.1961	875.9629	65394.85	64480.6
843.3412	878.0039	65383	64469.45
843.4863	880.0441	65370.25	64454.7
843.6315	882.0837	65361.1	64444.65
843.7766	884.1226	65372.05	64457.85
843.9218	886.1609	65365.25	64451.4
844.0669	888.1984	65351.7	64436.1
844.212	890.2352	65378.95	64464.6
844.3572	892.2714	65343.75	64425.7
844.5023	894.3069	65367.45	64450.35
844.6475	896.3416	65336.65	64422.5
844.7926	898.3757	65333.85	64420.6
844.9377	900.4091	65290.2	64372.1
845.0829	902.4418	65360.25	64437.45
845.228	904.4739	65316.5	64395.25
845.3732	906.5052	65322.7	64404.65
845.5183	908.5358	65299	64385.65
845.6635	910.5658	65286	64365.3
845.8086	912.595	65289.5	64369.9
845.9538	914.6236	65246	64326.25
846.0989	916.6515	65315.65	64394.8
846.2441	918.6786	65233.2	64315.5
846.3892	920.7051	65245.9	64323.5
846.5344	922.7309	65237.15	64317.55
846.6795	924.756	65255.4	64338.35
846.8246	926.7804	65220.9	64300.85
846.9698	928.8041	65178.9	64257.75
847.1149	930.8272	65204.6	64286.2
847.2601	932.8495	65211.9	64293.15
847.4052	934.8711	65189.5	64267.1
847.5504	936.892	65170.45	64248.7
847.6955	938.9123	65176.9	64255.85
847.8407	940.9318	65152.65	64233.7
847.9858	942.9506	65162.7	64242.6
848.131	944.9688	65166.45	64249.8
848.2761	946.9862	65106.85	64188.15
848.4213	949.003	65126.1	64205.2
848.5664	951.019	65087.05	64168.9
848.7115	953.0344	65099.4	64178.7
848.8567	955.0491	65089.65	64172.3
849.0018	957.063	65093.35	64173.8
849.147	959.0763	65098.4	64180.15
849.2921	961.0888	65067.7	64147
849.4373	963.1007	65088.5	64172.3
849.5824	965.1119	65086	64176.65
849.7275	967.1223	65073.3	64164.3
849.8727	969.1321	65080.85	64168.45
850.0178	971.1412	65050.6	64135.7
850.1629	973.1495	65044.2	64126.95
850.3081	975.1572	65043.6	64084.05
850.4532	977.1641	65032.55	64110.05
850.5983	979.1704	65028.95	64107.95
850.7435	981.1759	65036.1	64113.25
850.8886	983.1808	65012.4	64090.75
851.0337	985.1849	65013.9	64084.6
851.1788	987.1884	65015	64094.95
851.324	989.1911	65025.2	64104.3
851.4691	991.1932	64978.3	64059.55
851.6142	993.1945	64977.75	64060.75
851.7593	995.1951	64965.75	64047.65
851.9045	997.1951	64959.9	64034.85
852.0496	999.1943	64951.3	64031.65
852.1947	1001.1928	64946.45	64025.35
852.3398	1003.1906	64936.3	64017.4
852.4849	1005.1877	64906.9	63983.85
852.63	1007.1841	64905.75	63987.05
852.7751	1009.1798	64897.8	63977.4
852.9202	1011.1748	64894.5	63975
853.0653	1013.1691	64881.2	63960.3
853.2104	1015.1627	64860.7	63941.05
853.3555	1017.1556	64842.15	63923.65
853.5006	1019.1477	64842.5	63923.1
853.6457	1021.1392	64829.9	63916.65
853.7908	1023.1299	64816.4	63902.2
853.9359	1025.12	64819.35	63910.85
854.081	1027.1093	64805	63900.3
854.2261	1029.0979	64786.85	63886.35
854.3712	1031.0859	64798.9	63892.4
854.5163	1033.0731	64768.3	63854.9
854.6613	1035.0596	64755.8	63841.55
854.8064	1037.0454	64739.1	63821.3
854.9515	1039.0304	64742.5	63824.15
855.0965	1041.0148	64725.6	63807.75
855.2416	1042.9985	64728.05	63806.55
855.3867	1044.9814	64712.8	63794.05
855.5317	1046.9636	64695.7	63782
855.6768	1048.9452	64690.05	63772.65
855.8219	1050.926	64699.55	63781.75
855.9669	1052.9061	64687.45	63769.25
856.112	1054.8855	64679.4	63761.4
856.257	1056.8642	64679.45	63763.5
856.4021	1058.8421	64667.05	63744.8
856.5471	1060.8194	64656.45	63735.1
856.6921	1062.7959	64662.5	63742.9
856.8372	1064.7717	64647.9	63728.3
856.9822	1066.7469	64647.75	63726.65
857.1272	1068.7213	64637.9	63718.55
857.2723	1070.695	64627.5	63709.55
857.4173	1072.6679	64615.4	63696.85
857.5623	1074.6402	64607.45	63691.15
857.7073	1076.6117	64616.85	63692.3
857.8523	1078.5826	64596.5	63677.3
857.9973	1080.5527	64590.2	63669.8
858.1423	1082.5221	64584.3	63664.8
858.2873	1084.4908	64582.25	63663.55
858.4323	1086.4587	64575.5	63659.45
858.5773	1088.426	64574.7	63656.55
858.7223	1090.3925	64561.85	63639.45
858.8673	1092.3584	64557.65	63638.35
859.0123	1094.3235	64549.15	63632.05
859.1573	1096.2879	64543.65	63626.8
859.3022	1098.2515	64534.25	63616.65
859.4472	1100.2145	64524.3	63606.5
859.5922	1102.1767	64526.8	63606
859.7371	1104.1382	64520.8	63605.1
859.8821	1106.099	64517.75	63597.8
860.027	1108.0591	64504.1	63584.85
860.172	1110.0185	64490.35	63569.45
860.3169	1111.9771	64493.25	63576.45
860.4619	1113.9351	64492.5	63572.55
860.6068	1115.8923	64480	63563.15
860.7517	1117.8488	64465.8	63548.1
860.8967	1119.8045	64456.85	63537.1
861.0416	1121.7596	64456.05	63537.85
861.1865	1123.7139	64443.3	63524.55
861.3314	1125.6675	64441.15	63523.1
861.4763	1127.6204	64447.95	63531.6
861.6212	1129.5726	64434.2	63515.05
861.7661	1131.524	64421.45	63503.05
861.911	1133.4748	64425.95	63507.05
862.0559	1135.4248	64424.7	63506
862.2008	1137.3741	64413.7	63496.7
862.3457	1139.3226	64393.7	63474.35
862.4905	1141.2705	64397.05	63477.5
862.6354	1143.2176	64384.4	63460.7
862.7803	1145.164	64379.75	63458.85
862.9251	1147.1097	64379.65	63461.6
863.07	1149.0546	64370.75	63453.7
863.2148	1150.9989	64366.4	63447.7
863.3597	1152.9424	64356.05	63442
863.5045	1154.8852	64360.75	63440.25
863.6493	1156.8272	64356.05	63435.6
863.7942	1158.7686	64359	63433.45
863.939	1160.7092	64346.6	63429.25
864.0838	1162.6491	64340.4	63420.55
864.2286	1164.5883	64332.25	63415.7
864.3734	1166.5267	64329.45	63411.65
864.5182	1168.4644	64325.05	63408.5
864.663	1170.4014	64328.75	63406.85
864.8078	1172.3377	64323.9	63407.45
864.9526	1174.2732	64319.65	63401.15
865.0974	1176.2081	64327.8	63412.65
865.2421	1178.1421	64324.6	63400.85
865.3869	1180.0755	64316.05	63399.35
865.5317	1182.0082	64311.9	63396.6
865.6764	1183.9401	64316.45	63401.05
865.8212	1185.8713	64309.9	63395.4
865.9659	1187.8017	64302.45	63394.7
866.1106	1189.7315	64302.6	63395.25
866.2554	1191.6605	64278.65	63345.3
866.4001	1193.5888	64267.4	63358.35
866.5448	1195.5163	64268.3	63356.7
866.6895	1197.4432	64258.75	63341.1
866.8342	1199.3693	64234.1	63317.55
866.9789	1201.2947	64239.95	63320.35
867.1236	1203.2193	64242.95	63323.45
867.2683	1205.1432	64227.85	63309.9
867.413	1207.0664	64215.95	63301.35
867.5576	1208.9889	64209.6	63289.75
867.7023	1210.9106	64203.05	63289.05
867.847	1212.8316	64197.4	63281.55
867.9916	1214.7519	64192.9	63271.85
868.1363	1216.6715	64182.4	63266.2
868.2809	1218.5903	64172.45	63257.5
868.4255	1220.5084	64175.75	63260.15
868.5701	1222.4257	64178.3	63262.2
