Software Version:	3.9.2.0
Unit SN:	10000200
Spectrometer SN:	6960
Date:	3/6/2024 9:38:55 AM
Data Line Index:	25
Spectral Points:	2048
Integration time (ms):	125
Averages:	20
Delay (ms):	30
Sequence Number:	1
Processing:	dark subtract
Laser Power (mW):	305
Laser Current (mA):	824
Laser Diode Temp (C):	25.1
Laser Case Temp (C):	23.9
System Temp (C):	23.7
Spectrometer Temp (C):	21.3
CCD Temp (C):	-0.03
Secondary Temp (C):	20.006
Heatsink Temp (C):	17.138
CCDPCB Temp (C):	30.471
SecondaryPCB Temp (C):	25.491

Wavelength	RamanShift	Raw Counts	Dark Subtracted
787.061	30.1047	484.55	77.65
787.2016	32.3739	486.15	78.55
787.3422	34.6426	492.05	85.25
787.4828	36.9109	497.2	87.6
787.6235	39.1787	510.8	100.15
787.7642	41.4461	520.5	104.6
787.9049	43.7131	524.05	105.4
788.0456	45.9796	535.7	113.95
788.1863	48.2456	543.4	118.8
788.3271	50.5112	558.35	129.1
788.4679	52.7764	563.4	131.9
788.6087	55.0411	575.45	136.45
788.7496	57.3054	595.75	153.35
788.8904	59.5692	603.15	158.4
789.0313	61.8326	615.8	169.45
789.1722	64.0955	632.05	182.45
789.3132	66.3579	645.7	190.65
789.4541	68.6199	672.5	215.05
789.5951	70.8815	711.2	250.7
789.7361	73.1426	791.15	324.5
789.8771	75.4032	989.95	520.9
790.0181	77.6634	1492.7	1022.9
790.1592	79.9231	2681.25	2208.8
790.3003	82.1824	5259.25	4780.05
790.4414	84.4412	9793.95	9309.45
790.5825	86.6995	15909.35	15418.1
790.7237	88.9574	21967.5	21471.15
790.8648	91.2148	26284.35	25785.45
791.006	93.4717	28661.35	28157.9
791.1472	95.7282	29665.8	29161
791.2885	97.9842	30191.55	29684.65
791.4297	100.2398	30432.5	29924.3
791.571	102.4949	30521.9	30009.8
791.7123	104.7495	30547.35	30030.05
791.8536	107.0036	30525.75	30006.65
791.9949	109.2573	30602.25	30086.95
792.1363	111.5105	30652.1	30131.85
792.2777	113.7632	30591.55	30071.9
792.4191	116.0154	30665.1	30132.3
792.5605	118.2672	30765.65	30239.4
792.7019	120.5185	30819.5	30293.6
792.8434	122.7693	30881.4	30347.7
792.9849	125.0197	30920.7	30381.9
793.1264	127.2696	30922.95	30383.5
793.2679	129.519	31140.3	30597.2
793.4094	131.7679	31199.45	30655.85
793.551	134.0163	31257.4	30713.25
793.6926	136.2642	31351.15	30801.15
793.8342	138.5117	31342.45	30789.3
793.9758	140.7587	31375.65	30822.6
794.1175	143.0052	31467.95	30909.4
794.2591	145.2512	31448.55	30892.05
794.4008	147.4967	31456.05	30896.65
794.5425	149.7417	31463.95	30899.15
794.6842	151.9863	31469.3	30901
794.826	154.2304	31501.75	30931.9
794.9677	156.4739	31425.25	30848.4
795.1095	158.717	31527.25	30950.75
795.2513	160.9596	31545.15	30966.45
795.3931	163.2017	31543.8	30962.25
795.535	165.4433	31603.95	31019.35
795.6768	167.6844	31612.35	31025.5
795.8187	169.925	31710.6	31120.95
795.9606	172.1651	31616.25	31021.4
796.1025	174.4047	31657.9	31060.2
796.2445	176.6439	31658.2	31058.45
796.3864	178.8825	31673.25	31070.3
796.5284	181.1206	31758.5	31151.8
796.6704	183.3582	31803.95	31194.8
796.8124	185.5954	31825.8	31214.1
796.9544	187.832	31866.8	31251.1
797.0965	190.0681	31923.8	31304.5
797.2386	192.3037	32024.2	31402.4
797.3806	194.5388	32044.1	31417.9
797.5228	196.7734	32153.2	31526.75
797.6649	199.0075	32274.2	31649.65
797.807	201.2411	32437.35	31811.55
797.9492	203.4742	32481.3	31849.5
798.0914	205.7068	32661.4	32026.15
798.2336	207.9389	32699.55	32067
798.3758	210.1704	32743.6	32120.9
798.518	212.4015	32737.05	32123.8
798.6603	214.632	32842.65	32233.75
798.8025	216.862	32904.4	32291.75
798.9448	219.0915	32903.05	32291.4
799.0871	221.3205	32985.4	32369.7
799.2294	223.549	33139.85	32527.95
799.3718	225.777	33193.75	32579.6
799.5141	228.0044	33211.7	32590.35
799.6565	230.2314	33313	32687.3
799.7989	232.4578	33324.3	32694.15
799.9413	234.6837	33367	32728.5
800.0837	236.909	33467.4	32829.05
800.2262	239.1339	33440.3	32777.75
800.3687	241.3582	33514.1	32868.65
800.5111	243.582	33542.75	32864.5
800.6536	245.8053	33577	32909.95
800.7961	248.0281	33557.2	32895.7
800.9387	250.2503	33625.75	32963.2
801.0812	252.472	33700.65	33037.6
801.2238	254.6932	33764	33098.9
801.3664	256.9139	33731.3	33064.55
801.509	259.134	33833.95	33163.25
801.6516	261.3536	33815.9	33145.25
801.7942	263.5727	33911.85	33240.2
801.9369	265.7912	33899	33229.95
802.0795	268.0092	34019.05	33350.3
802.2222	270.2267	34030.15	33358.65
802.3649	272.4436	34120.55	33445.1
802.5076	274.6601	34158.95	33473.4
802.6504	276.8759	34142.95	33461.9
802.7931	279.0913	34171.6	33490.3
802.9359	281.3061	34213.75	33534
803.0787	283.5204	34305.95	33621.3
803.2215	285.7341	34377.75	33689.7
803.3643	287.9473	34415.35	33718.65
803.5071	290.16	34396.7	33707.2
803.6499	292.3721	34428.75	33742.4
803.7928	294.5837	34381.8	33695.85
803.9357	296.7947	34328.75	33643.35
804.0786	299.0052	34382.2	33693.85
804.2215	301.2152	34317.6	33625.55
804.3644	303.4246	34350.55	33663.15
804.5074	305.6334	34311.45	33620.45
804.6503	307.8418	34347.8	33653.85
804.7933	310.0495	34297.15	33603.1
804.9363	312.2568	34255.25	33560.5
805.0793	314.4635	34185.25	33487.5
805.2223	316.6696	34100.15	33400.45
805.3653	318.8752	34037.2	33328.95
805.5084	321.0802	33949.8	33248
805.6514	323.2847	34014.85	33310.7
805.7945	325.4887	33928.65	33224.55
805.9376	327.692	33932.35	33226.85
806.0807	329.8949	34050.45	33343.65
806.2238	332.0972	34062.8	33354.65
806.367	334.2989	34152.3	33441.45
806.5101	336.5001	34106.3	33391.85
806.6533	338.7007	34132.5	33420.35
806.7965	340.9008	34145.2	33429.75
806.9397	343.1003	34094.2	33378.25
807.0829	345.2992	34079.25	33361.7
807.2261	347.4976	34036.35	33317.15
807.3693	349.6955	34010.45	33286.95
807.5126	351.8927	34090.25	33366.8
807.6559	354.0895	33964.85	33229.05
807.7991	356.2856	34012.2	33287.15
807.9424	358.4812	33973	33246.4
808.0857	360.6763	34067.2	33337
808.2291	362.8707	33969.85	33237.5
808.3724	365.0646	34013.75	33278.1
808.5158	367.258	33976.15	33239.3
808.6591	369.4508	33920.45	33182
808.8025	371.643	33991.4	33253.65
808.9459	373.8346	33873.25	33130.45
809.0893	376.0257	33896.6	33153.35
809.2327	378.2162	33896.55	33154.6
809.3762	380.4062	33889.95	33147.45
809.5196	382.5956	33806.8	33066
809.6631	384.7844	33848.05	33111.45
809.8066	386.9726	33712.25	32976.8
809.9501	389.1603	33627.3	32893.4
810.0936	391.3474	33706.7	32923.45
810.2371	393.5339	33633.65	32899.1
810.3806	395.7199	33517.55	32783.5
810.5241	397.9052	33515.25	32780.7
810.6677	400.09	33568.25	32831.25
810.8113	402.2743	33601.85	32862.7
810.9548	404.4579	33511	32772.35
811.0984	406.641	33614.5	32872.65
811.2421	408.8235	33637.2	32891.75
811.3857	411.0054	33670.7	32923.3
811.5293	413.1868	33806.65	33057.95
811.673	415.3675	33777.8	33025.95
811.8166	417.5477	33774.25	33021.6
811.9603	419.7273	33720.4	32962.85
812.104	421.9064	33612.7	32847.65
812.2477	424.0848	33471.45	32714.4
812.3914	426.2627	33359.8	32602.5
812.5351	428.4399	33304.35	32547.6
812.6788	430.6166	33194.4	32428.75
812.8226	432.7928	33130.6	32364.05
812.9663	434.9683	33047.95	32282
813.1101	437.1432	32958.5	32190.05
813.2539	439.3176	32820.55	32055
813.3977	441.4914	32722.1	31956.65
813.5415	443.6645	32727.4	31959.7
813.6853	445.8371	32569.65	31802.95
813.8291	448.0091	32471.5	31705.15
813.973	450.1806	32397.2	31630.1
814.1168	452.3514	32292.95	31523.2
814.2607	454.5216	32338.85	31559.7
814.4046	456.6913	32174.6	31402.15
814.5485	458.8603	32197.05	31424.35
814.6924	461.0288	32236.75	31466.9
814.8363	463.1967	32164.9	31392.4
814.9802	465.3639	32188.75	31414.35
815.1241	467.5306	32091.8	31319.2
815.2681	469.6967	31989.95	31216.1
815.412	471.8622	31963.2	31189.6
815.556	474.0271	31961.7	31187.25
815.7	476.1914	31949.6	31172
815.844	478.3551	31841.15	31065.7
815.988	480.5182	31953.1	31176.65
816.132	482.6807	31940.95	31162.9
816.276	484.8426	32004.7	31227
816.4201	487.0039	32018.95	31241.75
816.5641	489.1647	32055.7	31276.95
816.7082	491.3248	32125.65	31345.5
816.8522	493.4843	32053.05	31273.3
816.9963	495.6432	32088.25	31306.8
817.1404	497.8015	31939.95	31152.65
817.2845	499.9592	32008.3	31227.1
817.4286	502.1163	31886.8	31103.9
817.5727	504.2728	31747.8	30960.45
817.7168	506.4287	31848.9	31062.9
817.861	508.5839	31737.9	30952.65
818.0051	510.7386	31733.1	30948.75
818.1493	512.8927	31751.35	30956.15
818.2935	515.0461	31714.05	30923.85
818.4377	517.199	31698.8	30909.35
818.5818	519.3512	31666.35	30875.95
818.726	521.5029	31722.3	30926.6
818.8703	523.6539	31737.2	30946.3
819.0145	525.8043	31697.8	30906.05
819.1587	527.9541	31636.95	30842.25
819.303	530.1033	31522.95	30730
819.4472	532.2519	31518.2	30726
819.5915	534.3999	31447.15	30650.9
819.7357	536.5472	31391.25	30596.2
819.88	538.694	31401.65	30606.3
820.0243	540.8401	31444.5	30647.95
820.1686	542.9856	31416.15	30618.8
820.3129	545.1305	31429.5	30631.3
820.4572	547.2748	31443	30643.25
820.6016	549.4185	31398.45	30597.1
820.7459	551.5615	31324.8	30524.6
820.8902	553.704	31340.1	30540.6
821.0346	555.8458	31220.6	30423.25
821.1789	557.987	31305.4	30508.95
821.3233	560.1276	31288.85	30489.95
821.4677	562.2675	31329.05	30530.5
821.6121	564.4069	31333.5	30535.15
821.7565	566.5456	31278.6	30480.4
821.9009	568.6837	31248.1	30446.8
822.0453	570.8212	31131.2	30331.1
822.1897	572.958	31045.3	30244.15
822.3342	575.0942	30900.65	30100.2
822.4786	577.2299	30893.65	30091.65
822.6231	579.3648	30771.45	29968.65
822.7675	581.4992	30612.25	29809.4
822.912	583.6329	30483.7	29680.1
823.0565	585.766	30472.95	29668
823.201	587.8985	30426.95	29623.25
823.3454	590.0304	30361.45	29544.65
823.4899	592.1616	30360.7	29549.25
823.6345	594.2922	30305.85	29497.55
823.779	596.4222	30214	29404.45
823.9235	598.5515	30125.55	29316.65
824.068	600.6802	30019	29210
824.2126	602.8083	29866.25	29057.85
824.3571	604.9358	29860	29050
824.5017	607.0626	29785.95	28975.25
824.6462	609.1888	29774.4	28964.3
824.7908	611.3144	29736.75	28925.2
824.9354	613.4393	29685.55	28875.6
825.08	615.5636	29688.45	28877.1
825.2246	617.6873	29665.7	28854.75
825.3692	619.8103	29745.85	28931.1
825.5138	621.9327	29703.05	28887
825.6584	624.0544	29609.6	28796.25
825.803	626.1756	29568.1	28754.1
825.9477	628.2961	29504.55	28688.85
826.0923	630.4159	29402.15	28586.45
826.237	632.5351	29466.5	28648.65
826.3816	634.6537	29356.1	28539.15
826.5263	636.7716	29332.95	28517
826.6709	638.8889	29266.7	28448.25
826.8156	641.0056	29333.2	28515.6
826.9603	643.1216	29279.55	28460.35
827.105	645.237	29270.25	28449.9
827.2497	647.3518	29223.85	28405.2
827.3944	649.4659	29227.6	28410.35
827.5391	651.5793	29142.95	28323.45
827.6838	653.6922	29017	28197.1
827.8285	655.8043	29039.55	28221.3
827.9733	657.9159	29020.95	28200.5
828.118	660.0268	28950.55	28128.35
828.2627	662.137	28916.55	28094.6
828.4075	664.2466	28866.2	28041.95
828.5522	666.3556	28852.85	28031.25
828.697	668.4639	28718.5	27893.15
828.8418	670.5716	28758.75	27936.15
828.9865	672.6786	28723.6	27899.65
829.1313	674.785	28589.4	27764.5
829.2761	676.8907	28503.55	27680.35
829.4209	678.9958	28522.55	27698.65
829.5657	681.1002	28421.7	27596.65
829.7105	683.204	28399.75	27572.1
829.8553	685.3072	28351.5	27524.15
830.0001	687.4097	28293.35	27466.65
830.1449	689.5115	28321.55	27491.9
830.2898	691.6127	28328.45	27501.9
830.4346	693.7132	28255.55	27428.2
830.5794	695.8131	28261.45	27425.3
830.7243	697.9123	28214.85	27385.25
830.8691	700.0109	28147.8	27318.65
831.014	702.1089	28178.7	27351.85
831.1588	704.2061	28149	27321.35
831.3037	706.3028	28125.9	27293.8
831.4486	708.3987	28110.75	27282.35
831.5935	710.4941	28082.9	27252.95
831.7383	712.5887	28056.25	27223.75
831.8832	714.6827	28019.95	27186.55
832.0281	716.7761	27998.4	27168.85
832.173	718.8688	27959.7	27126.15
832.3179	720.9608	27926.7	27089.45
832.4628	723.0522	27966.85	27128.85
832.6077	725.1429	27881.3	27050.1
832.7527	727.233	27916.9	27082.3
832.8976	729.3224	27977.1	27143.15
833.0425	731.4112	27919.35	27085.6
833.1874	733.4993	27864.15	27026.65
833.3324	735.5867	27744.7	26906.65
833.4773	737.6735	27640.15	26803.5
833.6222	739.7596	27559.3	26725.55
833.7672	741.845	27511.75	26675.4
833.9122	743.9298	27433.5	26595.6
834.0571	746.014	27422.4	26587.35
834.2021	748.0974	27384.1	26545.25
834.347	750.1802	27286.3	26449.5
834.492	752.2624	27182.45	26344.75
834.637	754.3439	27099.4	26260.8
834.782	756.4247	27006.55	26157.25
834.9269	758.5048	26919.6	26081.8
835.0719	760.5843	26920.05	26080.6
835.2169	762.6631	26802.4	25963.5
835.3619	764.7413	26838.25	26000
835.5069	766.8188	26879.2	26038.45
835.6519	768.8956	26791.7	25949.55
835.7969	770.9718	26857.1	26017.65
835.9419	773.0473	26744.55	25905.05
836.0869	775.1221	26758.25	25919.8
836.232	777.1962	26640.1	25799.3
836.377	779.2697	26595.1	25753.55
836.522	781.3426	26639.15	25780.2
836.667	783.4147	26614	25773.05
836.8121	785.4862	26609.8	25770
836.9571	787.557	26481.25	25639.65
837.1021	789.6271	26343.1	25500.5
837.2472	791.6966	26235.55	25393
837.3922	793.7654	26089.25	25245.55
837.5373	795.8335	26030.35	25188.3
837.6823	797.901	25912.6	25071.8
837.8274	799.9678	25907.65	25063.65
837.9724	802.0339	25843.6	25001.4
838.1175	804.0993	25830.65	24979.45
838.2626	806.1641	25732.15	24887.45
838.4076	808.2282	25701.9	24858.95
838.5527	810.2916	25677.65	24830.7
838.6978	812.3544	25652.5	24810.6
838.8428	814.4164	25549.25	24706.8
838.9879	816.4778	25609.75	24765.75
839.133	818.5385	25518	24674.25
839.2781	820.5986	25500.05	24654.55
839.4232	822.658	25536.4	24690.15
839.5682	824.7166	25504.05	24658.25
839.7133	826.7747	25578.6	24734.5
839.8584	828.832	25597.8	24750.55
840.0035	830.8886	25549.65	24701.45
840.1486	832.9446	25552.35	24703.6
840.2937	834.9999	25478.6	24633.45
840.4388	837.0545	25409.5	24559.35
840.5839	839.1085	25349.7	24502.5
840.729	841.1618	25200.4	24347.8
840.8741	843.2143	25104.7	24259.25
841.0192	845.2662	24998.8	24150.8
841.1643	847.3175	24987.55	24141.05
841.3095	849.368	24926.7	24079.3
841.4546	851.4179	24923.15	24075.85
841.5997	853.467	24802.2	23953.6
841.7448	855.5155	24799.05	23947.6
841.8899	857.5633	24737.55	23887.25
842.0351	859.6105	24673.85	23825.3
842.1802	861.6569	24641.15	23793.55
842.3253	863.7027	24560.4	23711.55
842.4704	865.7478	24571.45	23723.6
842.6156	867.7922	24558.95	23710.95
842.7607	869.8359	24511.75	23662.05
842.9058	871.8789	24461.9	23612.7
843.0509	873.9212	24416.5	23533.6
843.1961	875.9629	24337.4	23486.6
843.3412	878.0039	24362.6	23509.85
843.4863	880.0441	24347.95	23498.8
843.6315	882.0837	24350.6	23500.25
843.7766	884.1226	24378.55	23524.15
843.9218	886.1609	24356.2	23505.95
844.0669	888.1984	24403.95	23552.7
844.212	890.2352	24435.8	23586.25
844.3572	892.2714	24398.85	23543.15
844.5023	894.3069	24333.65	23479.9
844.6475	896.3416	24209.75	23356.55
844.7926	898.3757	24200.55	23347.3
844.9377	900.4091	24158.85	23305.05
845.0829	902.4418	24115.25	23257.9
845.228	904.4739	24026.1	23171.7
845.3732	906.5052	24028.75	23176.1
845.5183	908.5358	23951.7	23098.3
845.6635	910.5658	23920.1	23066.2
845.8086	912.595	23876.3	23023.1
845.9538	914.6236	23802.05	22947.5
846.0989	916.6515	23756.8	22905.35
846.2441	918.6786	23653.85	22799.1
846.3892	920.7051	23647.1	22790.6
846.5344	922.7309	23672	22817.4
846.6795	924.756	23564.9	22710.05
846.8246	926.7804	23602.45	22745.95
846.9698	928.8041	23404.55	22547.55
847.1149	930.8272	23439.5	22584.15
847.2601	932.8495	23306.9	22450
847.4052	934.8711	23330.4	22472.9
847.5504	936.892	23230.9	22376.1
847.6955	938.9123	23224.6	22367.5
847.8407	940.9318	23181.75	22325.35
847.9858	942.9506	23084.7	22227.3
848.131	944.9688	23020.55	22162.85
848.2761	946.9862	22981.35	22125.25
848.4213	949.003	22846.5	21989.2
848.5664	951.019	22789.15	21931.25
848.7115	953.0344	22756.15	21899.35
848.8567	955.0491	22703.5	21844.9
849.0018	957.063	22653.05	21796.7
849.147	959.0763	22670.85	21814.9
849.2921	961.0888	22593.9	21733.8
849.4373	963.1007	22610.35	21754.9
849.5824	965.1119	22571.25	21714.35
849.7275	967.1223	22539.75	21682.9
849.8727	969.1321	22474.4	21614.7
850.0178	971.1412	22466.15	21606.1
850.1629	973.1495	22362.1	21503.3
850.3081	975.1572	22398.05	21492.85
850.4532	977.1641	22338.15	21477.9
850.5983	979.1704	22248.05	21389.25
850.7435	981.1759	22235.6	21373.9
850.8886	983.1808	22211.2	21349.7
851.0337	985.1849	22170.8	21304.35
851.1788	987.1884	22083.4	21222
851.324	989.1911	22046.6	21183.65
851.4691	991.1932	22035.7	21175.95
851.6142	993.1945	21955.25	21097.65
851.7593	995.1951	21838.4	20978.75
851.9045	997.1951	21815.5	20950.4
852.0496	999.1943	21731.9	20873.05
852.1947	1001.1928	21628.7	20768.4
852.3398	1003.1906	21576.2	20717.7
852.4849	1005.1877	21580	20718.5
852.63	1007.1841	21509.9	20648.3
852.7751	1009.1798	21463.2	20602.9
852.9202	1011.1748	21365.45	20505.3
853.0653	1013.1691	21349.05	20487.25
853.2104	1015.1627	21214.95	20352.65
853.3555	1017.1556	21099.95	20238.55
853.5006	1019.1477	21041.35	20179.45
853.6457	1021.1392	20897.55	20037.45
853.7908	1023.1299	20864.15	20001.8
853.9359	1025.12	20767.9	19905.5
854.081	1027.1093	20708.1	19847.25
854.2261	1029.0979	20640.1	19781.1
854.3712	1031.0859	20567.45	19707.65
854.5163	1033.0731	20553.1	19689.6
854.6613	1035.0596	20451.9	19590.6
854.8064	1037.0454	20351.35	19488.65
854.9515	1039.0304	20359.05	19496.4
855.0965	1041.0148	20280.1	19416.95
855.2416	1042.9985	20204.1	19338.85
855.3867	1044.9814	20189.3	19328.3
855.5317	1046.9636	20068.1	19203.7
855.6768	1048.9452	20039.2	19177.95
855.8219	1050.926	19993.2	19129.9
855.9669	1052.9061	19979.8	19118.15
856.112	1054.8855	19914.75	19051.3
856.257	1056.8642	19908.85	19045.65
856.4021	1058.8421	19909.5	19043.05
856.5471	1060.8194	19818.9	18954.7
856.6921	1062.7959	19785.65	18922.9
856.8372	1064.7717	19759.3	18893.65
856.9822	1066.7469	19723.75	18859.1
857.1272	1068.7213	19677.35	18812.25
857.2723	1070.695	19674.5	18809.4
857.4173	1072.6679	19587.75	18723.4
857.5623	1074.6402	19573	18708.75
857.7073	1076.6117	19586.3	18718.6
857.8523	1078.5826	19588.8	18724.4
857.9973	1080.5527	19494.9	18627.85
858.1423	1082.5221	19419.7	18553.25
858.2873	1084.4908	19361	18494.1
858.4323	1086.4587	19258.9	18394.95
858.5773	1088.426	19272.1	18405.5
858.7223	1090.3925	19169.25	18299.2
858.8673	1092.3584	19224.5	18357.95
859.0123	1094.3235	19113.55	18249.9
859.1573	1096.2879	19108.3	18243.15
859.3022	1098.2515	19072.8	18208.75
859.4472	1100.2145	19093.6	18227.75
859.5922	1102.1767	19089.8	18221.6
859.7371	1104.1382	19043.25	18178.05
859.8821	1106.099	19078.6	18211.3
860.027	1108.0591	19029.2	18164.15
860.172	1110.0185	18997	18130.9
860.3169	1111.9771	19037.6	18172.7
860.4619	1113.9351	19037.3	18170.2
860.6068	1115.8923	19013.95	18147.4
860.7517	1117.8488	19011.4	18142.85
860.8967	1119.8045	18895.05	18028.4
861.0416	1121.7596	18811.05	17944.1
861.1865	1123.7139	18662.45	17796.75
861.3314	1125.6675	18581.3	17715.25
861.4763	1127.6204	18566.5	17700.65
861.6212	1129.5726	18529.9	17660.9
861.7661	1131.524	18568.95	17704.35
861.911	1133.4748	18453.7	17586.5
862.0559	1135.4248	18367.95	17498.45
862.2008	1137.3741	18299.25	17434.9
862.3457	1139.3226	18243.85	17377.45
862.4905	1141.2705	18266.5	17399.4
862.6354	1143.2176	18111.25	17237.9
862.7803	1145.164	18129.75	17261.1
862.9251	1147.1097	18111.3	17244.9
863.07	1149.0546	18112.1	17243.25
863.2148	1150.9989	18078.8	17211.05
863.3597	1152.9424	18024	17156.75
863.5045	1154.8852	17961.65	17093.85
863.6493	1156.8272	17951.4	17085.1
863.7942	1158.7686	17965.75	17093.2
863.939	1160.7092	17930.1	17058.8
864.0838	1162.6491	17841.9	16970.1
864.2286	1164.5883	17831.35	16963.1
864.3734	1166.5267	17834.9	16964.45
864.5182	1168.4644	17865.75	16996.35
864.663	1170.4014	17822	16947.3
864.8078	1172.3377	17889.55	17023.35
864.9526	1174.2732	17872.2	17004.75
865.0974	1176.2081	17941.15	17075.7
865.2421	1178.1421	17993.65	17122.35
865.3869	1180.0755	18080.8	17213.4
865.5317	1182.0082	18133.5	17264.8
