Software Version:	3.9.2.0
Unit SN:	10000200
Spectrometer SN:	6960
Date:	3/6/2024 10:10:11 AM
Data Line Index:	25
Spectral Points:	2048
Integration time (ms):	125
Averages:	20
Delay (ms):	30
Sequence Number:	1
Processing:	dark subtract
Laser Power (mW):	305
Laser Current (mA):	825
Laser Diode Temp (C):	25
Laser Case Temp (C):	24.9
System Temp (C):	24.7
Spectrometer Temp (C):	22.2
CCD Temp (C):	0.004
Secondary Temp (C):	20.004
Heatsink Temp (C):	18.646
CCDPCB Temp (C):	31.605
SecondaryPCB Temp (C):	25.825

Wavelength	RamanShift	Raw Counts	Dark Subtracted
787.061	30.1047	883.95	475.3
787.2016	32.3739	906.55	499.15
787.3422	34.6426	944.65	537.6
787.4828	36.9109	977.15	568.55
787.6235	39.1787	1013.45	599.3
787.7642	41.4461	1055.6	637.6
787.9049	43.7131	1100.2	678.9
788.0456	45.9796	1139.05	713.95
788.1863	48.2456	1187.6	760.05
788.3271	50.5112	1236.05	803.2
788.4679	52.7764	1286.1	850.7
788.6087	55.0411	1334.9	896.3
788.7496	57.3054	1400.75	957.15
788.8904	59.5692	1459.3	1013.35
789.0313	61.8326	1523.55	1074.65
789.1722	64.0955	1593.85	1142.15
789.3132	66.3579	1675.85	1219.75
789.4541	68.6199	1783.75	1323.95
789.5951	70.8815	1969.3	1504.45
789.7361	73.1426	2368.85	1900.75
789.8771	75.4032	3389.3	2915.05
790.0181	77.6634	6010.75	5534.05
790.1592	79.9231	12629.65	12146.1
790.3003	82.1824	35361	34865.9
790.4414	84.4412	61616.35	61099.65
790.5825	86.6995	65509.7	64966.7
790.7237	88.9574	65535	64971.3
790.8648	91.2148	65535	64952.9
791.006	93.4717	65535	64943.35
791.1472	95.7282	65535	64939.6
791.2885	97.9842	65535	64935.65
791.4297	100.2398	65535	64932.85
791.571	102.4949	65535	64927.85
791.7123	104.7495	65535	64925.25
791.8536	107.0036	65535	64925.6
791.9949	109.2573	65535	64925.8
792.1363	111.5105	65535	64919.85
792.2777	113.7632	65535	64916.35
792.4191	116.0154	65535	64907.9
792.5605	118.2672	65535	64913.3
792.7019	120.5185	65535	64910.95
792.8434	122.7693	65535	64910.95
792.9849	125.0197	65535	64905.4
793.1264	127.2696	65535	64901.7
793.2679	129.519	65535	64896.05
793.4094	131.7679	65535	64895.6
793.551	134.0163	65535	64892.2
793.6926	136.2642	65535	64890.55
793.8342	138.5117	65535	64886.4
793.9758	140.7587	65535	64888.6
794.1175	143.0052	65535	64880.15
794.2591	145.2512	65535	64881.5
794.4008	147.4967	65535	64879.75
794.5425	149.7417	65535	64879.9
794.6842	151.9863	65535	64875.45
794.826	154.2304	65535	64872
794.9677	156.4739	65535	64867
795.1095	158.717	65535	64864.4
795.2513	160.9596	65535	64861.25
795.3931	163.2017	65535	64854.7
795.535	165.4433	65535	64855.1
795.6768	167.6844	65535	64852.65
795.8187	169.925	65535	64852.35
795.9606	172.1651	65535	64849.4
796.1025	174.4047	65535	64844.4
796.2445	176.6439	65535	64845
796.3864	178.8825	65535	64840.65
796.5284	181.1206	65535	64834.3
796.6704	183.3582	65535	64831.35
796.8124	185.5954	65535	64831.35
796.9544	187.832	65535	64825.45
797.0965	190.0681	65535	64821.2
797.2386	192.3037	65535	64821.9
797.3806	194.5388	65535	64815.5
797.5228	196.7734	65535	64815.95
797.6649	199.0075	65535	64815.3
797.807	201.2411	65535	64812.25
797.9492	203.4742	65535	64811.6
798.0914	205.7068	65535	64803.05
798.2336	207.9389	65535	64804.75
798.3758	210.1704	65535	64812.1
798.518	212.4015	65535	64820.45
798.6603	214.632	65535	64828.45
798.8025	216.862	65535	64830.6
798.9448	219.0915	65535	64825.95
799.0871	221.3205	65535	64824.45
799.2294	223.549	65535	64827.3
799.3718	225.777	65535	64828.8
799.5141	228.0044	65535	64817.8
799.6565	230.2314	65535	64821.3
799.7989	232.4578	65535	64814.95
799.9413	234.6837	65535	64806.3
800.0837	236.909	65535	64806.35
800.2262	239.1339	65535	64779.25
800.3687	241.3582	65535	64796.4
800.5111	243.582	65535	64762.75
800.6536	245.8053	65535	64778.65
800.7961	248.0281	65535	64784.1
800.9387	250.2503	65535	64778.7
801.0812	252.472	65535	64776.65
801.2238	254.6932	65535	64778.95
801.3664	256.9139	65535	64777.6
801.509	259.134	65535	64772.5
801.6516	261.3536	65535	64773.5
801.7942	263.5727	65535	64767.5
801.9369	265.7912	65535	64771.3
802.0795	268.0092	65535	64774.1
802.2222	270.2267	65535	64771.65
802.3649	272.4436	65535	64769.75
802.5076	274.6601	65535	64761.4
802.6504	276.8759	65535	64763.25
802.7931	279.0913	65535	64760.05
802.9359	281.3061	65535	64763.85
803.0787	283.5204	65535	64759.15
803.2215	285.7341	65535	64754
803.3643	287.9473	65535	64743.5
803.5071	290.16	65535	64753.5
803.6499	292.3721	65535	64757.55
803.7928	294.5837	65535	64755.1
803.9357	296.7947	65535	64758.05
804.0786	299.0052	65535	64755
804.2215	301.2152	65535	64754.4
804.3644	303.4246	65535	64755.45
804.5074	305.6334	65535	64756.35
804.6503	307.8418	65535	64751.9
804.7933	310.0495	65535	64751.05
804.9363	312.2568	65535	64747.1
805.0793	314.4635	65535	64749.1
805.2223	316.6696	65535	64744.25
805.3653	318.8752	65535	64735.1
805.5084	321.0802	65535	64743.2
805.6514	323.2847	65535	64743.7
805.7945	325.4887	65535	64738.65
805.9376	327.692	65535	64739.45
806.0807	329.8949	65535	64737.55
806.2238	332.0972	65535	64735.7
806.367	334.2989	65535	64732.05
806.5101	336.5001	65535	64733.3
806.6533	338.7007	65535	64733.5
806.7965	340.9008	65535	64733.95
806.9397	343.1003	65535	64730.3
807.0829	345.2992	65535	64730.8
807.2261	347.4976	65535	64730.35
807.3693	349.6955	65535	64723.6
807.5126	351.8927	65535	64723.5
807.6559	354.0895	65535	64706.2
807.7991	356.2856	65535	64718.25
807.9424	358.4812	65535	64721.8
808.0857	360.6763	65535	64719.15
808.2291	362.8707	65535	64716.9
808.3724	365.0646	65535	64712.7
808.5158	367.258	65535	64713.95
808.6591	369.4508	65535	64710.95
808.8025	371.643	65535	64711.7
808.9459	373.8346	65535	64708.05
809.0893	376.0257	65535	64702.2
809.2327	378.2162	65535	64709.5
809.3762	380.4062	65535	64704.3
809.5196	382.5956	65535	64706.25
809.6631	384.7844	65535	64709.05
809.8066	386.9726	65535	64714.45
809.9501	389.1603	65535	64709.95
810.0936	391.3474	65535	64674.65
810.2371	393.5339	65535	64710.8
810.3806	395.7199	65535	64713.7
810.5241	397.9052	65535	64711.55
810.6677	400.09	65535	64710.95
810.8113	402.2743	65535	64713.45
810.9548	404.4579	65535	64712
811.0984	406.641	65535	64710.9
811.2421	408.8235	65535	64710.15
811.3857	411.0054	65535	64706.3
811.5293	413.1868	65535	64702.75
811.673	415.3675	65535	64697.9
811.8166	417.5477	65535	64700.2
811.9603	419.7273	65535	64693.8
812.104	421.9064	65535	64689.75
812.2477	424.0848	65535	64694.75
812.3914	426.2627	65535	64691.75
812.5351	428.4399	65535	64695.55
812.6788	430.6166	65535	64690.7
812.8226	432.7928	65535	64686.2
812.9663	434.9683	65535	64692.25
813.1101	437.1432	65535	64691.35
813.2539	439.3176	65535	64690.9
813.3977	441.4914	65535	64694.05
813.5415	443.6645	65535	64692.8
813.6853	445.8371	65535	64691.65
813.8291	448.0091	65535	64689.55
813.973	450.1806	65535	64691.6
814.1168	452.3514	65535	64688.15
814.2607	454.5216	65535	64682.75
814.4046	456.6913	65535	64688.9
814.5485	458.8603	65535	64687.2
814.6924	461.0288	65535	64687.85
814.8363	463.1967	65535	64692.15
814.9802	465.3639	65535	64686.7
815.1241	467.5306	65535	64688
815.2681	469.6967	65535	64690.6
815.412	471.8622	65535	64691.45
815.556	474.0271	65535	64688.3
815.7	476.1914	65535	64680.9
815.844	478.3551	65535	64684.2
815.988	480.5182	65535	64686.9
816.132	482.6807	65535	64685.35
816.276	484.8426	65535	64689.9
816.4201	487.0039	65535	64687.95
816.5641	489.1647	65535	64685.35
816.7082	491.3248	65535	64684.95
816.8522	493.4843	65535	64690.15
816.9963	495.6432	65535	64685.2
817.1404	497.8015	65535	64676.75
817.2845	499.9592	65535	64673.3
817.4286	502.1163	65535	64674.7
817.5727	504.2728	65535	64678.1
817.7168	506.4287	65535	64685.85
817.861	508.5839	65535	64682.7
818.0051	510.7386	65535	64680.3
818.1493	512.8927	65535	64674.75
818.2935	515.0461	65535	64671.5
818.4377	517.199	65535	64675.05
818.5818	519.3512	65535	64673.7
818.726	521.5029	65535	64671.9
818.8703	523.6539	65535	64674.15
819.0145	525.8043	65535	64672.95
819.1587	527.9541	65535	64668.2
819.303	530.1033	65535	64669.1
819.4472	532.2519	65535	64670.2
819.5915	534.3999	65535	64667.1
819.7357	536.5472	65535	64668.05
819.88	538.694	65535	64670.25
820.0243	540.8401	65535	64665.05
820.1686	542.9856	65535	64661.7
820.3129	545.1305	65535	64657.15
820.4572	547.2748	65535	64658.35
820.6016	549.4185	65535	64657.45
820.7459	551.5615	65535	64656.35
820.8902	553.704	65535	64656.65
821.0346	555.8458	65535	64660.5
821.1789	557.987	65535	64664.4
821.3233	560.1276	65535	64663.05
821.4677	562.2675	65535	64660.75
821.6121	564.4069	65535	64662.6
821.7565	566.5456	65535	64661.75
821.9009	568.6837	65535	64662.9
822.0453	570.8212	65535	64664.85
822.1897	572.958	65535	64659.35
822.3342	575.0942	65535	64664.8
822.4786	577.2299	65535	64663.7
822.6231	579.3648	65535	64674.75
822.7675	581.4992	65535	64678.1
822.912	583.6329	65535	64675.85
823.0565	585.766	65535	64675.65
823.201	587.8985	65535	64670.75
823.3454	590.0304	65535	64644.5
823.4899	592.1616	65535	64660.9
823.6345	594.2922	65535	64658.7
823.779	596.4222	65535	64657.15
823.9235	598.5515	65535	64654.85
824.068	600.6802	65535	64654.3
824.2126	602.8083	65535	64655.9
824.3571	604.9358	65535	64655.6
824.5017	607.0626	65535	64654
824.6462	609.1888	65535	64651.55
824.7908	611.3144	65535	64652.35
824.9354	613.4393	65535	64652.4
825.08	615.5636	65535	64652.2
825.2246	617.6873	65535	64651.7
825.3692	619.8103	65535	64651.25
825.5138	621.9327	65535	64648.1
825.6584	624.0544	65535	64653.2
825.803	626.1756	65535	64655.6
825.9477	628.2961	65535	64650.4
826.0923	630.4159	65535	64648.6
826.237	632.5351	65535	64649.2
826.3816	634.6537	65535	64648.5
826.5263	636.7716	65535	64644.25
826.6709	638.8889	65535	64646.45
826.8156	641.0056	65535	64641.5
826.9603	643.1216	65535	64642.1
827.105	645.237	65535	64645.15
827.2497	647.3518	65535	64645.6
827.3944	649.4659	65535	64652.8
827.5391	651.5793	65535	64654.9
827.6838	653.6922	65535	64651.1
827.8285	655.8043	65535	64652.85
827.9733	657.9159	65535	64646.4
828.118	660.0268	65535	64648.7
828.2627	662.137	65535	64648.25
828.4075	664.2466	65535	64643.55
828.5522	666.3556	65535	64646.35
828.697	668.4639	65535	64643.15
828.8418	670.5716	65535	64649.4
828.9865	672.6786	65535	64645.65
829.1313	674.785	65535	64642.9
829.2761	676.8907	65535	64644.85
829.4209	678.9958	65535	64647.8
829.5657	681.1002	65535	64643.5
829.7105	683.204	65535	64637.45
829.8553	685.3072	65535	64638.35
830.0001	687.4097	65535	64642.4
830.1449	689.5115	65535	64641.8
830.2898	691.6127	65535	64643.75
830.4346	693.7132	65535	64642.15
830.5794	695.8131	65535	64625.3
830.7243	697.9123	65535	64636.45
830.8691	700.0109	65535	64639.95
831.014	702.1089	65535	64641.65
831.1588	704.2061	65535	64640.9
831.3037	706.3028	65535	64637.1
831.4486	708.3987	65535	64638.5
831.5935	710.4941	65535	64638.8
831.7383	712.5887	65535	64635.4
831.8832	714.6827	65535	64637.05
832.0281	716.7761	65535	64641.8
832.173	718.8688	65535	64639.8
832.3179	720.9608	65535	64630.3
832.4628	723.0522	65535	64631
832.6077	725.1429	65535	64635
832.7527	727.233	65535	64635.2
832.8976	729.3224	65535	64635.55
833.0425	731.4112	65535	64635.35
833.1874	733.4993	65535	64627.4
833.3324	735.5867	65535	64636.85
833.4773	737.6735	65535	64635.35
833.6222	739.7596	65535	64630.4
833.7672	741.845	65535	64634.7
833.9122	743.9298	65535	64631.1
834.0571	746.014	65535	64634.7
834.2021	748.0974	65535	64631
834.347	750.1802	65535	64630.1
834.492	752.2624	65535	64633.1
834.637	754.3439	65535	64630
834.782	756.4247	65535	64625.35
834.9269	758.5048	65535	64633
835.0719	760.5843	65535	64629.7
835.2169	762.6631	65535	64630.65
835.3619	764.7413	65535	64632.1
835.5069	766.8188	65535	64628.05
835.6519	768.8956	65535	64627.95
835.7969	770.9718	65535	64630.75
835.9419	773.0473	65535	64631
836.0869	775.1221	65535	64628.35
836.232	777.1962	65535	64628.8
836.377	779.2697	65535	64628.65
836.522	781.3426	65535	64606.85
836.667	783.4147	65535	64626.15
836.8121	785.4862	65535	64630.4
836.9571	787.557	65535	64627.05
837.1021	789.6271	65535	64628.6
837.2472	791.6966	65535	64626.8
837.3922	793.7654	65535	64628.95
837.5373	795.8335	65535	64630.35
837.6823	797.901	65535	64628.8
837.8274	799.9678	65535	64623.65
837.9724	802.0339	65535	64627.25
838.1175	804.0993	65535	64615.2
838.2626	806.1641	65535	64627.9
838.4076	808.2282	65535	64627.4
838.5527	810.2916	65535	64626.7
838.6978	812.3544	65535	64628
838.8428	814.4164	65535	64630.9
838.9879	816.4778	65535	64624.25
839.133	818.5385	65535	64626.85
839.2781	820.5986	65535	64622.55
839.4232	822.658	65535	64623.8
839.5682	824.7166	65535	64625.6
839.7133	826.7747	65535	64625.7
839.8584	828.832	65535	64625.85
840.0035	830.8886	65535	64623.55
840.1486	832.9446	65535	64623.4
840.2937	834.9999	65535	64625.5
840.4388	837.0545	65535	64623.35
840.5839	839.1085	65535	64625.2
840.729	841.1618	65535	64620.65
840.8741	843.2143	65535	64623.75
841.0192	845.2662	65535	64624.7
841.1643	847.3175	65535	64621.85
841.3095	849.368	65535	64622.5
841.4546	851.4179	65535	64624.25
841.5997	853.467	65535	64624.8
841.7448	855.5155	65535	64623.05
841.8899	857.5633	65535	64627.15
842.0351	859.6105	65535	64619.3
842.1802	861.6569	65535	64621.55
842.3253	863.7027	65535	64619.55
842.4704	865.7478	65535	64620.05
842.6156	867.7922	65535	64622.05
842.7607	869.8359	65535	64621.45
842.9058	871.8789	65535	64622.95
843.0509	873.9212	65535	64589.1
843.1961	875.9629	65535	64619.15
843.3412	878.0039	65535	64619.65
843.4863	880.0441	65535	64626.25
843.6315	882.0837	65535	64624.3
843.7766	884.1226	65535	64621.45
843.9218	886.1609	65535	64622.15
844.0669	888.1984	65535	64623
844.212	890.2352	65535	64623.5
844.3572	892.2714	65535	64619.95
844.5023	894.3069	65535	64620.35
844.6475	896.3416	65535	64620.65
844.7926	898.3757	65535	64620.85
844.9377	900.4091	65535	64619.05
845.0829	902.4418	65535	64614
845.228	904.4739	65535	64618.3
845.3732	906.5052	65535	64621.85
845.5183	908.5358	65535	64621.25
845.6635	910.5658	65535	64618.4
845.8086	912.595	65535	64614.4
845.9538	914.6236	65535	64616.65
846.0989	916.6515	65535	64616.7
846.2441	918.6786	65535	64616.15
846.3892	920.7051	65535	64617.5
846.5344	922.7309	65535	64620.8
846.6795	924.756	65535	64615.55
846.8246	926.7804	65535	64617.1
846.9698	928.8041	65535	64618.5
847.1149	930.8272	65535	64617.55
847.2601	932.8495	65535	64617.75
847.4052	934.8711	65535	64616.35
847.5504	936.892	65535	64616.3
847.6955	938.9123	65535	64616.15
847.8407	940.9318	65535	64617.3
847.9858	942.9506	65535	64616.85
848.131	944.9688	65535	64621.35
848.2761	946.9862	65535	64616.9
848.4213	949.003	65535	64614.15
848.5664	951.019	65535	64618.3
848.7115	953.0344	65535	64620.4
848.8567	955.0491	65535	64615.85
849.0018	957.063	65535	64620
849.147	959.0763	65535	64618.55
849.2921	961.0888	65535	64612.9
849.4373	963.1007	65535	64617.05
849.5824	965.1119	65535	64623.75
849.7275	967.1223	65535	64623.45
849.8727	969.1321	65535	64627.65
850.0178	971.1412	65535	64622.95
850.1629	973.1495	65535	64618.7
850.3081	975.1572	65535	64578.2
850.4532	977.1641	65535	64615.35
850.5983	979.1704	65535	64617.2
850.7435	981.1759	65535	64615.95
850.8886	983.1808	65535	64614.1
851.0337	985.1849	65535	64603.2
851.1788	987.1884	65535	64613.4
851.324	989.1911	65535	64617.85
851.4691	991.1932	65535	64617.55
851.6142	993.1945	65535	64616.4
851.7593	995.1951	65535	64614.7
851.9045	997.1951	65535	64610.35
852.0496	999.1943	65535	64617.05
852.1947	1001.1928	65535	64617.15
852.3398	1003.1906	65535	64618.8
852.4849	1005.1877	65535	64618.35
852.63	1007.1841	65535	64614.7
852.7751	1009.1798	65535	64617.35
852.9202	1011.1748	65535	64619.2
853.0653	1013.1691	65535	64614.7
853.2104	1015.1627	65535	64620.35
853.3555	1017.1556	65535	64618.05
853.5006	1019.1477	65535	64619.6
853.6457	1021.1392	65535	64623.1
853.7908	1023.1299	65535	64622.8
853.9359	1025.12	65535	64623.25
854.081	1027.1093	65535	64631.95
854.2261	1029.0979	65535	64634.25
854.3712	1031.0859	65535	64626.85
854.5163	1033.0731	65535	64625.55
854.6613	1035.0596	65535	64622.85
854.8064	1037.0454	65535	64621.6
854.9515	1039.0304	65535	64620.7
855.0965	1041.0148	65535	64620.25
855.2416	1042.9985	65535	64616.05
855.3867	1044.9814	65535	64621.05
855.5317	1046.9636	65535	64615.85
855.6768	1048.9452	65535	64620.75
855.8219	1050.926	65535	64620.25
855.9669	1052.9061	65535	64620
856.112	1054.8855	65535	64617.7
856.257	1056.8642	65535	64618.25
856.4021	1058.8421	65535	64615.75
856.5471	1060.8194	65535	64617.2
856.6921	1062.7959	65535	64620.2
856.8372	1064.7717	65535	64619.75
856.9822	1066.7469	65535	64615.95
857.1272	1068.7213	65535	64613.55
857.2723	1070.695	65535	64617.25
857.4173	1072.6679	65535	64617.95
857.5623	1074.6402	65535	64619.2
857.7073	1076.6117	65535	64612.85
857.8523	1078.5826	65535	64615.95
857.9973	1080.5527	65535	64617.35
858.1423	1082.5221	65535	64616.45
858.2873	1084.4908	65535	64618.3
858.4323	1086.4587	65535	64616.85
858.5773	1088.426	65534.1	64616.3
858.7223	1090.3925	65535	64611.95
858.8673	1092.3584	65534.55	64615.7
859.0123	1094.3235	65526.1	64610.2
859.1573	1096.2879	65525.2	64606.6
859.3022	1098.2515	65535	64615.7
859.4472	1100.2145	65522.9	64605.95
859.5922	1102.1767	65519.85	64603.05
859.7371	1104.1382	65528.05	64613.6
859.8821	1106.099	65520.65	64603.8
860.027	1108.0591	65517.45	64601.45
860.172	1110.0185	65450.15	64534.7
860.3169	1111.9771	65525.85	64611.15
860.4619	1113.9351	65514.95	64597.9
860.6068	1115.8923	65471.3	64554.45
860.7517	1117.8488	65447.4	64527.25
860.8967	1119.8045	65436.45	64518.3
861.0416	1121.7596	65461.75	64544.3
861.1865	1123.7139	65428.3	64512.7
861.3314	1125.6675	65433.35	64517.75
861.4763	1127.6204	65421	64506.1
861.6212	1129.5726	65384.1	64466.7
861.7661	1131.524	65414.5	64499
861.911	1133.4748	65432.8	64513.4
862.0559	1135.4248	65379.05	64460.3
862.2008	1137.3741	65389.3	64476.15
862.3457	1139.3226	65380.1	64461.8
862.4905	1141.2705	65365.75	64450.95
862.6354	1143.2176	65379.5	64454.65
862.7803	1145.164	65300.65	64379
862.9251	1147.1097	65347.3	64432.2
863.07	1149.0546	65354.45	64436.75
863.2148	1150.9989	65361.5	64442.45
863.3597	1152.9424	65292.9	64371.95
863.5045	1154.8852	65354.15	64436.05
863.6493	1156.8272	65295.9	64380.4
863.7942	1158.7686	65364.6	64440.8
863.939	1160.7092	65287.15	64368.1
864.0838	1162.6491	65294.3	64375.5
864.2286	1164.5883	65313.15	64397.45
864.3734	1166.5267	65276.6	64358.7
864.5182	1168.4644	65291.8	64374.75
864.663	1170.4014	65275.6	64355
864.8078	1172.3377	65284.4	64373.2
864.9526	1174.2732	65317.2	64403.6
865.0974	1176.2081	65280.6	64364.5
865.2421	1178.1421	65255.9	64335.15
865.3869	1180.0755	65298.45	64383.9
865.5317	1182.0082	65278.45	64363.7
865.6764	1183.9401	65274.4	64360.75
865.8212	1185.8713	65227	64312.55
865.9659	1187.8017	65234.05	64325.65
866.1106	1189.7315	65240.65	64334.2
866.2554	1191.6605	65228.45	64295.6
866.4001	1193.5888	65209.05	64300.45
866.5448	1195.5163	65165.9	64253.95
866.6895	1197.4432	65174.8	64258.9
866.8342	1199.3693	65174.7	64261.65
866.9789	1201.2947	65144.75	64228
867.1236	1203.2193	65171.85	64257.9
867.2683	1205.1432	65138.95	64223.2
867.413	1207.0664	65123.45	64208.25
867.5576	1208.9889	65117.7	64197.75
867.7023	1210.9106	65120.85	64206.7
867.847	1212.8316	65096.6	64180.6
867.9916	1214.7519	65094.3	64169.9
868.1363	1216.6715	65076.35	64161
868.2809	1218.5903	65063.65	64150.3
868.4255	1220.5084	65054.55	64139.1
868.5701	1222.4257	65053.45	64136.9
868.7148	1224.3424	65045.6	64134
868.8594	1226.2583	64990.7	64072.85
869.004	1228.1735	65029.65	64115.3
869.1486	1230.0879	64932.5	64016.25
869.2932	1232.0016	65010.3	64094.9
869.4377	1233.9146	64925.55	64008.15
869.5823	1235.8269	64958.5	64043.8
869.7269	1237.7384	64940	64025.5
869.8715	1239.6492	64917.35	64004.65
