Software Version:	3.9.2.0
Unit SN:	10000200
Spectrometer SN:	6960
Date:	3/6/2024 9:27:03 AM
Data Line Index:	25
Spectral Points:	2048
Integration time (ms):	125
Averages:	20
Delay (ms):	30
Sequence Number:	1
Processing:	dark subtract
Laser Power (mW):	305
Laser Current (mA):	818
Laser Diode Temp (C):	25
Laser Case Temp (C):	23.1
System Temp (C):	22.8
Spectrometer Temp (C):	20.6
CCD Temp (C):	-0.035
Secondary Temp (C):	20.006
Heatsink Temp (C):	17.587
CCDPCB Temp (C):	29.56
SecondaryPCB Temp (C):	25.113

Wavelength	RamanShift	Raw Counts	Dark Subtracted
787.061	30.1047	560.7	151.3
787.2016	32.3739	565.1	159.4
787.3422	34.6426	575.65	168.35
787.4828	36.9109	583.7	174.5
787.6235	39.1787	602.45	190.4
787.7642	41.4461	619.65	203.7
787.9049	43.7131	631.6	212.75
788.0456	45.9796	640.45	218
788.1863	48.2456	661.85	233.8
788.3271	50.5112	678.05	247.65
788.4679	52.7764	694.65	259.1
788.6087	55.0411	713.05	274.35
788.7496	57.3054	737.15	295.4
788.8904	59.5692	750.25	305.4
789.0313	61.8326	775.6	330.1
789.1722	64.0955	806.1	358.55
789.3132	66.3579	837.7	383.45
789.4541	68.6199	870.9	413.15
789.5951	70.8815	942.5	479.7
789.7361	73.1426	1092.95	627.15
789.8771	75.4032	1460.75	990.9
790.0181	77.6634	2367.85	1896.4
790.1592	79.9231	4608.95	4134.75
790.3003	82.1824	9478.1	8998.9
790.4414	84.4412	18144.25	17658.15
790.5825	86.6995	30211.4	29718.1
790.7237	88.9574	41370.25	40869.65
790.8648	91.2148	49788.1	49283.85
791.006	93.4717	52366.3	51860.25
791.1472	95.7282	53707.2	53198.1
791.2885	97.9842	54425.85	53914.65
791.4297	100.2398	54575.95	54063.8
791.571	102.4949	54641	54124.25
791.7123	104.7495	54925.65	54404.15
791.8536	107.0036	54566.95	54046.75
791.9949	109.2573	55442.5	54923.45
792.1363	111.5105	54976.55	54454.8
792.2777	113.7632	55290.4	54764.65
792.4191	116.0154	55639.95	55104.9
792.5605	118.2672	56245.1	55716.75
792.7019	120.5185	56304.4	55775
792.8434	122.7693	56354	55818.2
792.9849	125.0197	55546.65	55007.15
793.1264	127.2696	57214.45	56672
793.2679	129.519	56941.5	56394.65
793.4094	131.7679	57620.1	57072.9
793.551	134.0163	56243.9	55694.4
793.6926	136.2642	56955.6	56402.55
793.8342	138.5117	58000.5	57443.85
793.9758	140.7587	57662.95	57108.2
794.1175	143.0052	57653.15	57091
794.2591	145.2512	56870.25	56309.1
794.4008	147.4967	58036.6	57471.45
794.5425	149.7417	57816.95	57250.7
794.6842	151.9863	57818.45	57249.15
794.826	154.2304	57364.55	56790.85
794.9677	156.4739	57845.9	57264.75
795.1095	158.717	58630.05	58049.4
795.2513	160.9596	58169.75	57585.9
795.3931	163.2017	57529.7	56943.7
795.535	165.4433	58526.1	57937.7
795.6768	167.6844	58112.65	57520.45
795.8187	169.925	58684.8	58091.1
795.9606	172.1651	58216	57617.6
796.1025	174.4047	58657.05	58057.45
796.2445	176.6439	58564.15	57959.6
796.3864	178.8825	58349.15	57744.45
796.5284	181.1206	59306.05	58697.15
796.6704	183.3582	59153.85	58540.6
796.8124	185.5954	58958.2	58341.15
796.9544	187.832	59012.35	58392.7
797.0965	190.0681	58478.75	57854.85
797.2386	192.3037	59519.85	58896.35
797.3806	194.5388	60634.1	60007.4
797.5228	196.7734	58138.9	57511.35
797.6649	199.0075	60660.65	60032.05
797.807	201.2411	59660.4	59027.45
797.9492	203.4742	61141.2	60506.65
798.0914	205.7068	60636.05	59999.4
798.2336	207.9389	60622.9	59986.15
798.3758	210.1704	60489.35	59862.4
798.518	212.4015	61472.5	60852.75
798.6603	214.632	60361	59746.05
798.8025	216.862	61663.75	61050
798.9448	219.0915	60840.2	60222.55
799.0871	221.3205	60810.15	60190.1
799.2294	223.549	61938.25	61324.75
799.3718	225.777	61679	61059.6
799.5141	228.0044	62365.65	61739.8
799.6565	230.2314	61703.5	61074.05
799.7989	232.4578	61662.55	61030.85
799.9413	234.6837	61919.85	61279.8
800.0837	236.909	63866.8	63225.45
800.2262	239.1339	61131.9	60466.7
800.3687	241.3582	62452.3	61800.25
800.5111	243.582	62614.75	61931.45
800.6536	245.8053	62463.05	61794.3
800.7961	248.0281	62821.05	62158.1
800.9387	250.2503	63159	62493
801.0812	252.472	62158.15	61490.45
801.2238	254.6932	63017.35	62349.75
801.3664	256.9139	62542.75	61872.8
801.509	259.134	64229.9	63557.45
801.6516	261.3536	62574.95	61903.1
801.7942	263.5727	63355.4	62681.05
801.9369	265.7912	62909.45	62236.25
802.0795	268.0092	63195.5	62521.55
802.2222	270.2267	63556.55	62881.7
802.3649	272.4436	62606.5	61928.85
802.5076	274.6601	63607.25	62920.05
802.6504	276.8759	63950.75	63267.8
802.7931	279.0913	63381.25	62699.3
802.9359	281.3061	63894.15	63208.5
803.0787	283.5204	63782.9	63094.7
803.2215	285.7341	63851.1	63161.35
803.3643	287.9473	64338.75	63638.55
803.5071	290.16	63870	63177.65
803.6499	292.3721	63946.45	63259.7
803.7928	294.5837	63539.15	62849.9
803.9357	296.7947	62892.3	62202.4
804.0786	299.0052	64241.95	63550.9
804.2215	301.2152	63843.75	63150.7
804.3644	303.4246	64144.8	63452.25
804.5074	305.6334	64283.35	63590.85
804.6503	307.8418	63563.2	62866.9
804.7933	310.0495	63463.3	62765.85
804.9363	312.2568	63646.3	62948.8
805.0793	314.4635	63647.3	62947.1
805.2223	316.6696	64148.65	63444.05
805.3653	318.8752	64421.55	63708.3
805.5084	321.0802	62729.75	62022.95
805.6514	323.2847	63680.95	62972.9
805.7945	325.4887	63458.15	62749.85
805.9376	327.692	63283.4	62573.8
806.0807	329.8949	63732.35	63023.7
806.2238	332.0972	63455.7	62743.35
806.367	334.2989	63880.1	63164.3
806.5101	336.5001	64309.6	63593.8
806.6533	338.7007	63058.1	62340.35
806.7965	340.9008	63851.1	63135.35
806.9397	343.1003	64013	63292.35
807.0829	345.2992	64318.65	63597.9
807.2261	347.4976	63633.2	62910.5
807.3693	349.6955	63975	63249.85
807.5126	351.8927	63397.95	62671.85
807.6559	354.0895	63945.75	63206.15
807.7991	356.2856	63876.4	63145.85
807.9424	358.4812	64381.95	63650.95
808.0857	360.6763	63221.7	62488.35
808.2291	362.8707	64458.4	63724
808.3724	365.0646	63721.4	62983.5
808.5158	367.258	63737.6	62998.7
808.6591	369.4508	62962.4	62218.55
808.8025	371.643	64243.8	63502.7
808.9459	373.8346	63674.75	62932.25
809.0893	376.0257	63873.55	63130.75
809.2327	378.2162	63705.35	62962.2
809.3762	380.4062	62669.2	61927
809.5196	382.5956	63695.85	62957.5
809.6631	384.7844	63443	62708.5
809.8066	386.9726	63957.8	63220.55
809.9501	389.1603	63781.7	63044.7
810.0936	391.3474	63165	62380.8
810.2371	393.5339	63738.75	62996.9
810.3806	395.7199	62648.9	61911.8
810.5241	397.9052	62916.1	62176.6
810.6677	400.09	63221.15	62480
810.8113	402.2743	64045.45	63300.9
810.9548	404.4579	62858.85	62114.6
811.0984	406.641	63064.7	62315.95
811.2421	408.8235	63306.35	62556.65
811.3857	411.0054	63455.65	62704.25
811.5293	413.1868	63562.85	62810.7
811.673	415.3675	63079.65	62320.7
811.8166	417.5477	63120.75	62362.15
811.9603	419.7273	63191.9	62429.15
812.104	421.9064	62987.05	62221.35
812.2477	424.0848	63025.5	62265.35
812.3914	426.2627	63784.85	63024.05
812.5351	428.4399	62774.15	62009.25
812.6788	430.6166	61695.2	60926.55
812.8226	432.7928	63005.95	62236.65
812.9663	434.9683	62143.75	61374.9
813.1101	437.1432	62024.45	61256.1
813.2539	439.3176	62980.1	62211.85
813.3977	441.4914	61561.3	60792.3
813.5415	443.6645	61816.95	61046.2
813.6853	445.8371	62025.95	61255.3
813.8291	448.0091	61436.6	60667.15
813.973	450.1806	61037.8	60265.85
814.1168	452.3514	61390.6	60615.25
814.2607	454.5216	60643.65	59860.35
814.4046	456.6913	61458.35	60682.6
814.5485	458.8603	61561.65	60788.1
814.6924	461.0288	60508.45	59733.8
814.8363	463.1967	61468	60693
814.9802	465.3639	61210.85	60434.25
815.1241	467.5306	59685.4	58908.3
815.2681	469.6967	60607.85	59829.8
815.412	471.8622	61180.9	60403.45
815.556	474.0271	60441.2	59664.55
815.7	476.1914	60650	59868.95
815.844	478.3551	60716.9	59938.2
815.988	480.5182	61668.45	60887.3
816.132	482.6807	60176.15	59396.3
816.276	484.8426	60207.7	59429.2
816.4201	487.0039	61284.75	60504.3
816.5641	489.1647	61176.15	60394.3
816.7082	491.3248	59766.1	58983.4
816.8522	493.4843	61161.95	60379.35
816.9963	495.6432	61205	60419.85
817.1404	497.8015	59772.65	58985.05
817.2845	499.9592	60571.65	59784.95
817.4286	502.1163	60478.5	59690.75
817.5727	504.2728	60448.75	59659.25
817.7168	506.4287	60357.4	59570.5
817.861	508.5839	59803.45	59014.8
818.0051	510.7386	60369.05	59580.8
818.1493	512.8927	60463.7	59664.8
818.2935	515.0461	60181.2	59385.65
818.4377	517.199	60836.8	60043.5
818.5818	519.3512	60075.8	59282.75
818.726	521.5029	60030.6	59231.55
818.8703	523.6539	60218.65	59424.95
819.0145	525.8043	59270.35	58474.95
819.1587	527.9541	60099.8	59302.6
819.303	530.1033	59939.2	59142.1
819.4472	532.2519	59438.7	58642.4
819.5915	534.3999	60100.05	59300.65
819.7357	536.5472	60423.35	59625.15
819.88	538.694	58980.2	58181.75
820.0243	540.8401	59599.85	58801.5
820.1686	542.9856	59571.7	58769.95
820.3129	545.1305	60070.8	59268.45
820.4572	547.2748	59212.2	58411.55
820.6016	549.4185	59248.55	58446.2
820.7459	551.5615	59980	59180.1
820.8902	553.704	59691.7	58890.1
821.0346	555.8458	59157.1	58357.05
821.1789	557.987	59322.3	58522.05
821.3233	560.1276	59595.3	58794
821.4677	562.2675	59131.15	58328.8
821.6121	564.4069	59284.85	58481.9
821.7565	566.5456	59788.75	58988
821.9009	568.6837	58732.65	57926.65
822.0453	570.8212	59198.2	58393.6
822.1897	572.958	58061.35	57254.3
822.3342	575.0942	59125.5	58320.5
822.4786	577.2299	58425.2	57617.7
822.6231	579.3648	58231.05	57423.85
822.7675	581.4992	58001.8	57195.8
822.912	583.6329	57888.1	57081.8
823.0565	585.766	57838.4	57031.3
823.201	587.8985	58150.15	57342.25
823.3454	590.0304	57032.15	56198
823.4899	592.1616	57906.95	57093.55
823.6345	594.2922	57454.5	56642.8
823.779	596.4222	57012.8	56199.4
823.9235	598.5515	57109	56296.65
824.068	600.6802	57340.3	56529.95
824.2126	602.8083	56599.5	55787.65
824.3571	604.9358	56503.8	55690.8
824.5017	607.0626	57069.85	56256.05
824.6462	609.1888	56192.05	55377.4
824.7908	611.3144	56723.8	55908.3
824.9354	613.4393	56283.15	55469.8
825.08	615.5636	56016.05	55199.3
825.2246	617.6873	56410.15	55594.7
825.3692	619.8103	55929	55110.1
825.5138	621.9327	56488.35	55667.9
825.6584	624.0544	56585.75	55766.8
825.803	626.1756	56159.8	55342.3
825.9477	628.2961	56115.95	55297.75
826.0923	630.4159	55676.35	54857.5
826.237	632.5351	55599.75	54779.2
826.3816	634.6537	56544.55	55723.7
826.5263	636.7716	55445.35	54622.4
826.6709	638.8889	55684.9	54864.85
826.8156	641.0056	55549.15	54728.1
826.9603	643.1216	55766.75	54944.65
827.105	645.237	55929.7	55102.9
827.2497	647.3518	55298.75	54475.4
827.3944	649.4659	55396.15	54571.9
827.5391	651.5793	55412.7	54590
827.6838	653.6922	55443.95	54621.65
827.8285	655.8043	54834.25	54009.25
827.9733	657.9159	55742.8	54917.35
828.118	660.0268	54170.65	53343.6
828.2627	662.137	54842.8	54015.6
828.4075	664.2466	54996.45	54166.95
828.5522	666.3556	54681.55	53853.3
828.697	668.4639	54803.55	53971.25
828.8418	670.5716	54594.65	53767.5
828.9865	672.6786	54772.05	53942.25
829.1313	674.785	54140.75	53311.6
829.2761	676.8907	54221.9	53390.85
829.4209	678.9958	54255.9	53427.45
829.5657	681.1002	54400.8	53569.45
829.7105	683.204	53869.45	53035.85
829.8553	685.3072	53734.9	52901.5
830.0001	687.4097	53766.2	52935.95
830.1449	689.5115	53752.95	52918.7
830.2898	691.6127	54036.2	53204.5
830.4346	693.7132	53557.85	52726.2
830.5794	695.8131	53722.1	52869.25
830.7243	697.9123	53739.15	52906.65
830.8691	700.0109	53792.3	52961.05
831.014	702.1089	53174.6	52342.6
831.1588	704.2061	53408.1	52575.6
831.3037	706.3028	53390.85	52555.05
831.4486	708.3987	53357.4	52519.8
831.5935	710.4941	53179.05	52341.55
831.7383	712.5887	53382.1	52544.4
831.8832	714.6827	53205.2	52367.85
832.0281	716.7761	53304.75	52469
832.173	718.8688	53197.35	52359.05
832.3179	720.9608	52837.4	51996.6
832.4628	723.0522	52974.35	52133.85
832.6077	725.1429	52591.95	51754.15
832.7527	727.233	53306.85	52467.8
832.8976	729.3224	52361.15	51522.9
833.0425	731.4112	52595.75	51755.15
833.1874	733.4993	52547.55	51705.6
833.3324	735.5867	52443.8	51601.45
833.4773	737.6735	52263.85	51423.5
833.6222	739.7596	52021.3	51179.95
833.7672	741.845	51990.6	51150.15
833.9122	743.9298	51998.55	51156.25
834.0571	746.014	51787.75	50947.3
834.2021	748.0974	51666	50824.65
834.347	750.1802	51774.2	50930.3
834.492	752.2624	51275	50433.5
834.637	754.3439	51187.15	50344.55
834.782	756.4247	51213.3	50358.9
834.9269	758.5048	50863.75	50020
835.0719	760.5843	50849.65	50005.9
835.2169	762.6631	50720.8	49875.7
835.3619	764.7413	50596.15	49753.85
835.5069	766.8188	50661.55	49815.65
835.6519	768.8956	50562.9	49719.75
835.7969	770.9718	50558.9	49714.75
835.9419	773.0473	50396.1	49551.85
836.0869	775.1221	50198.65	49354.5
836.232	777.1962	50021.4	49176.65
836.377	779.2697	49919	49072.45
836.522	781.3426	49908.3	49053.8
836.667	783.4147	49866.35	49018.75
836.8121	785.4862	49815.2	48971.8
836.9571	787.557	49638.2	48790.55
837.1021	789.6271	49594.85	48749.4
837.2472	791.6966	49350	48503.3
837.3922	793.7654	49074.55	48228.6
837.5373	795.8335	49128.1	48279.75
837.6823	797.901	48948.55	48101.65
837.8274	799.9678	48839.8	47991.25
837.9724	802.0339	48715.15	47867.75
838.1175	804.0993	48714.25	47857.95
838.2626	806.1641	48502.25	47650.5
838.4076	808.2282	48381.65	47531.85
838.5527	810.2916	48360.05	47510.15
838.6978	812.3544	48312.2	47466.1
838.8428	814.4164	48150.55	47302.65
838.9879	816.4778	48247.15	47397.05
839.133	818.5385	48015.15	47166.25
839.2781	820.5986	48029.85	47180
839.4232	822.658	48071.85	47219.75
839.5682	824.7166	47853.45	47002.9
839.7133	826.7747	47964.45	47112.35
839.8584	828.832	47892.65	47042.2
840.0035	830.8886	47766	46914.2
840.1486	832.9446	47779.5	46926.8
840.2937	834.9999	47572.35	46721.45
840.4388	837.0545	47476.25	46623.5
840.5839	839.1085	47410.2	46558.3
840.729	841.1618	47286.85	46431.7
840.8741	843.2143	47068.15	46216.5
841.0192	845.2662	46922.1	46067.4
841.1643	847.3175	46908.85	46057.85
841.3095	849.368	46722.8	45870.3
841.4546	851.4179	46687.9	45836.5
841.5997	853.467	46470.05	45616.5
841.7448	855.5155	46496.4	45642.6
841.8899	857.5633	46385.3	45532.3
842.0351	859.6105	46225.85	45372.45
842.1802	861.6569	46237.75	45382.7
842.3253	863.7027	46123.55	45266.1
842.4704	865.7478	46072.75	45217.35
842.6156	867.7922	45955.35	45100.55
842.7607	869.8359	45842.45	44986.9
842.9058	871.8789	45817.95	44961.45
843.0509	873.9212	45757.95	44872.45
843.1961	875.9629	45561.7	44706.9
843.3412	878.0039	45581.95	44726.9
843.4863	880.0441	45509.7	44654.6
843.6315	882.0837	45551.75	44696.6
843.7766	884.1226	45486.9	44631.5
843.9218	886.1609	45437.7	44581.9
844.0669	888.1984	45450.3	44594.55
844.212	890.2352	45546.9	44690.05
844.3572	892.2714	45346.4	44483.75
844.5023	894.3069	45340.2	44483.25
844.6475	896.3416	45153.25	44294.55
844.7926	898.3757	45063.75	44206
844.9377	900.4091	45008.15	44149.85
845.0829	902.4418	44924.8	44059
845.228	904.4739	44664.8	43805.7
845.3732	906.5052	44664.2	43804.1
845.5183	908.5358	44638.25	43781.45
845.6635	910.5658	44518.45	43657.05
845.8086	912.595	44444.3	43584.4
845.9538	914.6236	44267.8	43409.75
846.0989	916.6515	44257.8	43399.65
846.2441	918.6786	44064.3	43201.65
846.3892	920.7051	44031.7	43169.65
846.5344	922.7309	44089.55	43229.95
846.6795	924.756	43875.2	43013.9
846.8246	926.7804	43924.5	43062.35
846.9698	928.8041	43546.95	42686.65
847.1149	930.8272	43603.2	42741.25
847.2601	932.8495	43322.95	42458.85
847.4052	934.8711	43341.3	42480.85
847.5504	936.892	43157.45	42294.9
847.6955	938.9123	43026.75	42164.35
847.8407	940.9318	42980.65	42118.9
847.9858	942.9506	42816.75	41953.25
848.131	944.9688	42633.15	41772
848.2761	946.9862	42597.1	41737.2
848.4213	949.003	42330.7	41467.4
848.5664	951.019	42225.55	41361.95
848.7115	953.0344	42124.9	41262.3
848.8567	955.0491	42044.5	41181.5
849.0018	957.063	42045.2	41183.1
849.147	959.0763	42092.9	41230.65
849.2921	961.0888	41884.1	41020.55
849.4373	963.1007	41848.3	40985.45
849.5824	965.1119	41779.65	40917.85
849.7275	967.1223	41711.55	40850.25
849.8727	969.1321	41665.75	40805.35
850.0178	971.1412	41576.4	40713.8
850.1629	973.1495	41412.1	40548.85
850.3081	975.1572	41415.1	40504.15
850.4532	977.1641	41366.05	40502.45
850.5983	979.1704	41148.2	40282.95
850.7435	981.1759	41041.1	40173.85
850.8886	983.1808	41030.1	40165.25
851.0337	985.1849	40908.95	40036.7
851.1788	987.1884	40822.95	39955.1
851.324	989.1911	40738.65	39872.2
851.4691	991.1932	40658.7	39792.55
851.6142	993.1945	40495.15	39630.25
851.7593	995.1951	40285.25	39420
851.9045	997.1951	40271.7	39400.9
852.0496	999.1943	40093.2	39228.05
852.1947	1001.1928	39896.95	39031.75
852.3398	1003.1906	39799.25	38935.25
852.4849	1005.1877	39741.75	38873.6
852.63	1007.1841	39526.9	38661.45
852.7751	1009.1798	39423.4	38558.5
852.9202	1011.1748	39302.05	38437.15
853.0653	1013.1691	39161.2	38295.7
853.2104	1015.1627	39019.4	38153.05
853.3555	1017.1556	38675.85	37810.55
853.5006	1019.1477	38660.35	37792.2
853.6457	1021.1392	38436.55	37571.2
853.7908	1023.1299	38344.4	37478.95
853.9359	1025.12	38180.15	37311.35
854.081	1027.1093	38003.4	37139.8
854.2261	1029.0979	37956.1	37091.05
854.3712	1031.0859	37715.15	36850.3
854.5163	1033.0731	37656.7	36789.55
854.6613	1035.0596	37543.7	36676.7
854.8064	1037.0454	37407.45	36539.85
854.9515	1039.0304	37326.7	36459.3
855.0965	1041.0148	37134.45	36267.25
855.2416	1042.9985	36983	36112.75
855.3867	1044.9814	36991.65	36125.55
855.5317	1046.9636	36814	35944.15
855.6768	1048.9452	36627.7	35759.75
855.8219	1050.926	36672.2	35806.9
855.9669	1052.9061	36538.8	35673.2
856.112	1054.8855	36467.35	35597.6
856.257	1056.8642	36395.3	35525.2
856.4021	1058.8421	36355.6	35481.9
856.5471	1060.8194	36218.65	35349.3
856.6921	1062.7959	36172.8	35303.65
856.8372	1064.7717	36134.55	35265.15
856.9822	1066.7469	36034.35	35165.1
857.1272	1068.7213	35943.2	35072.8
857.2723	1070.695	35887.1	35018.9
857.4173	1072.6679	35714.95	34845.6
857.5623	1074.6402	35691.6	34823.75
857.7073	1076.6117	35722	34845.3
857.8523	1078.5826	35658.45	34788.75
857.9973	1080.5527	35570.6	34697.35
858.1423	1082.5221	35396.25	34526.75
858.2873	1084.4908	35313	34443.75
858.4323	1086.4587	35148.5	34278
858.5773	1088.426	35153.4	34282.05
858.7223	1090.3925	34994.1	34117.65
858.8673	1092.3584	34969.7	34098.3
859.0123	1094.3235	34778.2	33908.25
859.1573	1096.2879	34701.2	33829.75
859.3022	1098.2515	34670.4	33800.6
859.4472	1100.2145	34652.15	33781.8
859.5922	1102.1767	34539.55	33666.75
859.7371	1104.1382	34542.25	33671.8
859.8821	1106.099	34474.3	33601.05
860.027	1108.0591	34432.9	33562.15
860.172	1110.0185	34349.5	33477.8
860.3169	1111.9771	34329.25	33458.6
860.4619	1113.9351	34208.05	33337.7
860.6068	1115.8923	34176	33304.5
860.7517	1117.8488	34144.2	33269.45
860.8967	1119.8045	33992.5	33121.9
861.0416	1121.7596	33907.45	33036.2
861.1865	1123.7139	33672.25	32800.95
861.3314	1125.6675	33539.75	32667.4
861.4763	1127.6204	33556.65	32684.2
861.6212	1129.5726	33449.7	32575.05
861.7661	1131.524	33442.85	32572.05
861.911	1133.4748	33389.45	32517.75
862.0559	1135.4248	33240.15	32365.9
862.2008	1137.3741	33090.9	32218.5
862.3457	1139.3226	33011.7	32137.9
862.4905	1141.2705	33043.25	32171.1
862.6354	1143.2176	32831.15	31952.5
862.7803	1145.164	32844.05	31970.2
862.9251	1147.1097	32762.05	31889.55
863.07	1149.0546	32726.95	31854.5
863.2148	1150.9989	32681.15	31805.2
863.3597	1152.9424	32635.25	31761.6
863.5045	1154.8852	32532.95	31660.3
863.6493	1156.8272	32506.75	31634.3
863.7942	1158.7686	32498.4	31619.05
863.939	1160.7092	32395.15	31522.8
864.0838	1162.6491	32256.7	31381.65
864.2286	1164.5883	32226.55	31353.25
864.3734	1166.5267	32148.65	31273.8
864.5182	1168.4644	32169.75	31295.25
864.663	1170.4014	32129.55	31250.7
864.8078	1172.3377	32160.6	31289.4
864.9526	1174.2732	32114.75	31242.9
865.0974	1176.2081	32155.95	31282.75
865.2421	1178.1421	32162.8	31287.3
865.3869	1180.0755	32273.55	31402.65
865.5317	1182.0082	32176.1	31303.45
