Software Version:	3.9.2.0
Unit SN:	10000200
Spectrometer SN:	6960
Date:	3/6/2024 9:57:44 AM
Data Line Index:	25
Spectral Points:	2048
Integration time (ms):	125
Averages:	20
Delay (ms):	30
Sequence Number:	1
Processing:	dark subtract
Laser Power (mW):	300
Laser Current (mA):	825
Laser Diode Temp (C):	25.1
Laser Case Temp (C):	24.6
System Temp (C):	24.4
Spectrometer Temp (C):	21.9
CCD Temp (C):	-0.029
Secondary Temp (C):	20.004
Heatsink Temp (C):	18.197
CCDPCB Temp (C):	31.66
SecondaryPCB Temp (C):	26.214

Wavelength	RamanShift	Raw Counts	Dark Subtracted
787.061	30.1047	697.15	289.75
787.2016	32.3739	705.9	297.95
787.3422	34.6426	724.8	316.6
787.4828	36.9109	742.25	333.45
787.6235	39.1787	767.3	354.5
787.7642	41.4461	793.1	376.35
787.9049	43.7131	824.15	404.5
788.0456	45.9796	844.35	419.15
788.1863	48.2456	873.05	446.1
788.3271	50.5112	898.9	467.2
788.4679	52.7764	933.15	499.3
788.6087	55.0411	965.45	528.45
788.7496	57.3054	1007.2	563.05
788.8904	59.5692	1037.05	591.75
789.0313	61.8326	1075.8	627.5
789.1722	64.0955	1123.1	671.75
789.3132	66.3579	1183.7	727.35
789.4541	68.6199	1246.3	785.8
789.5951	70.8815	1361.25	897.15
789.7361	73.1426	1619.6	1151.4
789.8771	75.4032	2263.45	1793.2
790.0181	77.6634	3926.8	3452.3
790.1592	79.9231	8062.6	7583.35
790.3003	82.1824	18822.65	18333.7
790.4414	84.4412	39507.8	39005.2
790.5825	86.6995	52843.4	52320.35
790.7237	88.9574	58303.35	57764.6
790.8648	91.2148	61475.85	60929.25
791.006	93.4717	62180.05	61626.65
791.1472	95.7282	62500.5	61941.9
791.2885	97.9842	62630.7	62070.2
791.4297	100.2398	62625.2	62064.05
791.571	102.4949	62636.7	62067.25
791.7123	104.7495	62661.2	62091.4
791.8536	107.0036	62580.65	62012.3
791.9949	109.2573	62711.3	62144.35
792.1363	111.5105	62633.5	62061.5
792.2777	113.7632	62660	62086.55
792.4191	116.0154	62709	62123.15
792.5605	118.2672	62791.1	62211.8
792.7019	120.5185	62806.5	62226.1
792.8434	122.7693	62796.15	62213.35
792.9849	125.0197	62709.25	62121.65
793.1264	127.2696	62947.6	62356.75
793.2679	129.519	62903.65	62312.7
793.4094	131.7679	63008.95	62408.1
793.551	134.0163	62791.75	62192.05
793.6926	136.2642	62875.65	62269.15
793.8342	138.5117	63032.5	62418.9
793.9758	140.7587	62960.05	62349.6
794.1175	143.0052	62979.4	62365.9
794.2591	145.2512	62865.3	62253.5
794.4008	147.4967	63012.1	62399.95
794.5425	149.7417	62960.5	62344.1
794.6842	151.9863	62958.1	62334.75
794.826	154.2304	62879.35	62256.6
794.9677	156.4739	62949.1	62318.9
795.1095	158.717	63050.45	62419.85
795.2513	160.9596	62974.85	62338.85
795.3931	163.2017	62852.45	62217.2
795.535	165.4433	62990.9	62351.25
795.6768	167.6844	62917.8	62281.95
795.8187	169.925	63007	62364.9
795.9606	172.1651	62934.5	62290.95
796.1025	174.4047	62971.35	62320
796.2445	176.6439	62957.35	62307.4
796.3864	178.8825	62920.15	62264.35
796.5284	181.1206	63058.35	62399.4
796.6704	183.3582	63018.8	62355.05
796.8124	185.5954	62987.4	62320.55
796.9544	187.832	63004.3	62336.75
797.0965	190.0681	62917.5	62248.6
797.2386	192.3037	63061.15	62388.75
797.3806	194.5388	63225.35	62547.35
797.5228	196.7734	62869.95	62192.9
797.6649	199.0075	63209.3	62527.1
797.807	201.2411	63067.95	62385.7
797.9492	203.4742	63268.15	62583.35
798.0914	205.7068	63223.7	62534.95
798.2336	207.9389	63226.15	62536.65
798.3758	210.1704	63201.9	62520.75
798.518	212.4015	63317.8	62642.95
798.6603	214.632	63178.55	62512.5
798.8025	216.862	63326.05	62659.5
798.9448	219.0915	63257.9	62587.7
799.0871	221.3205	63251.5	62579.7
799.2294	223.549	63362.7	62696.1
799.3718	225.777	63344.3	62673.65
799.5141	228.0044	63404.4	62726.7
799.6565	230.2314	63351.95	62676
799.7989	232.4578	63368.05	62684.6
799.9413	234.6837	63377.65	62689.35
800.0837	236.909	63569.15	62878.8
800.2262	239.1339	63290.9	62575.3
800.3687	241.3582	63439.6	62739.75
800.5111	243.582	63421.75	62692.65
800.6536	245.8053	63428.15	62712.4
800.7961	248.0281	63430.9	62717.9
800.9387	250.2503	63476.8	62759.1
801.0812	252.472	63391.75	62671.9
801.2238	254.6932	63460.05	62740.7
801.3664	256.9139	63424.45	62704.15
801.509	259.134	63598.85	62874.8
801.6516	261.3536	63402.6	62682.75
801.7942	263.5727	63508.85	62785.8
801.9369	265.7912	63449	62724
802.0795	268.0092	63460.55	62738.75
802.2222	270.2267	63478.95	62756.2
802.3649	272.4436	63409.8	62681.05
802.5076	274.6601	63486.05	62748.15
802.6504	276.8759	63527.45	62792.4
802.7931	279.0913	63477.95	62746
802.9359	281.3061	63498	62760.7
803.0787	283.5204	63509.8	62772.4
803.2215	285.7341	63512.5	62769.7
803.3643	287.9473	63595.55	62846.1
803.5071	290.16	63535.3	62791.1
803.6499	292.3721	63570.1	62832.95
803.7928	294.5837	63480.7	62742.15
803.9357	296.7947	63434.45	62696.45
804.0786	299.0052	63581.6	62842.6
804.2215	301.2152	63506.8	62762.8
804.3644	303.4246	63574.3	62835.15
804.5074	305.6334	63571.3	62829.8
804.6503	307.8418	63464.4	62721.55
804.7933	310.0495	63486.05	62739.05
804.9363	312.2568	63471.75	62723
805.0793	314.4635	63474	62723.55
805.2223	316.6696	63511.45	62757.35
805.3653	318.8752	63544.35	62782.2
805.5084	321.0802	63376.25	62624.35
805.6514	323.2847	63474.15	62715.85
805.7945	325.4887	63453.1	62697.5
805.9376	327.692	63403.4	62645.2
806.0807	329.8949	63458.9	62699.45
806.2238	332.0972	63423.85	62660.75
806.367	334.2989	63464.35	62696.35
806.5101	336.5001	63513.6	62751.1
806.6533	338.7007	63386.65	62621.2
806.7965	340.9008	63462.25	62692.6
806.9397	343.1003	63466.5	62697.85
807.0829	345.2992	63513.1	62742.85
807.2261	347.4976	63432.35	62661.05
807.3693	349.6955	63465.8	62686.35
807.5126	351.8927	63436.25	62661.5
807.6559	354.0895	63483.55	62695.95
807.7991	356.2856	63493.4	62714.9
807.9424	358.4812	63539	62761.9
808.0857	360.6763	63429	62647.45
808.2291	362.8707	63521.25	62739.35
808.3724	365.0646	63454.55	62670.05
808.5158	367.258	63468.1	62682.55
808.6591	369.4508	63395.25	62606.8
808.8025	371.643	63501.5	62712.2
808.9459	373.8346	63444.2	62655
809.0893	376.0257	63468.05	62672.9
809.2327	378.2162	63447.1	62653.75
809.3762	380.4062	63368.5	62578.45
809.5196	382.5956	63400.3	62608.7
809.6631	384.7844	63400.95	62617.7
809.8066	386.9726	63447.45	62663.3
809.9501	389.1603	63443.35	62659.6
810.0936	391.3474	63378.2	62562.4
810.2371	393.5339	63434.2	62645.6
810.3806	395.7199	63330.15	62544.45
810.5241	397.9052	63337.55	62552.7
810.6677	400.09	63373.75	62585.1
810.8113	402.2743	63445.3	62656.2
810.9548	404.4579	63336.05	62546.9
811.0984	406.641	63359.9	62567.95
811.2421	408.8235	63405.75	62612.8
811.3857	411.0054	63401.3	62606.3
811.5293	413.1868	63402.9	62602
811.673	415.3675	63366.35	62562.6
811.8166	417.5477	63397.3	62594.3
811.9603	419.7273	63374.25	62566.95
812.104	421.9064	63353.55	62541.25
812.2477	424.0848	63372.45	62569
812.3914	426.2627	63416.65	62613.25
812.5351	428.4399	63336.3	62530.25
812.6788	430.6166	63259.75	62448.85
812.8226	432.7928	63345.45	62532.05
812.9663	434.9683	63259.15	62445.7
813.1101	437.1432	63255.75	62444.3
813.2539	439.3176	63323.75	62512.05
813.3977	441.4914	63198.15	62389.45
813.5415	443.6645	63205.25	62394.35
813.6853	445.8371	63208.85	62397.45
813.8291	448.0091	63153.45	62342.2
813.973	450.1806	63151.1	62338.3
814.1168	452.3514	63148.8	62334.7
814.2607	454.5216	63089.4	62268.25
814.4046	456.6913	63131.85	62314.45
814.5485	458.8603	63155.8	62340.5
814.6924	461.0288	63070.35	62254.85
814.8363	463.1967	63157.2	62343.7
814.9802	465.3639	63141.2	62326
815.1241	467.5306	62970.6	62153.55
815.2681	469.6967	63073	62256
815.412	471.8622	63102.05	62287.55
815.556	474.0271	63034.55	62219.85
815.7	476.1914	63062.3	62241.3
815.844	478.3551	63081.65	62260.75
815.988	480.5182	63165.7	62344.3
816.132	482.6807	63034.9	62215.8
816.276	484.8426	63048	62235.3
816.4201	487.0039	63152.65	62336.9
816.5641	489.1647	63141.5	62322.4
816.7082	491.3248	63014.75	62195
816.8522	493.4843	63156.95	62336.4
816.9963	495.6432	63158.35	62334.85
817.1404	497.8015	63013.05	62185.6
817.2845	499.9592	63105.3	62276.65
817.4286	502.1163	63090.55	62259.35
817.5727	504.2728	63076.4	62251.5
817.7168	506.4287	63087.75	62266.45
817.861	508.5839	63015.25	62191.75
818.0051	510.7386	63077.05	62251.05
818.1493	512.8927	63093.85	62261.2
818.2935	515.0461	63052.25	62222.7
818.4377	517.199	63109.8	62279
818.5818	519.3512	63032.85	62199.1
818.726	521.5029	63026.6	62192.45
818.8703	523.6539	63046.3	62213.5
819.0145	525.8043	62953.15	62116.8
819.1587	527.9541	63046.75	62209.1
819.303	530.1033	63041.1	62205.45
819.4472	532.2519	62989.3	62152.85
819.5915	534.3999	63055.65	62215.95
819.7357	536.5472	63066.45	62232.65
819.88	538.694	62905.8	62070.35
820.0243	540.8401	63015.9	62177.55
820.1686	542.9856	63012.8	62171.15
820.3129	545.1305	63063.55	62222.45
820.4572	547.2748	62959.7	62116.45
820.6016	549.4185	62977.55	62128.95
820.7459	551.5615	63029.25	62186.9
820.8902	553.704	63019.35	62177.65
821.0346	555.8458	62956.45	62115.8
821.1789	557.987	62972.5	62130.6
821.3233	560.1276	63006.55	62164.9
821.4677	562.2675	62952.1	62108.5
821.6121	564.4069	62957.05	62111.4
821.7565	566.5456	63030.25	62186.85
821.9009	568.6837	62912.75	62070.1
822.0453	570.8212	62965.45	62121.25
822.1897	572.958	62807.1	61960.2
822.3342	575.0942	62934.5	62094
822.4786	577.2299	62858.35	62015.4
822.6231	579.3648	62808.5	61969.4
822.7675	581.4992	62763.7	61927.9
822.912	583.6329	62753.2	61918.65
823.0565	585.766	62741.05	61904.45
823.201	587.8985	62776.25	61935.3
823.3454	590.0304	62628.05	61771.65
823.4899	592.1616	62739.35	61890.85
823.6345	594.2922	62654.5	61805.85
823.779	596.4222	62615.65	61764.35
823.9235	598.5515	62637.5	61787.25
824.068	600.6802	62664.9	61815.5
824.2126	602.8083	62534.45	61683.95
824.3571	604.9358	62565.8	61716.3
824.5017	607.0626	62635.35	61782.65
824.6462	609.1888	62494.25	61638.45
824.7908	611.3144	62566.75	61712.3
824.9354	613.4393	62503.85	61649.9
825.08	615.5636	62456.75	61598.9
825.2246	617.6873	62523.2	61667.4
825.3692	619.8103	62431.25	61573.5
825.5138	621.9327	62507.4	61648.65
825.6584	624.0544	62532.9	61681.8
825.803	626.1756	62472.6	61619.6
825.9477	628.2961	62444.55	61587.2
826.0923	630.4159	62414.3	61556.4
826.237	632.5351	62378.3	61519.45
826.3816	634.6537	62517.6	61660.1
826.5263	636.7716	62392.25	61531.2
826.6709	638.8889	62422.25	61558.85
826.8156	641.0056	62401.7	61542.1
826.9603	643.1216	62409.9	61546.2
827.105	645.237	62449.65	61587.7
827.2497	647.3518	62335.85	61477.1
827.3944	649.4659	62377.35	61521.8
827.5391	651.5793	62389.45	61534.2
827.6838	653.6922	62405	61544.65
827.8285	655.8043	62318.2	61457.1
827.9733	657.9159	62429.3	61568.35
828.118	660.0268	62195.15	61331.95
828.2627	662.137	62295.85	61435.05
828.4075	664.2466	62316.45	61450.1
828.5522	666.3556	62265.5	61399.5
828.697	668.4639	62298.35	61431.3
828.8418	670.5716	62245.9	61383.85
828.9865	672.6786	62298.9	61434.95
829.1313	674.785	62212.1	61345.35
829.2761	676.8907	62202.85	61337.4
829.4209	678.9958	62224.3	61362.35
829.5657	681.1002	62236.3	61372.4
829.7105	683.204	62157.25	61287.35
829.8553	685.3072	62122.3	61253.7
830.0001	687.4097	62126.5	61260.1
830.1449	689.5115	62114.9	61246.8
830.2898	691.6127	62175.5	61310.2
830.4346	693.7132	62085.15	61219.05
830.5794	695.8131	62127.15	61242.2
830.7243	697.9123	62130.15	61259.65
830.8691	700.0109	62148.25	61276.6
831.014	702.1089	62035.15	61165.6
831.1588	704.2061	62077.6	61207.4
831.3037	706.3028	62076.45	61204.3
831.4486	708.3987	62064.65	61191.25
831.5935	710.4941	62031.9	61162.35
831.7383	712.5887	62070	61197.95
831.8832	714.6827	62037.5	61162.2
832.0281	716.7761	62057.65	61187.1
832.173	718.8688	62058.95	61184.8
832.3179	720.9608	62011.05	61133.9
832.4628	723.0522	62038.15	61159.9
832.6077	725.1429	61967.55	61093
832.7527	727.233	62055	61180.15
832.8976	729.3224	61872.35	60997.7
833.0425	731.4112	61947.85	61073.45
833.1874	733.4993	61933.8	61058.95
833.3324	735.5867	61920.65	61042.65
833.4773	737.6735	61865.8	60989.3
833.6222	739.7596	61819.35	60942.75
833.7672	741.845	61806.05	60931
833.9122	743.9298	61852.6	60976.65
834.0571	746.014	61761.7	60885.65
834.2021	748.0974	61678.6	60800.35
834.347	750.1802	61800.1	60922.55
834.492	752.2624	61651.8	60773.1
834.637	754.3439	61644.25	60763.35
834.782	756.4247	61653	60763.6
834.9269	758.5048	61556.9	60678
835.0719	760.5843	61589.75	60709.4
835.2169	762.6631	61601.05	60723.9
835.3619	764.7413	61540.95	60662.3
835.5069	766.8188	61542.8	60662.95
835.6519	768.8956	61582	60701.35
835.7969	770.9718	61567.3	60687
835.9419	773.0473	61496.65	60616.7
836.0869	775.1221	61384.2	60504.8
836.232	777.1962	61393.7	60513.65
836.377	779.2697	61235.2	60352.7
836.522	781.3426	61282.5	60382.8
836.667	783.4147	61297.4	60413.25
836.8121	785.4862	61264.45	60384.4
836.9571	787.557	61128.35	60242.8
837.1021	789.6271	61239.8	60355.1
837.2472	791.6966	61153.95	60270.8
837.3922	793.7654	60991.2	60108.05
837.5373	795.8335	60994.25	60112.4
837.6823	797.901	61020.05	60135.75
837.8274	799.9678	60967.2	60082.3
837.9724	802.0339	60877.1	59994.45
838.1175	804.0993	60933.65	60040.2
838.2626	806.1641	60830.9	59947.55
838.4076	808.2282	60777.4	59891.8
838.5527	810.2916	60769.95	59885
838.6978	812.3544	60856.8	59975.5
838.8428	814.4164	60626.4	59743
838.9879	816.4778	60667.95	59780.65
839.133	818.5385	60661.95	59772.55
839.2781	820.5986	60669.85	59783.3
839.4232	822.658	60662.5	59773.9
839.5682	824.7166	60674.45	59787.5
839.7133	826.7747	60519.45	59632
839.8584	828.832	60597.5	59711.55
840.0035	830.8886	60644.95	59755.15
840.1486	832.9446	60641.7	59754.1
840.2937	834.9999	60316.85	59433.95
840.4388	837.0545	60485.75	59596.45
840.5839	839.1085	60506.8	59617.5
840.729	841.1618	60443.7	59549.5
840.8741	843.2143	60229.2	59341.1
841.0192	845.2662	60213.95	59324.9
841.1643	847.3175	60287.15	59399.65
841.3095	849.368	60037.15	59149.95
841.4546	851.4179	60240.15	59351.8
841.5997	853.467	60038.1	59150.35
841.7448	855.5155	60154.4	59267.9
841.8899	857.5633	60000.4	59113.2
842.0351	859.6105	59912.95	59024.3
842.1802	861.6569	60015.35	59124.6
842.3253	863.7027	59802.3	58912.35
842.4704	865.7478	59860.9	58970.15
842.6156	867.7922	59806.15	58914.5
842.7607	869.8359	59915.55	59023
842.9058	871.8789	59621.35	58730.05
843.0509	873.9212	59784.55	58864.6
843.1961	875.9629	59730	58841.05
843.3412	878.0039	59716.65	58825.9
843.4863	880.0441	59623.75	58736.45
843.6315	882.0837	59610.35	58722.4
843.7766	884.1226	59616.55	58725.6
843.9218	886.1609	59627.95	58737.8
844.0669	888.1984	59551	58662.6
844.212	890.2352	59724.9	58835.4
844.3572	892.2714	59489.35	58594
844.5023	894.3069	59606.1	58716.35
844.6475	896.3416	59454.1	58560.65
844.7926	898.3757	59427.5	58537.15
844.9377	900.4091	59159.9	58269.2
845.0829	902.4418	59478.8	58581
845.228	904.4739	59269.95	58373.9
845.3732	906.5052	59277.2	58384.65
845.5183	908.5358	59164.85	58270.35
845.6635	910.5658	59111.9	58217.1
845.8086	912.595	59093.95	58199.7
845.9538	914.6236	58832.3	57937.9
846.0989	916.6515	59176.05	58282.95
846.2441	918.6786	58767.15	57873.05
846.3892	920.7051	58875.55	57977.15
846.5344	922.7309	58822.6	57929.25
846.6795	924.756	58818.55	57924.6
846.8246	926.7804	58724.3	57830
846.9698	928.8041	58448.85	57552.8
847.1149	930.8272	58633.45	57739.95
847.2601	932.8495	58593.8	57697.35
847.4052	934.8711	58442.1	57545
847.5504	936.892	58317	57421.75
847.6955	938.9123	58360.85	57464.45
847.8407	940.9318	58223.95	57328.7
847.9858	942.9506	58212.35	57317.1
848.131	944.9688	58228.35	57334
848.2761	946.9862	57947.05	57052.8
848.4213	949.003	57996.35	57100.4
848.5664	951.019	57762.1	56866.25
848.7115	953.0344	57802.05	56908.5
848.8567	955.0491	57772.1	56875.9
849.0018	957.063	57799.4	56905.35
849.147	959.0763	57803.7	56907.8
849.2921	961.0888	57673.05	56776.65
849.4373	963.1007	57730.2	56835.85
849.5824	965.1119	57714.05	56822
849.7275	967.1223	57583	56692.95
849.8727	969.1321	57731.15	56842.3
850.0178	971.1412	57513.6	56619.85
850.1629	973.1495	57428.2	56533.6
850.3081	975.1572	57467.45	56531.3
850.4532	977.1641	57391.95	56493.75
850.5983	979.1704	57343.1	56445
850.7435	981.1759	57356.25	56457.6
850.8886	983.1808	57243.75	56344.35
851.0337	985.1849	57186.5	56280.3
851.1788	987.1884	57192.85	56294.2
851.324	989.1911	57208.55	56309.55
851.4691	991.1932	57018.1	56119.2
851.6142	993.1945	56995	56101.2
851.7593	995.1951	56989.7	56092.35
851.9045	997.1951	56876.6	55974.1
852.0496	999.1943	56785.6	55889.25
852.1947	1001.1928	56738.6	55840.3
852.3398	1003.1906	56661.05	55763.7
852.4849	1005.1877	56575.85	55676.4
852.63	1007.1841	56452.1	55556.2
852.7751	1009.1798	56450.35	55555.2
852.9202	1011.1748	56384.2	55490.3
853.0653	1013.1691	56341.3	55444.35
853.2104	1015.1627	56140.5	55243.4
853.3555	1017.1556	56089.45	55193.85
853.5006	1019.1477	56071.95	55175.8
853.6457	1021.1392	55935.35	55040.85
853.7908	1023.1299	55781.25	54887.1
853.9359	1025.12	55760.1	54868.1
854.081	1027.1093	55644.6	54756.85
854.2261	1029.0979	55645.1	54762.2
854.3712	1031.0859	55581.6	54692.9
854.5163	1033.0731	55472.75	54576.55
854.6613	1035.0596	55444	54549.3
854.8064	1037.0454	55322.95	54426.95
854.9515	1039.0304	55279.2	54386.1
855.0965	1041.0148	55151.05	54254.45
855.2416	1042.9985	55154.5	54255.3
855.3867	1044.9814	55148.1	54250.9
855.5317	1046.9636	55060.7	54161.45
855.6768	1048.9452	54940.85	54045.65
855.8219	1050.926	54937.5	54041.15
855.9669	1052.9061	54903.8	54009
856.112	1054.8855	54875.3	53976.2
856.257	1056.8642	54793.3	53895.8
856.4021	1058.8421	54761.1	53862.6
856.5471	1060.8194	54731.1	53833.75
856.6921	1062.7959	54652.1	53753.7
856.8372	1064.7717	54657.3	53757.3
856.9822	1066.7469	54590.2	53689.3
857.1272	1068.7213	54570.3	53669.45
857.2723	1070.695	54526.15	53629.55
857.4173	1072.6679	54440.65	53542.35
857.5623	1074.6402	54422.35	53521
857.7073	1076.6117	54409.3	53504.4
857.8523	1078.5826	54398.35	53497.5
857.9973	1080.5527	54297.95	53395.35
858.1423	1082.5221	54232.4	53333.55
858.2873	1084.4908	54221.15	53321.35
858.4323	1086.4587	54137.05	53236.1
858.5773	1088.426	54116.5	53214.7
858.7223	1090.3925	54072.15	53169.8
858.8673	1092.3584	54053.9	53156.2
859.0123	1094.3235	53926.9	53028.95
859.1573	1096.2879	53905.75	53006.75
859.3022	1098.2515	53862.55	52961.25
859.4472	1100.2145	53865.05	52966.8
859.5922	1102.1767	53807.95	52909.85
859.7371	1104.1382	53807.6	52907.15
859.8821	1106.099	53750.4	52850.3
860.027	1108.0591	53698.35	52799.05
860.172	1110.0185	53576.55	52676
860.3169	1111.9771	53646.05	52748.65
860.4619	1113.9351	53568.35	52669.7
860.6068	1115.8923	53498.7	52600.45
860.7517	1117.8488	53423.65	52521.85
860.8967	1119.8045	53279	52378.7
861.0416	1121.7596	53269.7	52369.35
861.1865	1123.7139	53170.6	52272.05
861.3314	1125.6675	53156.5	52256.6
861.4763	1127.6204	53090.65	52190.75
861.6212	1129.5726	52998.9	52098.05
861.7661	1131.524	53024.1	52123.85
861.911	1133.4748	53020.55	52119.65
862.0559	1135.4248	52861.2	51960.25
862.2008	1137.3741	52872.35	51975.25
862.3457	1139.3226	52824.45	51924.35
862.4905	1141.2705	52780.85	51881.45
862.6354	1143.2176	52679.3	51773.85
862.7803	1145.164	52530.15	51628.35
862.9251	1147.1097	52633.3	51735.05
863.07	1149.0546	52529.2	51627.4
863.2148	1150.9989	52540.35	51638.5
863.3597	1152.9424	52393.9	51495.25
863.5045	1154.8852	52461.75	51561
863.6493	1156.8272	52365.65	51467
863.7942	1158.7686	52436.9	51529.95
863.939	1160.7092	52246.65	51345.85
864.0838	1162.6491	52224.4	51322.55
864.2286	1164.5883	52238.45	51339.8
864.3734	1166.5267	52139.95	51239.55
864.5182	1168.4644	52180.4	51282.05
864.663	1170.4014	52156.65	51252.15
864.8078	1172.3377	52216.15	51319.1
864.9526	1174.2732	52205.9	51308.2
865.0974	1176.2081	52171.75	51272.45
865.2421	1178.1421	52133.5	51230.25
865.3869	1180.0755	52216	51316.8
865.5317	1182.0082	52140.35	51238.6
