Software Version:	3.9.2.0
Unit SN:	10000200
Spectrometer SN:	6960
Date:	3/6/2024 9:31:58 AM
Data Line Index:	25
Spectral Points:	2048
Integration time (ms):	125
Averages:	20
Delay (ms):	30
Sequence Number:	1
Processing:	dark subtract
Laser Power (mW):	300
Laser Current (mA):	823
Laser Diode Temp (C):	25.1
Laser Case Temp (C):	23.6
System Temp (C):	23.4
Spectrometer Temp (C):	20.9
CCD Temp (C):	-0.008
Secondary Temp (C):	20.007
Heatsink Temp (C):	17.649
CCDPCB Temp (C):	30.171
SecondaryPCB Temp (C):	25.347

Wavelength	RamanShift	Raw Counts	Dark Subtracted
787.061	30.1047	525.3	117.45
787.2016	32.3739	527.85	122.45
787.3422	34.6426	535.6	129.55
787.4828	36.9109	546.85	138.5
787.6235	39.1787	559.75	148.6
787.7642	41.4461	569.95	152.7
787.9049	43.7131	583.65	164.05
788.0456	45.9796	597.15	176.45
788.1863	48.2456	606.5	181.75
788.3271	50.5112	622.2	191.95
788.4679	52.7764	636.95	205.35
788.6087	55.0411	651.2	212.3
788.7496	57.3054	671.9	231.6
788.8904	59.5692	686.6	242.25
789.0313	61.8326	701.05	253.9
789.1722	64.0955	727.3	277.65
789.3132	66.3579	750.45	295.9
789.4541	68.6199	785.65	327.35
789.5951	70.8815	841.5	379.75
789.7361	73.1426	955.2	487.05
789.8771	75.4032	1255	785.35
790.0181	77.6634	1996.6	1526.75
790.1592	79.9231	3755.15	3280.25
790.3003	82.1824	7632.95	7153.3
790.4414	84.4412	14505.6	14013.15
790.5825	86.6995	23819.05	23319.35
790.7237	88.9574	32672.15	32163.65
790.8648	91.2148	39032.75	38519.55
791.006	93.4717	42220.4	41702.75
791.1472	95.7282	43652.5	43133.5
791.2885	97.9842	44306.5	43784.4
791.4297	100.2398	44698.3	44172.95
791.571	102.4949	44472.7	43944.55
791.7123	104.7495	44858.75	44326
791.8536	107.0036	44556.4	44023.75
791.9949	109.2573	45188.5	44656.45
792.1363	111.5105	44655.7	44120.3
792.2777	113.7632	45144.55	44607.75
792.4191	116.0154	45204	44656.95
792.5605	118.2672	45555.3	45014.6
792.7019	120.5185	45534.2	44991.95
792.8434	122.7693	45573.6	45027.6
792.9849	125.0197	45452.95	44901.95
793.1264	127.2696	45976.65	45424.2
793.2679	129.519	46197.35	45640.35
793.4094	131.7679	46581.4	46024.1
793.551	134.0163	45566	45004.6
793.6926	136.2642	46086.4	45521.8
793.8342	138.5117	46713.3	46142.95
793.9758	140.7587	46563.85	45994.95
794.1175	143.0052	46715.55	46143.7
794.2591	145.2512	46242.35	45667.95
794.4008	147.4967	46822.85	46247.4
794.5425	149.7417	46594.2	46014.9
794.6842	151.9863	46760.1	46176.3
794.826	154.2304	46187.85	45602.7
794.9677	156.4739	46653.2	46061.25
795.1095	158.717	46906.3	46317.65
795.2513	160.9596	46827.95	46232.8
795.3931	163.2017	46357.45	45762.55
795.535	165.4433	46965.35	46366.5
795.6768	167.6844	46715.45	46113.7
795.8187	169.925	47035.1	46428.9
795.9606	172.1651	46918.25	46309.8
796.1025	174.4047	46680.1	46067.05
796.2445	176.6439	46910.8	46295.25
796.3864	178.8825	47025.95	46409.85
796.5284	181.1206	47232.25	46610.35
796.6704	183.3582	47324.85	46700.3
796.8124	185.5954	46869.5	46243.4
796.9544	187.832	47218.9	46588.5
797.0965	190.0681	47058.05	46423.55
797.2386	192.3037	47550.55	46913.6
797.3806	194.5388	48095.45	47457
797.5228	196.7734	47024.2	46383.6
797.6649	199.0075	47900.05	47258.3
797.807	201.2411	47841.65	47199.8
797.9492	203.4742	48273.15	47628
798.0914	205.7068	48376.9	47725.7
798.2336	207.9389	48398.95	47747.45
798.3758	210.1704	48346.5	47700.65
798.518	212.4015	48935.25	48303.4
798.6603	214.632	48087.4	47459.9
798.8025	216.862	48749.7	48124.15
798.9448	219.0915	48888.7	48257.5
799.0871	221.3205	48513	47883.15
799.2294	223.549	49044.7	48418.9
799.3718	225.777	49119.9	48493.2
799.5141	228.0044	49154	48518.55
799.6565	230.2314	49217.65	48580.5
799.7989	232.4578	49156.15	48513.35
799.9413	234.6837	49181	48532.25
800.0837	236.909	50114.95	49463.55
800.2262	239.1339	48962.85	48283.6
800.3687	241.3582	49482.1	48819.6
800.5111	243.582	49462.5	48769.1
800.6536	245.8053	49677.4	48999.5
800.7961	248.0281	49673.4	48999.2
800.9387	250.2503	49877.3	49201.5
801.0812	252.472	49657.1	48978.7
801.2238	254.6932	49778.4	49098.9
801.3664	256.9139	49707.8	49029.15
801.509	259.134	50564.55	49877.8
801.6516	261.3536	49355.8	48674.7
801.7942	263.5727	50271.5	49588.15
801.9369	265.7912	49901.8	49220.5
802.0795	268.0092	50028.75	49344.9
802.2222	270.2267	50042.6	49356.55
802.3649	272.4436	49885.9	49197.15
802.5076	274.6601	50202.6	49505.3
802.6504	276.8759	50274	49580.35
802.7931	279.0913	50401.35	49705.95
802.9359	281.3061	50193.7	49497
803.0787	283.5204	50467.3	49768.75
803.2215	285.7341	50362.6	49659.45
803.3643	287.9473	50912.75	50200
803.5071	290.16	50418	49713.65
803.6499	292.3721	51071.45	50372.6
803.7928	294.5837	50188.5	49487.65
803.9357	296.7947	50038.7	49337.1
804.0786	299.0052	50509.55	49807.1
804.2215	301.2152	50191.6	49487.2
804.3644	303.4246	50713.7	50010.75
804.5074	305.6334	50631.1	49925.9
804.6503	307.8418	50121.25	49413
804.7933	310.0495	50427.35	49719.2
804.9363	312.2568	50229.65	49522.05
805.0793	314.4635	50149.35	49437.8
805.2223	316.6696	50225.7	49513.15
805.3653	318.8752	50578.3	49854.35
805.5084	321.0802	49618.2	48900.6
805.6514	323.2847	49962.7	49245.15
805.7945	325.4887	50036.2	49317.15
805.9376	327.692	49758.55	49039.75
806.0807	329.8949	50121.95	49403.15
806.2238	332.0972	49988.25	49264.9
806.367	334.2989	50185.9	49458.9
806.5101	336.5001	50513.45	49786.4
806.6533	338.7007	49932.4	49206.25
806.7965	340.9008	50136.1	49408.85
806.9397	343.1003	50145.15	49416.15
807.0829	345.2992	50436.05	49707.45
807.2261	347.4976	50025.4	49293.9
807.3693	349.6955	50142.75	49407.65
807.5126	351.8927	50005.75	49271.65
807.6559	354.0895	50160.05	49412.95
807.7991	356.2856	50099.05	49360.55
807.9424	358.4812	50395.9	49656.7
808.0857	360.6763	50043.5	49300.1
808.2291	362.8707	50075.6	49330.5
808.3724	365.0646	50043.5	49297.75
808.5158	367.258	50058.85	49310.5
808.6591	369.4508	49849.9	49096.1
808.8025	371.643	50102.1	49351.75
808.9459	373.8346	49932.55	49181.3
809.0893	376.0257	49874.7	49118.5
809.2327	378.2162	49779.45	49024.3
809.3762	380.4062	49620.4	48864.85
809.5196	382.5956	49636.75	48881.3
809.6631	384.7844	49778.6	49030.45
809.8066	386.9726	49694.05	48945.8
809.9501	389.1603	49793.85	49048.15
810.0936	391.3474	49341.6	48545.7
810.2371	393.5339	49713.8	48965.8
810.3806	395.7199	49200	48451.05
810.5241	397.9052	49248.35	48497.1
810.6677	400.09	49380.05	48628.65
810.8113	402.2743	49420.7	48667.85
810.9548	404.4579	49399.35	48645.5
811.0984	406.641	49305.2	48550.8
811.2421	408.8235	49546.3	48789.8
811.3857	411.0054	49442.2	48684.8
811.5293	413.1868	49486.5	48724
811.673	415.3675	49448.7	48681.2
811.8166	417.5477	49557.6	48791.55
811.9603	419.7273	49404.45	48636.2
812.104	421.9064	49250.7	48471.6
812.2477	424.0848	49197.45	48428.5
812.3914	426.2627	49213.6	48440.5
812.5351	428.4399	48872.6	48100.05
812.6788	430.6166	48696.85	47922.85
812.8226	432.7928	48814.95	48037.45
812.9663	434.9683	48517.75	47739.85
813.1101	437.1432	48525	47744.4
813.2539	439.3176	48496.7	47717.15
813.3977	441.4914	48151.45	47371.75
813.5415	443.6645	48201.55	47421.2
813.6853	445.8371	48100.2	47321.3
813.8291	448.0091	47808	47031
813.973	450.1806	47787.6	47006.95
814.1168	452.3514	47588.15	46804.95
814.2607	454.5216	47649.6	46857.65
814.4046	456.6913	47445.45	46659.15
814.5485	458.8603	47532.1	46746.45
814.6924	461.0288	47488.85	46704.6
814.8363	463.1967	47413.2	46629.1
814.9802	465.3639	47479.8	46694.95
815.1241	467.5306	47235	46450
815.2681	469.6967	47208.85	46423.2
815.412	471.8622	47095.1	46310.1
815.556	474.0271	47079.4	46291.65
815.7	476.1914	47029.3	46240.5
815.844	478.3551	46993.85	46208
815.988	480.5182	47165.5	46377.6
816.132	482.6807	47032.6	46245.05
816.276	484.8426	47083.3	46293.85
816.4201	487.0039	47253.1	46465.2
816.5641	489.1647	47254	46461.7
816.7082	491.3248	47235.2	46444.15
816.8522	493.4843	47260.4	46471.25
816.9963	495.6432	47171.7	46379.4
817.1404	497.8015	46954.4	46158.4
817.2845	499.9592	47119.55	46326.75
817.4286	502.1163	47064.2	46267.4
817.5727	504.2728	46874.95	46077.7
817.7168	506.4287	46944.6	46149.25
817.861	508.5839	46770.9	45974.55
818.0051	510.7386	46774.05	45977.85
818.1493	512.8927	46833.6	46027.25
818.2935	515.0461	46790.4	45987.7
818.4377	517.199	46740.8	45939.85
818.5818	519.3512	46771.65	45969.6
818.726	521.5029	46716.2	45907.2
818.8703	523.6539	46782.55	45978.7
819.0145	525.8043	46672.25	45869
819.1587	527.9541	46605.2	45798.85
819.303	530.1033	46538.05	45731.65
819.4472	532.2519	46370.45	45564.9
819.5915	534.3999	46442	45634.5
819.7357	536.5472	46377.7	45570.8
819.88	538.694	46309.65	45503.1
820.0243	540.8401	46387.35	45580.45
820.1686	542.9856	46426.35	45613.5
820.3129	545.1305	46334.85	45522.1
820.4572	547.2748	46328.25	45519.05
820.6016	549.4185	46304.6	45490.85
820.7459	551.5615	46208	45397.6
820.8902	553.704	46246.75	45435.8
821.0346	555.8458	46126.25	45316.8
821.1789	557.987	46135.25	45323.95
821.3233	560.1276	46059.35	45246.65
821.4677	562.2675	46143.2	45330.6
821.6121	564.4069	46099.4	45287.95
821.7565	566.5456	46075	45264.1
821.9009	568.6837	46025.3	45213.6
822.0453	570.8212	45851.5	45042.7
822.1897	572.958	45713.9	44899.2
822.3342	575.0942	45571	44759.3
822.4786	577.2299	45450.05	44636.75
822.6231	579.3648	45298.85	44486.2
822.7675	581.4992	45129.45	44316.8
822.912	583.6329	45018.55	44204.35
823.0565	585.766	44963.5	44150.8
823.201	587.8985	44924.75	44110.6
823.3454	590.0304	44795.25	43967.3
823.4899	592.1616	44720.4	43897.95
823.6345	594.2922	44645.8	43826.8
823.779	596.4222	44522.75	43702.5
823.9235	598.5515	44412.45	43590.4
824.068	600.6802	44355.8	43535.2
824.2126	602.8083	44162.6	43341.9
824.3571	604.9358	44118.45	43297.95
824.5017	607.0626	43959.4	43136.8
824.6462	609.1888	43928.45	43104.65
824.7908	611.3144	43931.95	43106.65
824.9354	613.4393	43839.95	43017.2
825.08	615.5636	43774.45	42948.3
825.2246	617.6873	43828.8	43004.75
825.3692	619.8103	43969.5	43143.95
825.5138	621.9327	43725.55	42897.15
825.6584	624.0544	43729.25	42904.6
825.803	626.1756	43680.25	42854.05
825.9477	628.2961	43588.25	42760.4
826.0923	630.4159	43423.05	42596.8
826.237	632.5351	43483.95	42657.35
826.3816	634.6537	43344.6	42517
826.5263	636.7716	43314.55	42483
826.6709	638.8889	43285.35	42454.45
826.8156	641.0056	43338.95	42508.35
826.9603	643.1216	43254.9	42420.85
827.105	645.237	43335.35	42503.45
827.2497	647.3518	43191.4	42362.85
827.3944	649.4659	43220.5	42391.05
827.5391	651.5793	43078.45	42249.7
827.6838	653.6922	42988.95	42159.8
827.8285	655.8043	42900.35	42068.35
827.9733	657.9159	42926.55	42095.75
828.118	660.0268	42757.45	41920.55
828.2627	662.137	42675.3	41841.7
828.4075	664.2466	42690.35	41852.4
828.5522	666.3556	42615.6	41779.65
828.697	668.4639	42462.1	41625.1
828.8418	670.5716	42538.85	41706.7
828.9865	672.6786	42540.35	41704.9
829.1313	674.785	42386.15	41548.5
829.2761	676.8907	42191.45	41357.1
829.4209	678.9958	42190.15	41355.25
829.5657	681.1002	42040.05	41201.35
829.7105	683.204	42019.6	41177.35
829.8553	685.3072	41995.15	41157.3
830.0001	687.4097	41909.7	41071.25
830.1449	689.5115	41897.45	41058.95
830.2898	691.6127	41858.35	41019.95
830.4346	693.7132	41753.35	40915
830.5794	695.8131	41810.15	40951.65
830.7243	697.9123	41788.15	40945.8
830.8691	700.0109	41717.45	40878.05
831.014	702.1089	41659.5	40819.6
831.1588	704.2061	41567.2	40727.5
831.3037	706.3028	41603.3	40759.05
831.4486	708.3987	41553.45	40711.5
831.5935	710.4941	41446.85	40603.25
831.7383	712.5887	41448.85	40606.75
831.8832	714.6827	41422	40575.5
832.0281	716.7761	41380.5	40537.65
832.173	718.8688	41376.7	40531.6
832.3179	720.9608	41282.25	40434.1
832.4628	723.0522	41253.7	40404.8
832.6077	725.1429	41196.7	40350.15
832.7527	727.233	41133.45	40288.5
832.8976	729.3224	41206.55	40359.85
833.0425	731.4112	41101.9	40254.5
833.1874	733.4993	41046.6	40197.65
833.3324	735.5867	40907	40059.95
833.4773	737.6735	40828.55	39979.7
833.6222	739.7596	40663.15	39813.85
833.7672	741.845	40627.7	39782.1
833.9122	743.9298	40517.85	39667.2
834.0571	746.014	40407.7	39562.1
834.2021	748.0974	40376.6	39525.9
834.347	750.1802	40276	39425.8
834.492	752.2624	40138	39289.65
834.637	754.3439	39955.1	39103.9
834.782	756.4247	39855.4	38996.4
834.9269	758.5048	39746.3	38897.35
835.0719	760.5843	39706.7	38857.05
835.2169	762.6631	39594.8	38745.5
835.3619	764.7413	39543.85	38692.95
835.5069	766.8188	39584.1	38730.7
835.6519	768.8956	39506.1	38652.2
835.7969	770.9718	39568.55	38718.85
835.9419	773.0473	39357.4	38505.75
836.0869	775.1221	39329.45	38477.85
836.232	777.1962	39132.55	38278
836.377	779.2697	39128.45	38272.2
836.522	781.3426	39054.55	38181.75
836.667	783.4147	39031.35	38177.25
836.8121	785.4862	39010.4	38157.1
836.9571	787.557	38828.15	37973.85
837.1021	789.6271	38701.75	37847.7
837.2472	791.6966	38546.65	37693.7
837.3922	793.7654	38366.95	37513.2
837.5373	795.8335	38336.65	37484.35
837.6823	797.901	38226.05	37370.95
837.8274	799.9678	38164.6	37309.4
837.9724	802.0339	38111	37256.5
838.1175	804.0993	38104.15	37239.4
838.2626	806.1641	37932.5	37076.7
838.4076	808.2282	37844.7	36991.5
838.5527	810.2916	37812.1	36953.4
838.6978	812.3544	37748.4	36894.4
838.8428	814.4164	37655.05	36801.75
838.9879	816.4778	37704.3	36848.6
839.133	818.5385	37564	36708.6
839.2781	820.5986	37581.4	36725.85
839.4232	822.658	37600.35	36742.85
839.5682	824.7166	37530.6	36674.2
839.7133	826.7747	37611.75	36757.25
839.8584	828.832	37570.5	36713.3
840.0035	830.8886	37421.3	36561.95
840.1486	832.9446	37412.1	36553.75
840.2937	834.9999	37333.2	36477.1
840.4388	837.0545	37208.65	36345.65
840.5839	839.1085	37122.6	36264.75
840.729	841.1618	37017.55	36156.7
840.8741	843.2143	36878.15	36020.35
841.0192	845.2662	36734.45	35874.55
841.1643	847.3175	36713.5	35856.9
841.3095	849.368	36575.8	35714.7
841.4546	851.4179	36551.65	35691.8
841.5997	853.467	36423.15	35565.35
841.7448	855.5155	36409.1	35548.05
841.8899	857.5633	36352.25	35493.05
842.0351	859.6105	36222.55	35364.75
842.1802	861.6569	36181.25	35323.6
842.3253	863.7027	36083.75	35220.55
842.4704	865.7478	36052.5	35191.45
842.6156	867.7922	36017.45	35155.8
842.7607	869.8359	35904.75	35042.05
842.9058	871.8789	35833	34970.25
843.0509	873.9212	35846.8	34955.2
843.1961	875.9629	35700.75	34839.2
843.3412	878.0039	35706	34843.45
843.4863	880.0441	35698.05	34838.3
843.6315	882.0837	35683.7	34818.4
843.7766	884.1226	35653.2	34789.05
843.9218	886.1609	35640.15	34779.35
844.0669	888.1984	35673	34810.75
844.212	890.2352	35714.05	34853.2
844.3572	892.2714	35633.7	34766.85
844.5023	894.3069	35546.6	34682.7
844.6475	896.3416	35403.8	34538.9
844.7926	898.3757	35372.6	34507.7
844.9377	900.4091	35250.85	34388.1
845.0829	902.4418	35202.45	34335
845.228	904.4739	35127.65	34260.5
845.3732	906.5052	35045.7	34179.85
845.5183	908.5358	34987.45	34121.85
845.6635	910.5658	34872.15	34006.1
845.8086	912.595	34791.35	33927.3
845.9538	914.6236	34695	33830.5
846.0989	916.6515	34659.1	33794.5
846.2441	918.6786	34581.2	33716.8
846.3892	920.7051	34561.6	33695.95
846.5344	922.7309	34552.15	33685.85
846.6795	924.756	34386.05	33519.5
846.8246	926.7804	34375.5	33506.65
846.9698	928.8041	34137	33271.3
847.1149	930.8272	34113	33246.6
847.2601	932.8495	33994.85	33125.7
847.4052	934.8711	34010.15	33142.65
847.5504	936.892	33814.85	32945.45
847.6955	938.9123	33726.65	32859.8
847.8407	940.9318	33722.65	32856.2
847.9858	942.9506	33591.55	32723.55
848.131	944.9688	33451.75	32582
848.2761	946.9862	33387.15	32518.1
848.4213	949.003	33225	32355.25
848.5664	951.019	33092.25	32224.2
848.7115	953.0344	33000.8	32132.25
848.8567	955.0491	32965.75	32096.1
849.0018	957.063	32901.05	32033.3
849.147	959.0763	32966.7	32101.4
849.2921	961.0888	32811.15	31941.85
849.4373	963.1007	32776.7	31909.1
849.5824	965.1119	32774.3	31907.65
849.7275	967.1223	32708.4	31841
849.8727	969.1321	32646.8	31780.7
850.0178	971.1412	32594.2	31726.35
850.1629	973.1495	32495.85	31626.9
850.3081	975.1572	32491.75	31577.15
850.4532	977.1641	32445.1	31574.25
850.5983	979.1704	32271.2	31400.1
850.7435	981.1759	32200.55	31327.5
850.8886	983.1808	32206.55	31336.8
851.0337	985.1849	32117.35	31240.35
851.1788	987.1884	32002.25	31130
851.324	989.1911	31931.2	31058.7
851.4691	991.1932	31851.65	30981.7
851.6142	993.1945	31760.05	30890.05
851.7593	995.1951	31609.3	30736.8
851.9045	997.1951	31578.7	30701.5
852.0496	999.1943	31428.25	30558.35
852.1947	1001.1928	31330.1	30459.3
852.3398	1003.1906	31178.25	30307.15
852.4849	1005.1877	31139.15	30267.8
852.63	1007.1841	31077.65	30206.05
852.7751	1009.1798	30958.65	30086.35
852.9202	1011.1748	30824.75	29953.85
853.0653	1013.1691	30733.3	29862.15
853.2104	1015.1627	30605.05	29733.25
853.3555	1017.1556	30402.25	29530.8
853.5006	1019.1477	30326.8	29453.5
853.6457	1021.1392	30100.45	29230
853.7908	1023.1299	30045.85	29175.15
853.9359	1025.12	29923.75	29051.75
854.081	1027.1093	29785.55	28915.2
854.2261	1029.0979	29774.05	28906.6
854.3712	1031.0859	29636.4	28763.3
854.5163	1033.0731	29543.35	28671.9
854.6613	1035.0596	29422.75	28553.15
854.8064	1037.0454	29258	28386.75
854.9515	1039.0304	29287.65	28413.7
855.0965	1041.0148	29097.85	28223.5
855.2416	1042.9985	28992.5	28119.45
855.3867	1044.9814	28990.3	28118
855.5317	1046.9636	28847.85	27973.9
855.6768	1048.9452	28747.85	27877.1
855.8219	1050.926	28706.55	27834.35
855.9669	1052.9061	28620.45	27748.95
856.112	1054.8855	28571.1	27697.45
856.257	1056.8642	28524.2	27651.75
856.4021	1058.8421	28471.75	27594.85
856.5471	1060.8194	28391.6	27514.9
856.6921	1062.7959	28312.25	27438.8
856.8372	1064.7717	28241	27366
856.9822	1066.7469	28161.75	27287.45
857.1272	1068.7213	28143.55	27266.85
857.2723	1070.695	28142.5	27271
857.4173	1072.6679	27971	27097.25
857.5623	1074.6402	27998.7	27125.75
857.7073	1076.6117	27977.65	27098.35
857.8523	1078.5826	27935.7	27061.5
857.9973	1080.5527	27810.9	26934.35
858.1423	1082.5221	27708.5	26832.7
858.2873	1084.4908	27634.95	26760.8
858.4323	1086.4587	27544.85	26669.25
858.5773	1088.426	27510.2	26634.85
858.7223	1090.3925	27367.15	26485.05
858.8673	1092.3584	27333.8	26461.15
859.0123	1094.3235	27199.75	26326.85
859.1573	1096.2879	27158.3	26283.65
859.3022	1098.2515	27149.3	26274.1
859.4472	1100.2145	27105.95	26230.95
859.5922	1102.1767	27054.75	26175.2
859.7371	1104.1382	26997.6	26122.45
859.8821	1106.099	26965.05	26088.65
860.027	1108.0591	26932.35	26056.2
860.172	1110.0185	26893.4	26014.6
860.3169	1111.9771	26931.75	26057.8
860.4619	1113.9351	26825.1	25949.3
860.6068	1115.8923	26815.35	25941.05
860.7517	1117.8488	26781.65	25903.75
860.8967	1119.8045	26636.8	25763.8
861.0416	1121.7596	26551.6	25674.8
861.1865	1123.7139	26353.85	25479.4
861.3314	1125.6675	26271.55	25395.6
861.4763	1127.6204	26290.55	25415.5
861.6212	1129.5726	26214.6	25336.9
861.7661	1131.524	26203	25326.15
861.911	1133.4748	26095.65	25219.05
862.0559	1135.4248	25961.8	25083.95
862.2008	1137.3741	25861.25	24983.35
862.3457	1139.3226	25739.95	24864.5
862.4905	1141.2705	25811.6	24934.9
862.6354	1143.2176	25629.7	24747.55
862.7803	1145.164	25635.15	24756.65
862.9251	1147.1097	25561.95	24683.6
863.07	1149.0546	25550.95	24673.05
863.2148	1150.9989	25536.95	24659.7
863.3597	1152.9424	25485.75	24608.65
863.5045	1154.8852	25379.45	24499.95
863.6493	1156.8272	25355.1	24479.35
863.7942	1158.7686	25363.7	24478.9
863.939	1160.7092	25279.6	24401.2
864.0838	1162.6491	25178.25	24298.75
864.2286	1164.5883	25168.7	24290.8
864.3734	1166.5267	25091.15	24211.6
864.5182	1168.4644	25108.65	24231.55
864.663	1170.4014	25052.85	24168.35
864.8078	1172.3377	25116.8	24242.9
864.9526	1174.2732	25091.35	24214.7
865.0974	1176.2081	25103.8	24228.9
865.2421	1178.1421	25170.8	24288.2
865.3869	1180.0755	25221.1	24344.4
865.5317	1182.0082	25190.55	24313.55
865.6764	1183.9401	25134.3	24255.95
