Software Version:	3.9.2.0
Unit SN:	10000200
Spectrometer SN:	6960
Date:	3/6/2024 9:33:07 AM
Data Line Index:	25
Spectral Points:	2048
Integration time (ms):	125
Averages:	20
Delay (ms):	30
Sequence Number:	1
Processing:	dark subtract
Laser Power (mW):	305
Laser Current (mA):	824
Laser Diode Temp (C):	25.1
Laser Case Temp (C):	23.7
System Temp (C):	23.5
Spectrometer Temp (C):	21.1
CCD Temp (C):	-0.021
Secondary Temp (C):	20.006
Heatsink Temp (C):	17.796
CCDPCB Temp (C):	30.516
SecondaryPCB Temp (C):	25.469

Wavelength	RamanShift	Raw Counts	Dark Subtracted
787.061	30.1047	529.2	123.9
787.2016	32.3739	535.25	129.95
787.3422	34.6426	541.4	135.25
787.4828	36.9109	550.4	141.7
787.6235	39.1787	565.3	152.85
787.7642	41.4461	579.4	162.85
787.9049	43.7131	590.8	171.6
788.0456	45.9796	601.65	180.9
788.1863	48.2456	619.3	193.35
788.3271	50.5112	631.5	202.3
788.4679	52.7764	644.2	213.7
788.6087	55.0411	662.85	224.15
788.7496	57.3054	677.95	235
788.8904	59.5692	695.35	251.6
789.0313	61.8326	715.4	269.2
789.1722	64.0955	736.45	287.7
789.3132	66.3579	764.8	310.7
789.4541	68.6199	798.6	339.6
789.5951	70.8815	860.85	398
789.7361	73.1426	981.6	515.55
789.8771	75.4032	1287.3	817.6
790.0181	77.6634	2050.35	1576.25
790.1592	79.9231	3877.65	3401.95
790.3003	82.1824	7934.05	7452.25
790.4414	84.4412	15079.65	14587.45
790.5825	86.6995	24651.85	24154.35
790.7237	88.9574	33843.25	33336.35
790.8648	91.2148	40506.4	39995.75
791.006	93.4717	43724.45	43208.8
791.1472	95.7282	45116.9	44597.55
791.2885	97.9842	45730.85	45211.45
791.4297	100.2398	46158.35	45634.3
791.571	102.4949	45837.35	45312.5
791.7123	104.7495	46328.2	45797.5
791.8536	107.0036	45966.7	45435.05
791.9949	109.2573	46687.45	46158.25
792.1363	111.5105	45985.2	45452.6
792.2777	113.7632	46618.75	46083.75
792.4191	116.0154	46643.3	46097.6
792.5605	118.2672	47034.95	46496.45
792.7019	120.5185	46991.95	46453.25
792.8434	122.7693	47051.1	46506.75
792.9849	125.0197	46861.3	46313.65
793.1264	127.2696	47571.15	47017.4
793.2679	129.519	47720.25	47163.05
793.4094	131.7679	48140.5	47583.65
793.551	134.0163	46945.2	46384
793.6926	136.2642	47501.75	46938.05
793.8342	138.5117	48363.45	47798.6
793.9758	140.7587	48131.55	47564.3
794.1175	143.0052	48266.25	47696.4
794.2591	145.2512	47646.3	47075.55
794.4008	147.4967	48434.15	47861.35
794.5425	149.7417	48117.05	47542.45
794.6842	151.9863	48308.7	47728.35
794.826	154.2304	47608.95	47027.5
794.9677	156.4739	48270	47682.6
795.1095	158.717	48578.05	47986.25
795.2513	160.9596	48437.8	47843.95
795.3931	163.2017	47867.6	47272.3
795.535	165.4433	48671.6	48073.5
795.6768	167.6844	48337.2	47736.65
795.8187	169.925	48722.05	48116.55
795.9606	172.1651	48546.3	47937.75
796.1025	174.4047	48339.7	47729.7
796.2445	176.6439	48643.4	48030.65
796.3864	178.8825	48746.6	48130.45
796.5284	181.1206	48947.25	48325.9
796.6704	183.3582	49052.8	48430.45
796.8124	185.5954	48524.55	47901.9
796.9544	187.832	48908.6	48279.3
797.0965	190.0681	48699.45	48068.85
797.2386	192.3037	49348.45	48712.95
797.3806	194.5388	50040.1	49403.9
797.5228	196.7734	48600.85	47964.7
797.6649	199.0075	49753.35	49114.9
797.807	201.2411	49579.7	48939.7
797.9492	203.4742	50198.25	49552.15
798.0914	205.7068	50254.8	49606.85
798.2336	207.9389	50215.35	49566.55
798.3758	210.1704	50112.35	49472.2
798.518	212.4015	50819.3	50187.75
798.6603	214.632	49834.95	49208.3
798.8025	216.862	50735.4	50112.1
798.9448	219.0915	50784.1	50157.3
799.0871	221.3205	50362.3	49732.35
799.2294	223.549	50979.05	50353.35
799.3718	225.777	50985.6	50356.7
799.5141	228.0044	51131.4	50495.4
799.6565	230.2314	51087.1	50446.55
799.7989	232.4578	51059.3	50415.4
799.9413	234.6837	51063.25	50413.25
800.0837	236.909	52299.25	51645.9
800.2262	239.1339	50754.7	50081
800.3687	241.3582	51416.85	50756.35
800.5111	243.582	51432.15	50738.85
800.6536	245.8053	51646.75	50970.5
800.7961	248.0281	51582.3	50908.55
800.9387	250.2503	51873.1	51194.75
801.0812	252.472	51557	50876.7
801.2238	254.6932	51697.75	51019.65
801.3664	256.9139	51638.45	50956.5
801.509	259.134	52694.95	52013.2
801.6516	261.3536	51238.35	50555.7
801.7942	263.5727	52341.3	51657.75
801.9369	265.7912	51875.8	51193.3
802.0795	268.0092	52062.7	51377.1
802.2222	270.2267	52158.05	51472.4
802.3649	272.4436	51815.35	51129.1
802.5076	274.6601	52251.8	51556.3
802.6504	276.8759	52470.85	51777.95
802.7931	279.0913	52464.45	51770.1
802.9359	281.3061	52283.45	51588.65
803.0787	283.5204	52600.7	51903.4
803.2215	285.7341	52463.8	51763.2
803.3643	287.9473	53132.2	52420.55
803.5071	290.16	52509.5	51805.75
803.6499	292.3721	53190.8	52492.2
803.7928	294.5837	52276.1	51575.7
803.9357	296.7947	52039.5	51338.9
804.0786	299.0052	52732.55	52030.15
804.2215	301.2152	52247	51543.1
804.3644	303.4246	52961.2	52259.9
804.5074	305.6334	52846.35	52142.65
804.6503	307.8418	52171.2	51464.55
804.7933	310.0495	52550.95	51843
804.9363	312.2568	52330.95	51621.3
805.0793	314.4635	52266.5	51556.1
805.2223	316.6696	52441.55	51728.15
805.3653	318.8752	52861.45	52140.5
805.5084	321.0802	51634.25	50919.25
805.6514	323.2847	52052.35	51337.25
805.7945	325.4887	52248.65	51533.25
805.9376	327.692	51849	51130
806.0807	329.8949	52280.45	51560.4
806.2238	332.0972	52081.1	51362.45
806.367	334.2989	52338.05	51614.6
806.5101	336.5001	52841.8	52116.65
806.6533	338.7007	51949.1	51223.1
806.7965	340.9008	52318.6	51590.8
806.9397	343.1003	52298.55	51569.65
807.0829	345.2992	52690.3	51959.85
807.2261	347.4976	52199.6	51464.45
807.3693	349.6955	52345.3	51609.45
807.5126	351.8927	52081.25	51344.1
807.6559	354.0895	52406.95	51656.6
807.7991	356.2856	52276.3	51535.65
807.9424	358.4812	52683.1	51945.45
808.0857	360.6763	52191.7	51450.6
808.2291	362.8707	52320.7	51579.05
808.3724	365.0646	52207.7	51462.95
808.5158	367.258	52236.9	51490.15
808.6591	369.4508	51917.2	51164.3
808.8025	371.643	52332.35	51578.9
808.9459	373.8346	52221.9	51468.65
809.0893	376.0257	52145.45	51391.6
809.2327	378.2162	51977.75	51224.05
809.3762	380.4062	51679.1	50927.2
809.5196	382.5956	51780.15	51027.95
809.6631	384.7844	51880.25	51133
809.8066	386.9726	51941.35	51194.05
809.9501	389.1603	52082.25	51336.8
810.0936	391.3474	51503.35	50706.85
810.2371	393.5339	52036.05	51285.35
810.3806	395.7199	51331.7	50583.7
810.5241	397.9052	51358.25	50609.3
810.6677	400.09	51593.8	50843.85
810.8113	402.2743	51651.25	50897.75
810.9548	404.4579	51630.65	50877.8
811.0984	406.641	51447.4	50694.5
811.2421	408.8235	51807.05	51050.55
811.3857	411.0054	51627.15	50866.35
811.5293	413.1868	51642.85	50880.85
811.673	415.3675	51665	50900
811.8166	417.5477	51719.95	50954.9
811.9603	419.7273	51622.7	50853.95
812.104	421.9064	51397.6	50621.55
812.2477	424.0848	51438	50668.6
812.3914	426.2627	51500.55	50729.05
812.5351	428.4399	50968.8	50198.45
812.6788	430.6166	50765.5	49988.7
812.8226	432.7928	50993.4	50214.6
812.9663	434.9683	50661.45	49886
813.1101	437.1432	50704.85	49924.6
813.2539	439.3176	50773.55	49995.15
813.3977	441.4914	50281.25	49504.6
813.5415	443.6645	50361.8	49583.5
813.6853	445.8371	50293.55	49515.15
813.8291	448.0091	49927.7	49150.8
813.973	450.1806	49866.6	49089.85
814.1168	452.3514	49797.3	49014.85
814.2607	454.5216	49711.3	48921.05
814.4046	456.6913	49589.25	48803.95
814.5485	458.8603	49643.05	48860.25
814.6924	461.0288	49523.15	48740.15
814.8363	463.1967	49582.35	48799.85
814.9802	465.3639	49698.45	48912.5
815.1241	467.5306	49279.65	48493.65
815.2681	469.6967	49341.4	48558.1
815.412	471.8622	49241.2	48455.85
815.556	474.0271	49195.7	48411.35
815.7	476.1914	49202.85	48413.05
815.844	478.3551	49163.25	48374.6
815.988	480.5182	49359.65	48571.1
816.132	482.6807	49114.15	48325.9
816.276	484.8426	49216.8	48427.75
816.4201	487.0039	49431.45	48640.8
816.5641	489.1647	49411.45	48621.65
816.7082	491.3248	49261.15	48469.05
816.8522	493.4843	49410.8	48619.3
816.9963	495.6432	49411.65	48620.65
817.1404	497.8015	49017.6	48221.3
817.2845	499.9592	49166.25	48371.8
817.4286	502.1163	49100.6	48304.3
817.5727	504.2728	48926.05	48128.3
817.7168	506.4287	49086.15	48294.15
817.861	508.5839	48857.1	48060.6
818.0051	510.7386	48867.15	48070.2
818.1493	512.8927	48896.05	48090.7
818.2935	515.0461	48865.2	48064.85
818.4377	517.199	48898.2	48100.45
818.5818	519.3512	48956.65	48156.7
818.726	521.5029	48822.35	48017.25
818.8703	523.6539	48851.35	48048.15
819.0145	525.8043	48681.95	47880.55
819.1587	527.9541	48758.35	47954.15
819.303	530.1033	48664.6	47861.7
819.4472	532.2519	48483.75	47682.85
819.5915	534.3999	48447.15	47641
819.7357	536.5472	48544.15	47738.75
819.88	538.694	48296.65	47492.85
820.0243	540.8401	48511.8	47706
820.1686	542.9856	48501.15	47692.25
820.3129	545.1305	48392.5	47583.35
820.4572	547.2748	48389.8	47580.4
820.6016	549.4185	48356	47545.25
820.7459	551.5615	48301.6	47490.4
820.8902	553.704	48297	47486.4
821.0346	555.8458	48148.35	47339.45
821.1789	557.987	48266.85	47458
821.3233	560.1276	48211.75	47400.35
821.4677	562.2675	48250.95	47439.45
821.6121	564.4069	48231.95	47420.05
821.7565	566.5456	48155.6	47345.55
821.9009	568.6837	48057.1	47246.4
822.0453	570.8212	47902.35	47090.1
822.1897	572.958	47713.15	46896.8
822.3342	575.0942	47606.95	46796.15
822.4786	577.2299	47452.15	46639.4
822.6231	579.3648	47360.85	46547.2
822.7675	581.4992	47169.95	46357.1
822.912	583.6329	47007.1	46194.25
823.0565	585.766	46974.15	46161.5
823.201	587.8985	46892.45	46079.35
823.3454	590.0304	46720.3	45893.5
823.4899	592.1616	46742.65	45923.25
823.6345	594.2922	46674.95	45853.65
823.779	596.4222	46527	45707.9
823.9235	598.5515	46452.4	45632.8
824.068	600.6802	46293.2	45474.05
824.2126	602.8083	46007.1	45186.85
824.3571	604.9358	46050.8	45230.3
824.5017	607.0626	45933.25	45111.05
824.6462	609.1888	45829.35	45005.4
824.7908	611.3144	45834.55	45012.05
824.9354	613.4393	45761.35	44939.35
825.08	615.5636	45697.7	44874.65
825.2246	617.6873	45771	44951
825.3692	619.8103	45787.25	44962.6
825.5138	621.9327	45687.95	44860.55
825.6584	624.0544	45696.95	44872.4
825.803	626.1756	45627.5	44805.25
825.9477	628.2961	45493.45	44667.1
826.0923	630.4159	45343.1	44517.9
826.237	632.5351	45341.65	44512
826.3816	634.6537	45248.1	44420
826.5263	636.7716	45203.6	44372.85
826.6709	638.8889	45196.9	44367.75
826.8156	641.0056	45275.75	44447.2
826.9603	643.1216	45139	44309.05
827.105	645.237	45243.35	44410.15
827.2497	647.3518	45127	44296.8
827.3944	649.4659	45031	44201.75
827.5391	651.5793	44949.1	44119.25
827.6838	653.6922	44900.4	44070.3
827.8285	655.8043	44783.15	43953.25
827.9733	657.9159	44845.65	44012.6
828.118	660.0268	44587.7	43753.55
828.2627	662.137	44537.4	43702.9
828.4075	664.2466	44485.4	43648.85
828.5522	666.3556	44486.25	43653.65
828.697	668.4639	44333.05	43497.3
828.8418	670.5716	44368.85	43535.55
828.9865	672.6786	44357.4	43525.2
829.1313	674.785	44143.8	43307.4
829.2761	676.8907	44027.3	43193.4
829.4209	678.9958	44021.15	43185.55
829.5657	681.1002	43872.9	43035.9
829.7105	683.204	43879.95	43040.7
829.8553	685.3072	43814.7	42975.8
830.0001	687.4097	43762.95	42923
830.1449	689.5115	43767.5	42928.5
830.2898	691.6127	43731	42894.3
830.4346	693.7132	43593.9	42755.15
830.5794	695.8131	43601.35	42744.35
830.7243	697.9123	43601.7	42760.65
830.8691	700.0109	43467.45	42625.1
831.014	702.1089	43472.2	42633.5
831.1588	704.2061	43376.2	42538.05
831.3037	706.3028	43373.8	42532.45
831.4486	708.3987	43378.55	42538.15
831.5935	710.4941	43294.8	42452.25
831.7383	712.5887	43243.95	42402.65
831.8832	714.6827	43194.7	42347.85
832.0281	716.7761	43197.9	42354.55
832.173	718.8688	43162.75	42318.2
832.3179	720.9608	43067.7	42221.3
832.4628	723.0522	43077.55	42229.05
832.6077	725.1429	42951.35	42106.65
832.7527	727.233	42964.9	42119.7
832.8976	729.3224	43017.45	42172.85
833.0425	731.4112	42895.55	42050.3
833.1874	733.4993	42855.15	42004.4
833.3324	735.5867	42655.5	41809.25
833.4773	737.6735	42574.15	41727.15
833.6222	739.7596	42424.9	41578.9
833.7672	741.845	42348.5	41502.4
833.9122	743.9298	42219.6	41370.6
834.0571	746.014	42111.6	41265.15
834.2021	748.0974	42094.1	41245.8
834.347	750.1802	41994.5	41146.95
834.492	752.2624	41831.8	40986.2
834.637	754.3439	41728.2	40880.55
834.782	756.4247	41615.65	40756.35
834.9269	758.5048	41497.45	40648.15
835.0719	760.5843	41447.1	40594.6
835.2169	762.6631	41306.15	40452.85
835.3619	764.7413	41303.8	40454.55
835.5069	766.8188	41344.4	40492.05
835.6519	768.8956	41166.45	40312.95
835.7969	770.9718	41256.45	40406.8
835.9419	773.0473	41073.5	40224
836.0869	775.1221	41004.5	40155.65
836.232	777.1962	40861.95	40011.55
836.377	779.2697	40823.75	39973.1
836.522	781.3426	40812.35	39941.25
836.667	783.4147	40696.55	39843.05
836.8121	785.4862	40766.35	39916.1
836.9571	787.557	40589.55	39739
837.1021	789.6271	40404.4	39552.6
837.2472	791.6966	40238.1	39385.75
837.3922	793.7654	40080.15	39226.7
837.5373	795.8335	40046.2	39193.65
837.6823	797.901	39893.1	39040.4
837.8274	799.9678	39881	39025.85
837.9724	802.0339	39754.55	38900.6
838.1175	804.0993	39731.8	38868.1
838.2626	806.1641	39609.2	38755.4
838.4076	808.2282	39504	38651.45
838.5527	810.2916	39493.4	38635.6
838.6978	812.3544	39388.4	38533.95
838.8428	814.4164	39291.15	38437.8
838.9879	816.4778	39380.65	38524.55
839.133	818.5385	39219.05	38364.05
839.2781	820.5986	39246	38390.7
839.4232	822.658	39238.25	38378.95
839.5682	824.7166	39079.2	38223.5
839.7133	826.7747	39225.65	38369.75
839.8584	828.832	39193	38336.4
840.0035	830.8886	39076.65	38217.65
840.1486	832.9446	39053	38195
840.2937	834.9999	38945.55	38088.5
840.4388	837.0545	38861.35	37999.15
840.5839	839.1085	38771.05	37912.85
840.729	841.1618	38638.7	37776.9
840.8741	843.2143	38513	37655.15
841.0192	845.2662	38376.75	37520.6
841.1643	847.3175	38291.9	37433.35
841.3095	849.368	38238.65	37381.95
841.4546	851.4179	38142.15	37285.2
841.5997	853.467	37978.7	37121.5
841.7448	855.5155	37963.85	37104.85
841.8899	857.5633	37931.85	37071.35
842.0351	859.6105	37795.55	36936.75
842.1802	861.6569	37775.8	36916.15
842.3253	863.7027	37665.6	36805.1
842.4704	865.7478	37649.85	36789.6
842.6156	867.7922	37624.25	36764.9
842.7607	869.8359	37502.8	36640.7
842.9058	871.8789	37459.6	36598.65
843.0509	873.9212	37426.4	36533.35
843.1961	875.9629	37279.55	36417.2
843.3412	878.0039	37261.6	36399.85
843.4863	880.0441	37232.15	36368.2
843.6315	882.0837	37230.25	36366
843.7766	884.1226	37176.8	36313.3
843.9218	886.1609	37207.95	36348.4
844.0669	888.1984	37210	36349.9
844.212	890.2352	37315.75	36454.05
844.3572	892.2714	37191.1	36327.3
844.5023	894.3069	37188.2	36325.75
844.6475	896.3416	37012.1	36147.7
844.7926	898.3757	36955.9	36094
844.9377	900.4091	36791.75	35928.35
845.0829	902.4418	36771.45	35903.7
845.228	904.4739	36651.3	35786.3
845.3732	906.5052	36635.15	35771.85
845.5183	908.5358	36525.5	35662.2
845.6635	910.5658	36449.2	35582.45
845.8086	912.595	36352.2	35486.4
845.9538	914.6236	36310.95	35447.05
846.0989	916.6515	36234.75	35370.5
846.2441	918.6786	36139.05	35273.25
846.3892	920.7051	36077.85	35211.45
846.5344	922.7309	36083.55	35218.75
846.6795	924.756	35911.85	35046.05
846.8246	926.7804	35948.15	35081.25
846.9698	928.8041	35666.35	34799.7
847.1149	930.8272	35699.6	34836.05
847.2601	932.8495	35547.2	34680.4
847.4052	934.8711	35540.05	34671.75
847.5504	936.892	35341.3	34474.65
847.6955	938.9123	35281.8	34413.55
847.8407	940.9318	35220.8	34355.8
847.9858	942.9506	35164	34297.35
848.131	944.9688	35005.75	34138.7
848.2761	946.9862	34917.15	34050.95
848.4213	949.003	34679.05	33812.95
848.5664	951.019	34640.55	33772.5
848.7115	953.0344	34520.95	33654.25
848.8567	955.0491	34459.75	33589.85
849.0018	957.063	34439.85	33573.3
849.147	959.0763	34483.15	33617.3
849.2921	961.0888	34315.8	33446.55
849.4373	963.1007	34346.65	33478.7
849.5824	965.1119	34304.85	33436.4
849.7275	967.1223	34254.7	33387
849.8727	969.1321	34162.85	33296.7
850.0178	971.1412	34129.5	33262.45
850.1629	973.1495	34021.9	33153.75
850.3081	975.1572	33995.7	33082.8
850.4532	977.1641	33923.05	33054.95
850.5983	979.1704	33811.35	32942.85
850.7435	981.1759	33735.05	32864.8
850.8886	983.1808	33668.45	32795.25
851.0337	985.1849	33616.8	32741.95
851.1788	987.1884	33545.2	32671.55
851.324	989.1911	33450.95	32578.6
851.4691	991.1932	33351.35	32479.3
851.6142	993.1945	33253.4	32385.2
851.7593	995.1951	33058.15	32187.5
851.9045	997.1951	33083.2	32209
852.0496	999.1943	32936.95	32065.95
852.1947	1001.1928	32763.15	31892.55
852.3398	1003.1906	32663.05	31792.2
852.4849	1005.1877	32654.6	31782.3
852.63	1007.1841	32556.7	31685.45
852.7751	1009.1798	32462.9	31592.4
852.9202	1011.1748	32252.3	31383.2
853.0653	1013.1691	32229.35	31357.5
853.2104	1015.1627	32036.9	31165.5
853.3555	1017.1556	31841.35	30969.95
853.5006	1019.1477	31767.75	30895.95
853.6457	1021.1392	31580.25	30712.55
853.7908	1023.1299	31511.2	30640.75
853.9359	1025.12	31321.2	30447.6
854.081	1027.1093	31197	30328.45
854.2261	1029.0979	31124.1	30256
854.3712	1031.0859	31023.5	30153.75
854.5163	1033.0731	30978.5	30104.7
854.6613	1035.0596	30903.4	30033.9
854.8064	1037.0454	30726.5	29852.35
854.9515	1039.0304	30684.8	29810.45
855.0965	1041.0148	30533.35	29662.35
855.2416	1042.9985	30431.8	29558.65
855.3867	1044.9814	30415.4	29545.9
855.5317	1046.9636	30218.35	29344.3
855.6768	1048.9452	30127.25	29255.15
855.8219	1050.926	30150.3	29280
855.9669	1052.9061	30079.3	29208.15
856.112	1054.8855	29925.45	29051.35
856.257	1056.8642	29929.7	29056.9
856.4021	1058.8421	29885	29006.45
856.5471	1060.8194	29788.35	28914.6
856.6921	1062.7959	29709.9	28838.1
856.8372	1064.7717	29655.85	28782.2
856.9822	1066.7469	29615.55	28742.3
857.1272	1068.7213	29541.15	28664
857.2723	1070.695	29493.4	28621.55
857.4173	1072.6679	29388.35	28514.05
857.5623	1074.6402	29386.5	28511.8
857.7073	1076.6117	29360.85	28483.25
857.8523	1078.5826	29310.25	28434.5
857.9973	1080.5527	29211.8	28334.85
858.1423	1082.5221	29092.75	28218.6
858.2873	1084.4908	29028.85	28154.55
858.4323	1086.4587	28905.8	28031.9
858.5773	1088.426	28852.6	27976.85
858.7223	1090.3925	28701.35	27822.65
858.8673	1092.3584	28727	27853.2
859.0123	1094.3235	28626.3	27754.05
859.1573	1096.2879	28548.5	27674.15
859.3022	1098.2515	28522.3	27645.55
859.4472	1100.2145	28493.05	27618.8
859.5922	1102.1767	28437	27557.7
859.7371	1104.1382	28425	27550.75
859.8821	1106.099	28386.1	27507.6
860.027	1108.0591	28365	27490.45
860.172	1110.0185	28314.25	27436.7
860.3169	1111.9771	28340	27465.4
860.4619	1113.9351	28239.65	27364.95
860.6068	1115.8923	28218.25	27342.95
860.7517	1117.8488	28196.4	27318.55
860.8967	1119.8045	28022.55	27146.4
861.0416	1121.7596	27964.75	27086.55
861.1865	1123.7139	27757.9	26882.9
861.3314	1125.6675	27659.05	26784.3
861.4763	1127.6204	27641.2	26762.95
861.6212	1129.5726	27596.05	26718.5
861.7661	1131.524	27528.8	26654.6
861.911	1133.4748	27469.55	26592.55
862.0559	1135.4248	27305.7	26430.9
862.2008	1137.3741	27199.15	26322.7
862.3457	1139.3226	27107.7	26231.05
862.4905	1141.2705	27128.95	26253.55
862.6354	1143.2176	27000.1	26118.05
862.7803	1145.164	26997.15	26118.05
862.9251	1147.1097	26931.7	26053.7
863.07	1149.0546	26869.55	25989.5
863.2148	1150.9989	26858.75	25980.1
863.3597	1152.9424	26808.95	25931.7
863.5045	1154.8852	26750.55	25873.95
863.6493	1156.8272	26701.3	25824.95
863.7942	1158.7686	26667.65	25783.85
863.939	1160.7092	26583.9	25705.9
864.0838	1162.6491	26481.75	25602.1
864.2286	1164.5883	26525.75	25649.8
864.3734	1166.5267	26417	25537.45
864.5182	1168.4644	26456.8	25577.45
864.663	1170.4014	26438.05	25555.65
864.8078	1172.3377	26473.15	25597.75
864.9526	1174.2732	26428.95	25552.65
865.0974	1176.2081	26483.45	25605.8
865.2421	1178.1421	26529	25647.4
865.3869	1180.0755	26605.15	25729.05
865.5317	1182.0082	26543.95	25667.6
