Software Version:	3.9.2.0
Unit SN:	10000200
Spectrometer SN:	6960
Date:	3/6/2024 9:42:43 AM
Data Line Index:	25
Spectral Points:	2048
Integration time (ms):	125
Averages:	20
Delay (ms):	30
Sequence Number:	1
Processing:	dark subtract
Laser Power (mW):	300
Laser Current (mA):	825
Laser Diode Temp (C):	25.1
Laser Case Temp (C):	24
System Temp (C):	23.8
Spectrometer Temp (C):	21.4
CCD Temp (C):	-0.048
Secondary Temp (C):	20.007
Heatsink Temp (C):	17.526
CCDPCB Temp (C):	30.516
SecondaryPCB Temp (C):	25.602

Wavelength	RamanShift	Raw Counts	Dark Subtracted
787.061	30.1047	456	49.75
787.2016	32.3739	456.85	50.7
787.3422	34.6426	461.75	55.5
787.4828	36.9109	468.6	61.3
787.6235	39.1787	474.45	64.8
787.7642	41.4461	481.05	65.45
787.9049	43.7131	487.3	68.5
788.0456	45.9796	495.5	73.2
788.1863	48.2456	504.35	77.85
788.3271	50.5112	514	83
788.4679	52.7764	523.2	90.75
788.6087	55.0411	530.5	94.7
788.7496	57.3054	540.05	98.45
788.8904	59.5692	549.2	105.75
789.0313	61.8326	559.55	114.35
789.1722	64.0955	571.95	122.35
789.3132	66.3579	582.1	127.65
789.4541	68.6199	598	140.3
789.5951	70.8815	626.4	165.75
789.7361	73.1426	690.1	223.7
789.8771	75.4032	827.35	357.25
790.0181	77.6634	1170.25	698.15
790.1592	79.9231	1997.7	1521.8
790.3003	82.1824	3751.2	3270.85
790.4414	84.4412	6816.4	6325.55
790.5825	86.6995	10942	10443.15
790.7237	88.9574	15046.5	14537.75
790.8648	91.2148	18017.15	17500.95
791.006	93.4717	19687.4	19167.7
791.1472	95.7282	20374.95	19850.1
791.2885	97.9842	20766.15	20241.75
791.4297	100.2398	20922.25	20395.1
791.571	102.4949	20975.85	20446.8
791.7123	104.7495	20997.7	20461.15
791.8536	107.0036	20959.2	20424.45
791.9949	109.2573	20995.9	20458.85
792.1363	111.5105	21010.55	20475.05
792.2777	113.7632	20981.8	20444.4
792.4191	116.0154	21013.05	20465.45
792.5605	118.2672	21066.45	20521.85
792.7019	120.5185	21061.6	20515.25
792.8434	122.7693	21122.3	20575
792.9849	125.0197	21176.95	20623.9
793.1264	127.2696	21177.95	20621.6
793.2679	129.519	21250.85	20690.55
793.4094	131.7679	21277.9	20716.15
793.551	134.0163	21343.95	20781.05
793.6926	136.2642	21360.35	20794.9
793.8342	138.5117	21378.75	20808.95
793.9758	140.7587	21403.8	20831.5
794.1175	143.0052	21426.1	20851.75
794.2591	145.2512	21391.65	20816.8
794.4008	147.4967	21396.75	20817.9
794.5425	149.7417	21388.45	20809.05
794.6842	151.9863	21385.55	20803.1
794.826	154.2304	21416.4	20827.2
794.9677	156.4739	21345.85	20751.6
795.1095	158.717	21421.5	20828.9
795.2513	160.9596	21457.9	20859.7
795.3931	163.2017	21428.05	20828.55
795.535	165.4433	21450.8	20848.1
795.6768	167.6844	21457.85	20853.65
795.8187	169.925	21508.15	20901.65
795.9606	172.1651	21429.05	20816.6
796.1025	174.4047	21451.85	20837.05
796.2445	176.6439	21414.2	20798.6
796.3864	178.8825	21416	20795.65
796.5284	181.1206	21484.8	20861.15
796.6704	183.3582	21483	20856.75
796.8124	185.5954	21497.35	20869.75
796.9544	187.832	21550.6	20915.45
797.0965	190.0681	21592.05	20955.85
797.2386	192.3037	21598.75	20961.35
797.3806	194.5388	21609.7	20968.7
797.5228	196.7734	21669.6	21027.6
797.6649	199.0075	21785	21140.95
797.807	201.2411	21893.5	21248.4
797.9492	203.4742	21961.6	21315.25
798.0914	205.7068	22030.45	21375.05
798.2336	207.9389	22037.1	21384.2
798.3758	210.1704	22104	21459.65
798.518	212.4015	22068.7	21435.9
798.6603	214.632	22125.85	21496.65
798.8025	216.862	22150.05	21519.85
798.9448	219.0915	22180.25	21547.95
799.0871	221.3205	22214.7	21579.1
799.2294	223.549	22266.35	21636.3
799.3718	225.777	22330.8	21698.65
799.5141	228.0044	22329.75	21690.7
799.6565	230.2314	22373.25	21731.6
799.7989	232.4578	22386.2	21742.4
799.9413	234.6837	22366.9	21714.1
800.0837	236.909	22399.15	21744.45
800.2262	239.1339	22463.85	21781.05
800.3687	241.3582	22468.05	21804.2
800.5111	243.582	22496.5	21799.15
800.6536	245.8053	22546.95	21866.2
800.7961	248.0281	22531.95	21853.95
800.9387	250.2503	22554.05	21872.15
801.0812	252.472	22584.9	21903
801.2238	254.6932	22626.05	21944.45
801.3664	256.9139	22590	21905.2
801.509	259.134	22624.45	21934.9
801.6516	261.3536	22636.15	21950.2
801.7942	263.5727	22719.45	22031.15
801.9369	265.7912	22685.95	21999.1
802.0795	268.0092	22738	22052.15
802.2222	270.2267	22757.6	22068.7
802.3649	272.4436	22785.75	22093.75
802.5076	274.6601	22818.15	22117.05
802.6504	276.8759	22766.15	22070
802.7931	279.0913	22830.7	22133.3
802.9359	281.3061	22857.4	22158.95
803.0787	283.5204	22907.55	22205.15
803.2215	285.7341	22951.05	22247.65
803.3643	287.9473	23013.65	22298.9
803.5071	290.16	22984.75	22279.35
803.6499	292.3721	22955.4	22254.25
803.7928	294.5837	22948.3	22245.1
803.9357	296.7947	22902.85	22200.75
804.0786	299.0052	22909.4	22207.45
804.2215	301.2152	22862.75	22153.35
804.3644	303.4246	22908.4	22205.05
804.5074	305.6334	22879.25	22171.8
804.6503	307.8418	22853.4	22145.85
804.7933	310.0495	22826.3	22115.35
804.9363	312.2568	22802.05	22093.25
805.0793	314.4635	22702	21988.6
805.2223	316.6696	22685.55	21970.5
805.3653	318.8752	22596.65	21872.5
805.5084	321.0802	22587.15	21867.5
805.6514	323.2847	22598.15	21877.95
805.7945	325.4887	22562.05	21840.8
805.9376	327.692	22541.9	21821.2
806.0807	329.8949	22628.15	21906.4
806.2238	332.0972	22635.15	21911.3
806.367	334.2989	22711.25	21981.7
806.5101	336.5001	22669.7	21939.6
806.6533	338.7007	22676.4	21946.2
806.7965	340.9008	22679.45	21950.95
806.9397	343.1003	22595.65	21864.2
807.0829	345.2992	22602.55	21869.25
807.2261	347.4976	22610.85	21876.55
807.3693	349.6955	22559.7	21821.85
807.5126	351.8927	22634.75	21896.35
807.6559	354.0895	22562.15	21812.45
807.7991	356.2856	22517.1	21776.05
807.9424	358.4812	22503.5	21759.05
808.0857	360.6763	22572.7	21828.1
808.2291	362.8707	22493.8	21746.3
808.3724	365.0646	22525.8	21778.45
808.5158	367.258	22498.45	21748.95
808.6591	369.4508	22484.45	21730.35
808.8025	371.643	22536.35	21783.25
808.9459	373.8346	22450.8	21694.15
809.0893	376.0257	22453.95	21697.25
809.2327	378.2162	22407.4	21649.4
809.3762	380.4062	22429.7	21668.8
809.5196	382.5956	22354.55	21595.35
809.6631	384.7844	22330.15	21576.15
809.8066	386.9726	22273.25	21521.55
809.9501	389.1603	22248.2	21499.95
810.0936	391.3474	22209.45	21420.6
810.2371	393.5339	22203.2	21449.55
810.3806	395.7199	22150.15	21399.75
810.5241	397.9052	22156.25	21402.5
810.6677	400.09	22187	21432.85
810.8113	402.2743	22188.7	21432.65
810.9548	404.4579	22171.4	21417.15
811.0984	406.641	22191.75	21434.45
811.2421	408.8235	22237.75	21477.55
811.3857	411.0054	22284.85	21526.55
811.5293	413.1868	22364.15	21598.7
811.673	415.3675	22386.45	21620.55
811.8166	417.5477	22394.6	21626.6
811.9603	419.7273	22333.5	21558.5
812.104	421.9064	22184.45	21406.9
812.2477	424.0848	22074.45	21300.85
812.3914	426.2627	22005.05	21232
812.5351	428.4399	21933.15	21159.15
812.6788	430.6166	21907.95	21131.45
812.8226	432.7928	21839.1	21060.3
812.9663	434.9683	21766.95	20987.15
813.1101	437.1432	21743.9	20963.65
813.2539	439.3176	21617.2	20837.45
813.3977	441.4914	21553.95	20776.2
813.5415	443.6645	21543.8	20763.15
813.6853	445.8371	21453.65	20673.7
813.8291	448.0091	21396.6	20616.6
813.973	450.1806	21374.15	20591.95
814.1168	452.3514	21254	20469.6
814.2607	454.5216	21293.3	20503.35
814.4046	456.6913	21170.45	20386.15
814.5485	458.8603	21200.15	20415.4
814.6924	461.0288	21219.25	20435.25
814.8363	463.1967	21135.4	20350.4
814.9802	465.3639	21177.5	20391.7
815.1241	467.5306	21111.9	20326.1
815.2681	469.6967	21064.2	20275.55
815.412	471.8622	20995.1	20208.6
815.556	474.0271	20993.9	20208.05
815.7	476.1914	20992	20203.7
815.844	478.3551	20969.6	20181.4
815.988	480.5182	21012.3	20221.65
816.132	482.6807	20999.05	20208.35
816.276	484.8426	21021.45	20233.6
816.4201	487.0039	21065.35	20278.3
816.5641	489.1647	21066.05	20273.2
816.7082	491.3248	21148.15	20353.7
816.8522	493.4843	21078.6	20287.55
816.9963	495.6432	21076.95	20284.6
817.1404	497.8015	20994.2	20200.45
817.2845	499.9592	21038.8	20241.55
817.4286	502.1163	20969.2	20172
817.5727	504.2728	20869.45	20070.95
817.7168	506.4287	20932.8	20137.45
817.861	508.5839	20898.2	20101.7
818.0051	510.7386	20847.55	20050.35
818.1493	512.8927	20843.75	20040.3
818.2935	515.0461	20842.8	20045.3
818.4377	517.199	20864.65	20062.5
818.5818	519.3512	20814.6	20012.85
818.726	521.5029	20851.4	20043.7
818.8703	523.6539	20858.5	20055
819.0145	525.8043	20870.6	20069.4
819.1587	527.9541	20817.05	20010
819.303	530.1033	20767.6	19961.7
819.4472	532.2519	20697.55	19892.05
819.5915	534.3999	20677.4	19870.1
819.7357	536.5472	20634.7	19827.3
819.88	538.694	20634.75	19827.3
820.0243	540.8401	20685.65	19878.45
820.1686	542.9856	20685.75	19876.85
820.3129	545.1305	20629.8	19816.95
820.4572	547.2748	20644.6	19833.65
820.6016	549.4185	20625.25	19812.15
820.7459	551.5615	20610.65	19800.35
820.8902	553.704	20603.85	19793.2
821.0346	555.8458	20541.8	19735.35
821.1789	557.987	20551.1	19741.3
821.3233	560.1276	20553.3	19741.3
821.4677	562.2675	20607.25	19795.95
821.6121	564.4069	20591.25	19779.15
821.7565	566.5456	20596.6	19784.35
821.9009	568.6837	20587.2	19774.8
822.0453	570.8212	20461.2	19650.7
822.1897	572.958	20388.5	19573.7
822.3342	575.0942	20335.35	19523.2
822.4786	577.2299	20255.55	19439.9
822.6231	579.3648	20208.8	19394.8
822.7675	581.4992	20095.05	19282.9
822.912	583.6329	20038.7	19226.45
823.0565	585.766	20015.4	19203.3
823.201	587.8985	20008	19193.95
823.3454	590.0304	19962.95	19137.45
823.4899	592.1616	19975.6	19153.25
823.6345	594.2922	19916.15	19094.85
823.779	596.4222	19861.4	19040.7
823.9235	598.5515	19766.6	18945.15
824.068	600.6802	19743.45	18921.45
824.2126	602.8083	19632.85	18811.3
824.3571	604.9358	19619.4	18796.55
824.5017	607.0626	19577.3	18754.95
824.6462	609.1888	19529.65	18705.7
824.7908	611.3144	19538.75	18714.1
824.9354	613.4393	19486.05	18663.2
825.08	615.5636	19514.6	18691.3
825.2246	617.6873	19541.45	18718.55
825.3692	619.8103	19574.65	18750.2
825.5138	621.9327	19499.5	18673.65
825.6584	624.0544	19526.8	18700.15
825.803	626.1756	19420.75	18595.8
825.9477	628.2961	19398.25	18572
826.0923	630.4159	19333.25	18505.05
826.237	632.5351	19334.5	18506.25
826.3816	634.6537	19267.15	18439.25
826.5263	636.7716	19251.1	18420.2
826.6709	638.8889	19258.8	18430.65
826.8156	641.0056	19259.85	18427
826.9603	643.1216	19275.25	18442.4
827.105	645.237	19285.6	18451.6
827.2497	647.3518	19210.65	18379.6
827.3944	649.4659	19187.75	18358.6
827.5391	651.5793	19157.3	18327.5
827.6838	653.6922	19099.35	18268.65
827.8285	655.8043	19099	18268.7
827.9733	657.9159	19081.45	18251
828.118	660.0268	18996.75	18162.9
828.2627	662.137	18962	18128.55
828.4075	664.2466	18944.1	18110.05
828.5522	666.3556	18929.45	18094.25
828.697	668.4639	18886.1	18049.85
828.8418	670.5716	18896.65	18064.05
828.9865	672.6786	18895.8	18060.4
829.1313	674.785	18836.7	17999.1
829.2761	676.8907	18767.35	17931.35
829.4209	678.9958	18777.45	17944.25
829.5657	681.1002	18714.4	17877.25
829.7105	683.204	18702.25	17860.1
829.8553	685.3072	18678.35	17840.35
830.0001	687.4097	18650.65	17812.75
830.1449	689.5115	18653.15	17812.2
830.2898	691.6127	18589	17750.9
830.4346	693.7132	18554.8	17716.25
830.5794	695.8131	18589.5	17727.95
830.7243	697.9123	18626.65	17786.05
830.8691	700.0109	18542.65	17703.2
831.014	702.1089	18518.5	17676.9
831.1588	704.2061	18520	17681.4
831.3037	706.3028	18528.4	17685.85
831.4486	708.3987	18500.65	17658.1
831.5935	710.4941	18479.15	17637.6
831.7383	712.5887	18474.1	17632.6
831.8832	714.6827	18450.45	17605.35
832.0281	716.7761	18468.45	17625.5
832.173	718.8688	18454.4	17611.4
832.3179	720.9608	18406.4	17558.85
832.4628	723.0522	18387	17539.5
832.6077	725.1429	18356.65	17512.15
832.7527	727.233	18390.95	17546.5
832.8976	729.3224	18428.75	17583.25
833.0425	731.4112	18361.65	17514.2
833.1874	733.4993	18359.7	17513.35
833.3324	735.5867	18280.9	17434.6
833.4773	737.6735	18244	17396.5
833.6222	739.7596	18157.75	17310.35
833.7672	741.845	18119.3	17271.95
833.9122	743.9298	18073.1	17223.25
834.0571	746.014	18043.95	17197.95
834.2021	748.0974	18072.7	17222.85
834.347	750.1802	17999.3	17149.3
834.492	752.2624	17952.05	17104.7
834.637	754.3439	17885.35	17034.2
834.782	756.4247	17831.8	16973.3
834.9269	758.5048	17781.6	16932.2
835.0719	760.5843	17738.05	16887.05
835.2169	762.6631	17710.65	16860.35
835.3619	764.7413	17725.75	16877.4
835.5069	766.8188	17779.6	16928.85
835.6519	768.8956	17714.6	16861.9
835.7969	770.9718	17762.3	16914.8
835.9419	773.0473	17661.3	16811.6
836.0869	775.1221	17631.05	16782.6
836.232	777.1962	17588.5	16737.55
836.377	779.2697	17586.15	16733.55
836.522	781.3426	17572.35	16700.3
836.667	783.4147	17574.5	16722.1
836.8121	785.4862	17547.95	16697.7
836.9571	787.557	17504.1	16653.95
837.1021	789.6271	17416.55	16565.15
837.2472	791.6966	17314.35	16461.55
837.3922	793.7654	17215.55	16362.3
837.5373	795.8335	17204.35	16351.55
837.6823	797.901	17139.85	16284.55
837.8274	799.9678	17096.9	16240.6
837.9724	802.0339	17032.55	16179.6
838.1175	804.0993	17041.85	16178
838.2626	806.1641	16985.05	16131.35
838.4076	808.2282	16967.5	16112.6
838.5527	810.2916	16905.8	16048.1
838.6978	812.3544	16901	16047.55
838.8428	814.4164	16868.75	16013.6
838.9879	816.4778	16917.45	16060.2
839.133	818.5385	16842.1	15986.75
839.2781	820.5986	16842.6	15985.15
839.4232	822.658	16856.8	15999.45
839.5682	824.7166	16815.25	15959.65
839.7133	826.7747	16901.4	16046.55
839.8584	828.832	16905.85	16049.35
840.0035	830.8886	16859.75	16001.8
840.1486	832.9446	16899.7	16040
840.2937	834.9999	16828.4	15973.75
840.4388	837.0545	16748	15886
840.5839	839.1085	16735.45	15875.4
840.729	841.1618	16659.95	15799.75
840.8741	843.2143	16570.5	15713.1
841.0192	845.2662	16498.05	15640.9
841.1643	847.3175	16507.8	15649.3
841.3095	849.368	16422.75	15567.25
841.4546	851.4179	16451.9	15592.65
841.5997	853.467	16363.5	15505.6
841.7448	855.5155	16365.9	15505.4
841.8899	857.5633	16323.8	15464.15
842.0351	859.6105	16294.55	15435.15
842.1802	861.6569	16266.1	15406.65
842.3253	863.7027	16244.85	15381.2
842.4704	865.7478	16218.55	15359.5
842.6156	867.7922	16200.75	15340.85
842.7607	869.8359	16189.5	15328.75
842.9058	871.8789	16170.15	15309.05
843.0509	873.9212	16124.55	15229.15
843.1961	875.9629	16077	15216.75
843.3412	878.0039	16054.45	15193.45
843.4863	880.0441	16038.7	15178.3
843.6315	882.0837	16069.45	15207.25
843.7766	884.1226	16062.65	15200.95
843.9218	886.1609	16076.25	15216.5
844.0669	888.1984	16110.1	15248.3
844.212	890.2352	16152.35	15292.05
844.3572	892.2714	16110.65	15245.15
844.5023	894.3069	16096.75	15233.1
844.6475	896.3416	16023.8	15159.9
844.7926	898.3757	15992.25	15127.4
844.9377	900.4091	15915.6	15050.1
845.0829	902.4418	15915.1	15046.7
845.228	904.4739	15878.95	15013.1
845.3732	906.5052	15862.35	14999.5
845.5183	908.5358	15820.35	14956.5
845.6635	910.5658	15803.15	14937.8
845.8086	912.595	15745	14882.3
845.9538	914.6236	15715.6	14852.35
846.0989	916.6515	15682.65	14820.1
846.2441	918.6786	15621.7	14755.55
846.3892	920.7051	15615	14752
846.5344	922.7309	15609.25	14746.2
846.6795	924.756	15550.6	14683.75
846.8246	926.7804	15557.65	14690.3
846.9698	928.8041	15441.75	14572.65
847.1149	930.8272	15461.6	14594.7
847.2601	932.8495	15399.75	14532.35
847.4052	934.8711	15375.25	14510.4
847.5504	936.892	15335.85	14468.45
847.6955	938.9123	15306.3	14438.55
847.8407	940.9318	15245.7	14382
847.9858	942.9506	15236.3	14369.65
848.131	944.9688	15175.8	14310
848.2761	946.9862	15139.9	14273.2
848.4213	949.003	15081.35	14214.85
848.5664	951.019	15019	14150.5
848.7115	953.0344	14997.5	14131.4
848.8567	955.0491	14953.2	14083.65
849.0018	957.063	14973.7	14108.7
849.147	959.0763	14977.45	14112
849.2921	961.0888	14918.6	14049.7
849.4373	963.1007	14892.05	14024.4
849.5824	965.1119	14880.4	14015.4
849.7275	967.1223	14864.55	14000.5
849.8727	969.1321	14831.85	13967.7
850.0178	971.1412	14820.5	13953.5
850.1629	973.1495	14741.75	13872.85
850.3081	975.1572	14738.55	13825.05
850.4532	977.1641	14731.5	13863.65
850.5983	979.1704	14701.65	13831.75
850.7435	981.1759	14625.65	13752.15
850.8886	983.1808	14626.75	13756.3
851.0337	985.1849	14627.4	13747.15
851.1788	987.1884	14585.85	13712.75
851.324	989.1911	14546.25	13676.4
851.4691	991.1932	14532.5	13663.1
851.6142	993.1945	14460.15	13591.4
851.7593	995.1951	14398.9	13527.95
851.9045	997.1951	14411.45	13538.4
852.0496	999.1943	14334.55	13465.5
852.1947	1001.1928	14316.35	13444.55
852.3398	1003.1906	14262.6	13392.75
852.4849	1005.1877	14225.7	13353.2
852.63	1007.1841	14191.7	13321.05
852.7751	1009.1798	14150.35	13282.3
852.9202	1011.1748	14061.15	13190.6
853.0653	1013.1691	14033.15	13162.05
853.2104	1015.1627	14016.05	13146.3
853.3555	1017.1556	13893.55	13022.35
853.5006	1019.1477	13876.25	13004.4
853.6457	1021.1392	13747.6	12879.25
853.7908	1023.1299	13734.3	12864.15
853.9359	1025.12	13716.5	12843.2
854.081	1027.1093	13646	12779.35
854.2261	1029.0979	13588.75	12722.9
854.3712	1031.0859	13564.05	12695.2
854.5163	1033.0731	13544.8	12673.55
854.6613	1035.0596	13494.9	12626.35
854.8064	1037.0454	13421.85	12551.6
854.9515	1039.0304	13396.15	12524.15
855.0965	1041.0148	13348.6	12478.4
855.2416	1042.9985	13288.05	12414.4
855.3867	1044.9814	13287.55	12417.25
855.5317	1046.9636	13242.35	12367.3
855.6768	1048.9452	13158.7	12288.6
855.8219	1050.926	13149.8	12277.75
855.9669	1052.9061	13146	12277.35
856.112	1054.8855	13102.3	12229.95
856.257	1056.8642	13110.25	12237.35
856.4021	1058.8421	13090.3	12214.4
856.5471	1060.8194	13056.9	12183.2
856.6921	1062.7959	13015.9	12141.75
856.8372	1064.7717	12987.25	12114.3
856.9822	1066.7469	12961	12089.15
857.1272	1068.7213	12933.75	12058.15
857.2723	1070.695	12933.55	12058.65
857.4173	1072.6679	12900.15	12026.85
857.5623	1074.6402	12921.05	12047.45
857.7073	1076.6117	12911.2	12033.35
857.8523	1078.5826	12873.9	12000.15
857.9973	1080.5527	12824.85	11949.65
858.1423	1082.5221	12750.7	11876.25
858.2873	1084.4908	12705.5	11832.15
858.4323	1086.4587	12696.4	11820.8
858.5773	1088.426	12664.75	11791
858.7223	1090.3925	12594.1	11719.15
858.8673	1092.3584	12603.4	11732.3
859.0123	1094.3235	12537.2	11665.8
859.1573	1096.2879	12520.9	11644.95
859.3022	1098.2515	12522.5	11650.5
859.4472	1100.2145	12523.1	11650.4
859.5922	1102.1767	12515.05	11637.65
859.7371	1104.1382	12498.3	11625.85
859.8821	1106.099	12495.05	11618.9
860.027	1108.0591	12498.85	11625.35
860.172	1110.0185	12475.5	11599.95
860.3169	1111.9771	12497.45	11623.1
860.4619	1113.9351	12465.35	11589.5
860.6068	1115.8923	12481.3	11604.8
860.7517	1117.8488	12467.85	11592.1
860.8967	1119.8045	12419.5	11543.65
861.0416	1121.7596	12366.25	11491.15
861.1865	1123.7139	12210.4	11336.4
861.3314	1125.6675	12174.85	11299.55
861.4763	1127.6204	12194.3	11321.95
861.6212	1129.5726	12167.95	11293.55
861.7661	1131.524	12145.45	11273.15
861.911	1133.4748	12110.1	11237.05
862.0559	1135.4248	12022.8	11146.4
862.2008	1137.3741	12005.55	11131.9
862.3457	1139.3226	11949.5	11073.75
862.4905	1141.2705	11943	11069
862.6354	1143.2176	11880.6	11001.25
862.7803	1145.164	11878.3	11000.7
862.9251	1147.1097	11867.25	10992.45
863.07	1149.0546	11835.15	10956.6
863.2148	1150.9989	11816.8	10941.5
863.3597	1152.9424	11799.2	10921.05
863.5045	1154.8852	11758.95	10881.2
863.6493	1156.8272	11729.45	10854.3
863.7942	1158.7686	11753.95	10870.25
863.939	1160.7092	11698.75	10820.45
864.0838	1162.6491	11652.35	10773.9
864.2286	1164.5883	11656.05	10780
864.3734	1166.5267	11637.1	10759.5
864.5182	1168.4644	11620.45	10744.85
864.663	1170.4014	11638.45	10758
864.8078	1172.3377	11675.35	10802.1
864.9526	1174.2732	11691.25	10814.55
865.0974	1176.2081	11715	10840.6
865.2421	1178.1421	11756.55	10877.2
865.3869	1180.0755	11820.5	10945.8
865.5317	1182.0082	11797.8	10920.55
