Software Version:	3.9.2.0
Unit SN:	10000200
Spectrometer SN:	6960
Date:	3/6/2024 9:34:16 AM
Data Line Index:	25
Spectral Points:	2048
Integration time (ms):	125
Averages:	20
Delay (ms):	30
Sequence Number:	1
Processing:	dark subtract
Laser Power (mW):	300
Laser Current (mA):	825
Laser Diode Temp (C):	25.1
Laser Case Temp (C):	23.8
System Temp (C):	23.6
Spectrometer Temp (C):	21.2
CCD Temp (C):	-0.038
Secondary Temp (C):	20.011
Heatsink Temp (C):	17.821
CCDPCB Temp (C):	30.482
SecondaryPCB Temp (C):	25.413

Wavelength	RamanShift	Raw Counts	Dark Subtracted
787.061	30.1047	515.25	108.6
787.2016	32.3739	516.35	110.15
787.3422	34.6426	521.75	116.95
787.4828	36.9109	532.1	124.3
787.6235	39.1787	544.45	133
787.7642	41.4461	556.2	140.7
787.9049	43.7131	569.1	148.2
788.0456	45.9796	578.05	155.4
788.1863	48.2456	590.5	161.95
788.3271	50.5112	601.9	171.95
788.4679	52.7764	616.65	183.05
788.6087	55.0411	637.3	198.7
788.7496	57.3054	646.55	204.2
788.8904	59.5692	659.9	215.75
789.0313	61.8326	676.4	230.55
789.1722	64.0955	696.5	247.75
789.3132	66.3579	721.55	266.2
789.4541	68.6199	753.9	295.8
789.5951	70.8815	798.2	333.95
789.7361	73.1426	913.25	447.15
789.8771	75.4032	1181.95	712.7
790.0181	77.6634	1836.4	1363.7
790.1592	79.9231	3460.1	2985.3
790.3003	82.1824	6965.75	6485.8
790.4414	84.4412	13112	12625.65
790.5825	86.6995	21446.5	20951.7
790.7237	88.9574	29512.6	29010.1
790.8648	91.2148	35181.3	34675.2
791.006	93.4717	38231.35	37718.75
791.1472	95.7282	39525.15	39011.6
791.2885	97.9842	40182.15	39667.4
791.4297	100.2398	40492.7	39976.7
791.571	102.4949	40485.1	39963.95
791.7123	104.7495	40659.2	40136.6
791.8536	107.0036	40567.3	40040.4
791.9949	109.2573	40808.3	40284.75
792.1363	111.5105	40670.45	40143.4
792.2777	113.7632	40845.7	40316.05
792.4191	116.0154	40938.85	40396.75
792.5605	118.2672	41159.4	40625.75
792.7019	120.5185	41158.65	40624.35
792.8434	122.7693	41238.9	40699.95
792.9849	125.0197	41302.6	40757.15
793.1264	127.2696	41485.15	40937.4
793.2679	129.519	41733.35	41182.25
793.4094	131.7679	41989.55	41438.25
793.551	134.0163	41549.95	40995
793.6926	136.2642	41819.95	41258.65
793.8342	138.5117	42070.95	41509.9
793.9758	140.7587	42054.45	41492.4
794.1175	143.0052	42190.55	41627.1
794.2591	145.2512	42013.4	41448.45
794.4008	147.4967	42175.05	41609.4
794.5425	149.7417	42134.5	41563.05
794.6842	151.9863	42182.95	41608
794.826	154.2304	42035.8	41458.75
794.9677	156.4739	42121.75	41538.35
795.1095	158.717	42269.4	41687.55
795.2513	160.9596	42317.3	41730.15
795.3931	163.2017	42170	41581.15
795.535	165.4433	42444.3	41853.55
795.6768	167.6844	42308.8	41715.85
795.8187	169.925	42453.35	41857.85
795.9606	172.1651	42375.05	41773.65
796.1025	174.4047	42365.75	41758.9
796.2445	176.6439	42436.35	41828.45
796.3864	178.8825	42510.25	41898.9
796.5284	181.1206	42659.8	42044.05
796.6704	183.3582	42696.5	42079.35
796.8124	185.5954	42614.5	41995.7
796.9544	187.832	42738.25	42114.8
797.0965	190.0681	42772.5	42146.55
797.2386	192.3037	43009.25	42378.35
797.3806	194.5388	43270.8	42638.3
797.5228	196.7734	42896.45	42264.55
797.6649	199.0075	43322.8	42687.4
797.807	201.2411	43488.9	42853.05
797.9492	203.4742	43636.7	42998.25
798.0914	205.7068	43770.3	43127.9
798.2336	207.9389	43835.85	43192.25
798.3758	210.1704	43897.1	43260.8
798.518	212.4015	44054.55	43429.2
798.6603	214.632	43830.95	43211.5
798.8025	216.862	44151.65	43532.4
798.9448	219.0915	44218.55	43597
799.0871	221.3205	44166.5	43541.4
799.2294	223.549	44405.25	43786.3
799.3718	225.777	44493.55	43874.45
799.5141	228.0044	44499	43869.1
799.6565	230.2314	44668.85	44036.7
799.7989	232.4578	44653.65	44017.2
799.9413	234.6837	44688.75	44042.05
800.0837	236.909	45063.3	44415.95
800.2262	239.1339	44669.85	43998.65
800.3687	241.3582	44936.7	44282.1
800.5111	243.582	44941.9	44253.6
800.6536	245.8053	45066.4	44393.05
800.7961	248.0281	45012.35	44342.15
800.9387	250.2503	45095	44422.3
801.0812	252.472	45126.65	44454.45
801.2238	254.6932	45197.15	44525.6
801.3664	256.9139	45127.75	44453.05
801.509	259.134	45505.5	44826.95
801.6516	261.3536	45056.8	44380.5
801.7942	263.5727	45466.45	44788.05
801.9369	265.7912	45352.45	44675.15
802.0795	268.0092	45447.05	44766.25
802.2222	270.2267	45478.95	44797.7
802.3649	272.4436	45485.5	44803.65
802.5076	274.6601	45579.7	44885.05
802.6504	276.8759	45665.2	44976.5
802.7931	279.0913	45800.95	45113.35
802.9359	281.3061	45710.05	45020.15
803.0787	283.5204	45882.35	45188.4
803.2215	285.7341	45898.8	45203.5
803.3643	287.9473	46146.65	45439.7
803.5071	290.16	45923.65	45224.4
803.6499	292.3721	46252.25	45559
803.7928	294.5837	45733.8	45040.65
803.9357	296.7947	45686.05	44991.2
804.0786	299.0052	45888	45192.9
804.2215	301.2152	45773.9	45074.25
804.3644	303.4246	45956.35	45260.6
804.5074	305.6334	45886.1	45188.75
804.6503	307.8418	45774.25	45073.55
804.7933	310.0495	45820.55	45117.45
804.9363	312.2568	45762.8	45058.45
805.0793	314.4635	45621.8	44917.55
805.2223	316.6696	45630.95	44923
805.3653	318.8752	45679.45	44961.15
805.5084	321.0802	45297.95	44587.4
805.6514	323.2847	45453.8	44742.1
805.7945	325.4887	45448.3	44737.15
805.9376	327.692	45342.15	44627.95
806.0807	329.8949	45612.05	44897.1
806.2238	332.0972	45588.1	44871.85
806.367	334.2989	45672.95	44953.95
806.5101	336.5001	45739.95	45018.55
806.6533	338.7007	45594.6	44875.25
806.7965	340.9008	45683.8	44962.25
806.9397	343.1003	45595.4	44869.15
807.0829	345.2992	45673.65	44949.3
807.2261	347.4976	45501.9	44774.6
807.3693	349.6955	45505.35	44773.65
807.5126	351.8927	45516.95	44788.5
807.6559	354.0895	45556.55	44817.4
807.7991	356.2856	45566.55	44832.4
807.9424	358.4812	45611.45	44879.4
808.0857	360.6763	45543.05	44807.85
808.2291	362.8707	45491.6	44753.8
808.3724	365.0646	45548.15	44805.95
808.5158	367.258	45493.5	44749.55
808.6591	369.4508	45402.45	44657.95
808.8025	371.643	45492.05	44743.95
808.9459	373.8346	45373.5	44625.15
809.0893	376.0257	45282.8	44531.4
809.2327	378.2162	45250.45	44501.7
809.3762	380.4062	45314.15	44566.2
809.5196	382.5956	45207.3	44455.6
809.6631	384.7844	45236.8	44492.9
809.8066	386.9726	45149.5	44407.75
809.9501	389.1603	45139.75	44401.2
810.0936	391.3474	44978.9	44190.1
810.2371	393.5339	45097.1	44353.1
810.3806	395.7199	44781.35	44037.65
810.5241	397.9052	44864.25	44120.85
810.6677	400.09	44941.75	44197.1
810.8113	402.2743	44980.45	44235.95
810.9548	404.4579	44893.65	44146.05
811.0984	406.641	44921.9	44173.35
811.2421	408.8235	45074.5	44323.75
811.3857	411.0054	45031.35	44279.15
811.5293	413.1868	45148.8	44393.35
811.673	415.3675	45104.75	44344
811.8166	417.5477	45038.85	44277.55
811.9603	419.7273	45027.4	44265.45
812.104	421.9064	44829.2	44056.05
812.2477	424.0848	44755.15	43990.05
812.3914	426.2627	44651.1	43884.05
812.5351	428.4399	44496.3	43729.65
812.6788	430.6166	44381.8	43611.6
812.8226	432.7928	44312.45	43539.5
812.9663	434.9683	44189.4	43418
813.1101	437.1432	44155.3	43381.75
813.2539	439.3176	43981.75	43208.85
813.3977	441.4914	43823.45	43050.75
813.5415	443.6645	43833.75	43058.15
813.6853	445.8371	43631.05	42859.05
813.8291	448.0091	43514.15	42738.75
813.973	450.1806	43402.25	42627.95
814.1168	452.3514	43295.8	42519.2
814.2607	454.5216	43302.4	42515.15
814.4046	456.6913	43051.6	42274.65
814.5485	458.8603	43105.45	42325.85
814.6924	461.0288	43170.35	42392.45
814.8363	463.1967	43040.25	42263.8
814.9802	465.3639	43155.3	42376.8
815.1241	467.5306	42989.45	42209.45
815.2681	469.6967	42848.2	42067.6
815.412	471.8622	42791.95	42009.55
815.556	474.0271	42734.85	41953.8
815.7	476.1914	42728.6	41944.35
815.844	478.3551	42738.9	41957.05
815.988	480.5182	42795.35	42012.65
816.132	482.6807	42725.9	41941.2
816.276	484.8426	42820.8	42039.4
816.4201	487.0039	42870.6	42085.15
816.5641	489.1647	42875.3	42087.85
816.7082	491.3248	42915.3	42128.95
816.8522	493.4843	42891.1	42104.45
816.9963	495.6432	42850.7	42064.6
817.1404	497.8015	42670.1	41877.75
817.2845	499.9592	42755.1	41963.35
817.4286	502.1163	42678.35	41888.9
817.5727	504.2728	42569	41776.15
817.7168	506.4287	42645.9	41853.45
817.861	508.5839	42488.8	41695.65
818.0051	510.7386	42454.45	41660.65
818.1493	512.8927	42450.1	41647.05
818.2935	515.0461	42467.35	41671.7
818.4377	517.199	42511.9	41714.15
818.5818	519.3512	42460.95	41663.4
818.726	521.5029	42456.95	41653.7
818.8703	523.6539	42464.1	41666.05
819.0145	525.8043	42393.1	41592.35
819.1587	527.9541	42323.7	41518.85
819.303	530.1033	42236.9	41435.25
819.4472	532.2519	42148.5	41346.35
819.5915	534.3999	42127.25	41322.8
819.7357	536.5472	42058.9	41257.55
819.88	538.694	42005.05	41200.8
820.0243	540.8401	42075.9	41272.4
820.1686	542.9856	42033.55	41229.1
820.3129	545.1305	41978.3	41172.3
820.4572	547.2748	42027.25	41222.25
820.6016	549.4185	42035.75	41226.65
820.7459	551.5615	41956.15	41151
820.8902	553.704	41938.25	41133
821.0346	555.8458	41823.35	41019.4
821.1789	557.987	41869.95	41065.45
821.3233	560.1276	41793.85	40988.8
821.4677	562.2675	41914.95	41109.55
821.6121	564.4069	41859.7	41054.8
821.7565	566.5456	41821.35	41014.65
821.9009	568.6837	41800.2	40993.95
822.0453	570.8212	41577.5	40771.75
822.1897	572.958	41474.95	40664.55
822.3342	575.0942	41336.5	40530.15
822.4786	577.2299	41215.05	40405.55
822.6231	579.3648	41061.3	40251.3
822.7675	581.4992	40914.4	40104.3
822.912	583.6329	40753.7	39943.75
823.0565	585.766	40723.9	39915
823.201	587.8985	40696.6	39887.75
823.3454	590.0304	40616.75	39793.15
823.4899	592.1616	40556.5	39740.5
823.6345	594.2922	40510.75	39695.95
823.779	596.4222	40403.55	39587.2
823.9235	598.5515	40305.95	39488.5
824.068	600.6802	40093.5	39275.4
824.2126	602.8083	39893.1	39077.95
824.3571	604.9358	39971.45	39151.7
824.5017	607.0626	39824.7	39005.45
824.6462	609.1888	39730.7	38911.2
824.7908	611.3144	39761.6	38941.45
824.9354	613.4393	39655.65	38837.2
825.08	615.5636	39711.45	38892.45
825.2246	617.6873	39690	38869.9
825.3692	619.8103	39721.5	38900.65
825.5138	621.9327	39608.75	38785.4
825.6584	624.0544	39567.65	38747.25
825.803	626.1756	39513.65	38691.35
825.9477	628.2961	39392.7	38570.4
826.0923	630.4159	39301.85	38479.7
826.237	632.5351	39325.4	38503.85
826.3816	634.6537	39222.2	38398.3
826.5263	636.7716	39175.05	38348.4
826.6709	638.8889	39187.85	38363.55
826.8156	641.0056	39234.4	38408.25
826.9603	643.1216	39123.85	38297.45
827.105	645.237	39177.95	38351.65
827.2497	647.3518	39033.15	38208.55
827.3944	649.4659	39069.8	38244.4
827.5391	651.5793	38919.45	38093
827.6838	653.6922	38894.05	38069.2
827.8285	655.8043	38816.8	37989.6
827.9733	657.9159	38800.05	37972.45
828.118	660.0268	38662.05	37830.6
828.2627	662.137	38541.65	37714.6
828.4075	664.2466	38555.6	37724
828.5522	666.3556	38546.75	37718.15
828.697	668.4639	38445.3	37609.9
828.8418	670.5716	38442	37612.2
828.9865	672.6786	38401.75	37569
829.1313	674.785	38260.85	37429.2
829.2761	676.8907	38153.35	37320.65
829.4209	678.9958	38141.3	37310.05
829.5657	681.1002	38062.35	37231.05
829.7105	683.204	37955.65	37119.95
829.8553	685.3072	37911.5	37078.8
830.0001	687.4097	37865.45	37030.85
830.1449	689.5115	37827.3	36991.05
830.2898	691.6127	37731.65	36896.65
830.4346	693.7132	37676.5	36841.1
830.5794	695.8131	37737.75	36879.4
830.7243	697.9123	37738.55	36900.3
830.8691	700.0109	37654.5	36819.35
831.014	702.1089	37638.45	36801.95
831.1588	704.2061	37545.8	36709.65
831.3037	706.3028	37563.15	36726.5
831.4486	708.3987	37525.25	36686.15
831.5935	710.4941	37472.55	36633.7
831.7383	712.5887	37496.9	36657.5
831.8832	714.6827	37455	36612.5
832.0281	716.7761	37362	36524.75
832.173	718.8688	37340.95	36502.3
832.3179	720.9608	37257.45	36414.9
832.4628	723.0522	37308.9	36466.65
832.6077	725.1429	37205.15	36364.35
832.7527	727.233	37217.75	36376.55
832.8976	729.3224	37240.3	36398.75
833.0425	731.4112	37132.3	36288.8
833.1874	733.4993	37029.45	36183.9
833.3324	735.5867	36949.1	36104.65
833.4773	737.6735	36834.9	35993.5
833.6222	739.7596	36759.65	35915.8
833.7672	741.845	36671.5	35828.95
833.9122	743.9298	36554.4	35708.3
834.0571	746.014	36486.8	35644.25
834.2021	748.0974	36491.25	35645.75
834.347	750.1802	36343.4	35498.55
834.492	752.2624	36220.85	35374.85
834.637	754.3439	36095.8	35247.65
834.782	756.4247	36015.25	35160.55
834.9269	758.5048	35874.1	35029.85
835.0719	760.5843	35873.2	35026.9
835.2169	762.6631	35738.2	34891.9
835.3619	764.7413	35707.1	34861.5
835.5069	766.8188	35785.1	34937.7
835.6519	768.8956	35662.1	34813.7
835.7969	770.9718	35744.95	34897.6
835.9419	773.0473	35565.15	34719.7
836.0869	775.1221	35503.85	34658.6
836.232	777.1962	35350.75	34503.9
836.377	779.2697	35304.6	34455.95
836.522	781.3426	35347	34479.4
836.667	783.4147	35274.55	34424.75
836.8121	785.4862	35256.45	34411.85
836.9571	787.557	35119.35	34270.4
837.1021	789.6271	35004.1	34155.55
837.2472	791.6966	34805.3	33954.45
837.3922	793.7654	34649.6	33798.75
837.5373	795.8335	34635.85	33788.15
837.6823	797.901	34490.05	33641.1
837.8274	799.9678	34480.25	33629.65
837.9724	802.0339	34377.85	33528.1
838.1175	804.0993	34407.4	33548.1
838.2626	806.1641	34250.85	33399.5
838.4076	808.2282	34165.95	33316.35
838.5527	810.2916	34147.3	33291.75
838.6978	812.3544	34068.6	33219.55
838.8428	814.4164	33957.05	33105
838.9879	816.4778	34022.15	33168.95
839.133	818.5385	33862.7	33010.05
839.2781	820.5986	33916.05	33065.65
839.4232	822.658	33923.75	33070.1
839.5682	824.7166	33847.1	32995.9
839.7133	826.7747	33967.25	33113.9
839.8584	828.832	33954.95	33101.5
840.0035	830.8886	33781.55	32926.05
840.1486	832.9446	33792.75	32937.55
840.2937	834.9999	33718.4	32866.05
840.4388	837.0545	33719.6	32861.95
840.5839	839.1085	33551.3	32698.1
840.729	841.1618	33438.05	32579.8
840.8741	843.2143	33305.35	32451.4
841.0192	845.2662	33157.95	32304.15
841.1643	847.3175	33161.6	32305.8
841.3095	849.368	33080.9	32225.7
841.4546	851.4179	32991.65	32136.85
841.5997	853.467	32857.6	32001.35
841.7448	855.5155	32838.95	31984.9
841.8899	857.5633	32748.5	31892.6
842.0351	859.6105	32653.4	31798.95
842.1802	861.6569	32633.5	31777.95
842.3253	863.7027	32618.65	31761.2
842.4704	865.7478	32563.8	31706.75
842.6156	867.7922	32517.25	31661.1
842.7607	869.8359	32433.9	31576.3
842.9058	871.8789	32378.4	31520.55
843.0509	873.9212	32382.55	31492.05
843.1961	875.9629	32276.15	31419.05
843.3412	878.0039	32256.6	31397.05
843.4863	880.0441	32182.7	31324.8
843.6315	882.0837	32221.65	31363.45
843.7766	884.1226	32243.35	31385.25
843.9218	886.1609	32207.3	31349.55
844.0669	888.1984	32211.15	31352.05
844.212	890.2352	32289.75	31432.5
844.3572	892.2714	32185.95	31323.7
844.5023	894.3069	32153.6	31292.95
844.6475	896.3416	31959.7	31099.7
844.7926	898.3757	31930.9	31072.15
844.9377	900.4091	31893.35	31032.5
845.0829	902.4418	31842.15	30976.45
845.228	904.4739	31711.5	30846.45
845.3732	906.5052	31724.15	30863.6
845.5183	908.5358	31651.6	30791.75
845.6635	910.5658	31570.8	30710.05
845.8086	912.595	31478.1	30617.7
845.9538	914.6236	31430.6	30570.75
846.0989	916.6515	31332.9	30473.8
846.2441	918.6786	31263.75	30400.4
846.3892	920.7051	31214	30349.55
846.5344	922.7309	31278.4	30416.75
846.6795	924.756	31062.85	30199.35
846.8246	926.7804	31123.55	30259.8
846.9698	928.8041	30887.65	30024.3
847.1149	930.8272	30904.4	30041.55
847.2601	932.8495	30775.1	29909.25
847.4052	934.8711	30745.15	29879.35
847.5504	936.892	30621.9	29758.05
847.6955	938.9123	30546.1	29682.5
847.8407	940.9318	30501.05	29637.25
847.9858	942.9506	30412.9	29549.1
848.131	944.9688	30291.3	29427.15
848.2761	946.9862	30228.9	29366
848.4213	949.003	30028.6	29163.15
848.5664	951.019	29975.4	29112.9
848.7115	953.0344	29931.2	29065.25
848.8567	955.0491	29881.65	29017.3
849.0018	957.063	29854.8	28990.6
849.147	959.0763	29808.8	28944.25
849.2921	961.0888	29697.35	28830.45
849.4373	963.1007	29706	28840.7
849.5824	965.1119	29718.5	28854.45
849.7275	967.1223	29665.1	28801.1
849.8727	969.1321	29565.75	28702.2
850.0178	971.1412	29534.65	28671.15
850.1629	973.1495	29423.9	28558.3
850.3081	975.1572	29420	28507.85
850.4532	977.1641	29384.6	28518.75
850.5983	979.1704	29277.55	28409.75
850.7435	981.1759	29210.3	28341.9
850.8886	983.1808	29147.95	28280.9
851.0337	985.1849	29066.75	28193.45
851.1788	987.1884	28984.85	28117.15
851.324	989.1911	28966.15	28095.55
851.4691	991.1932	28960.15	28091.05
851.6142	993.1945	28765.5	27900.5
851.7593	995.1951	28630.25	27763.65
851.9045	997.1951	28687.75	27812.1
852.0496	999.1943	28563.75	27697.35
852.1947	1001.1928	28423.85	27554.8
852.3398	1003.1906	28336.4	27468.8
852.4849	1005.1877	28308.05	27441.15
852.63	1007.1841	28208.8	27340.25
852.7751	1009.1798	28093.55	27225.05
852.9202	1011.1748	27958.7	27091.55
853.0653	1013.1691	27950.05	27081.05
853.2104	1015.1627	27794.65	26926.65
853.3555	1017.1556	27604.75	26736.2
853.5006	1019.1477	27517.95	26648.75
853.6457	1021.1392	27373.55	26506.65
853.7908	1023.1299	27315.2	26445.75
853.9359	1025.12	27184.5	26314.45
854.081	1027.1093	27051.35	26186.65
854.2261	1029.0979	27027.1	26160.65
854.3712	1031.0859	26953.8	26087.85
854.5163	1033.0731	26887.6	26019.75
854.6613	1035.0596	26804.95	25936.4
854.8064	1037.0454	26648.35	25777.25
854.9515	1039.0304	26628.45	25760.2
855.0965	1041.0148	26472.6	25602.9
855.2416	1042.9985	26374	25503.35
855.3867	1044.9814	26388.8	25520.45
855.5317	1046.9636	26256.6	25383.75
855.6768	1048.9452	26140.1	25270.85
855.8219	1050.926	26130.5	25262.2
855.9669	1052.9061	26040.25	25171.5
856.112	1054.8855	25965.4	25096.15
856.257	1056.8642	25958.25	25088.7
856.4021	1058.8421	25959	25085.5
856.5471	1060.8194	25848.5	24977.9
856.6921	1062.7959	25807.5	24939.1
856.8372	1064.7717	25747.15	24877.35
856.9822	1066.7469	25717.3	24844.85
857.1272	1068.7213	25629.95	24756.1
857.2723	1070.695	25677.4	24805.9
857.4173	1072.6679	25563.4	24693.15
857.5623	1074.6402	25511.9	24641.2
857.7073	1076.6117	25515.55	24639.15
857.8523	1078.5826	25482.85	24611.3
857.9973	1080.5527	25367.2	24492.4
858.1423	1082.5221	25245.7	24374.45
858.2873	1084.4908	25180.55	24307.5
858.4323	1086.4587	25098.5	24226.45
858.5773	1088.426	25088.55	24215.9
858.7223	1090.3925	24973.6	24096.75
858.8673	1092.3584	24981.35	24110.55
859.0123	1094.3235	24796.65	23926.5
859.1573	1096.2879	24746.05	23872.45
859.3022	1098.2515	24713.65	23842.15
859.4472	1100.2145	24771.25	23900.35
859.5922	1102.1767	24706.75	23830.4
859.7371	1104.1382	24687.2	23815.1
859.8821	1106.099	24723.7	23848.75
860.027	1108.0591	24684.3	23810.1
860.172	1110.0185	24640.95	23767.35
860.3169	1111.9771	24636.5	23763.75
860.4619	1113.9351	24596.2	23723.1
860.6068	1115.8923	24593.5	23721
860.7517	1117.8488	24544.75	23670.25
860.8967	1119.8045	24451.6	23580.9
861.0416	1121.7596	24328.3	23453.9
861.1865	1123.7139	24153.55	23280.1
861.3314	1125.6675	24034.35	23163.35
861.4763	1127.6204	24080.85	23206.95
861.6212	1129.5726	23997	23120.45
861.7661	1131.524	24004.5	23132
861.911	1133.4748	23903.8	23029.1
862.0559	1135.4248	23765.35	22891.35
862.2008	1137.3741	23684.1	22811.25
862.3457	1139.3226	23610.5	22735.45
862.4905	1141.2705	23638.85	22763.85
862.6354	1143.2176	23460.85	22581.95
862.7803	1145.164	23480.1	22605.65
862.9251	1147.1097	23429.75	22553.25
863.07	1149.0546	23424.3	22549.95
863.2148	1150.9989	23329.95	22455.75
863.3597	1152.9424	23339.9	22465.6
863.5045	1154.8852	23250.5	22376.1
863.6493	1156.8272	23243.15	22368.9
863.7942	1158.7686	23246.6	22365
863.939	1160.7092	23126.55	22252.15
864.0838	1162.6491	23054.05	22177.8
864.2286	1164.5883	23101.05	22225.1
864.3734	1166.5267	23006.9	22129.85
864.5182	1168.4644	23018.3	22142.65
864.663	1170.4014	22972.3	22093.95
864.8078	1172.3377	23029.55	22154.65
864.9526	1174.2732	23017.75	22145
865.0974	1176.2081	23118.2	22243.7
865.2421	1178.1421	23204.25	22322.8
