Software Version:	3.9.2.0
Unit SN:	10000200
Spectrometer SN:	6960
Date:	3/6/2024 9:28:31 AM
Data Line Index:	25
Spectral Points:	2048
Integration time (ms):	125
Averages:	20
Delay (ms):	30
Sequence Number:	1
Processing:	dark subtract
Laser Power (mW):	300
Laser Current (mA):	820
Laser Diode Temp (C):	25.1
Laser Case Temp (C):	23.3
System Temp (C):	23
Spectrometer Temp (C):	20.7
CCD Temp (C):	-0.068
Secondary Temp (C):	20.013
Heatsink Temp (C):	17.601
CCDPCB Temp (C):	29.826
SecondaryPCB Temp (C):	25.291

Wavelength	RamanShift	Raw Counts	Dark Subtracted
787.061	30.1047	538.6	128.55
787.2016	32.3739	538.8	132.75
787.3422	34.6426	548	140.95
787.4828	36.9109	554.25	144.2
787.6235	39.1787	567.3	155.6
787.7642	41.4461	584.5	168.25
787.9049	43.7131	593.9	172.05
788.0456	45.9796	610.7	187.15
788.1863	48.2456	626.3	198.65
788.3271	50.5112	638.5	206
788.4679	52.7764	652.5	219.6
788.6087	55.0411	671.45	235.7
788.7496	57.3054	690.3	247.25
788.8904	59.5692	705.6	262.15
789.0313	61.8326	725.3	280.95
789.1722	64.0955	748.1	298.85
789.3132	66.3579	774.85	321.4
789.4541	68.6199	806.3	349.75
789.5951	70.8815	865.9	403.4
789.7361	73.1426	998.65	533.95
789.8771	75.4032	1315.85	846.05
790.0181	77.6634	2095.4	1621.75
790.1592	79.9231	3999.95	3525.4
790.3003	82.1824	8135.5	7656.8
790.4414	84.4412	15522.9	15035.9
790.5825	86.6995	25437.95	24947.05
790.7237	88.9574	34890.45	34388.55
790.8648	91.2148	41873.95	41367.3
791.006	93.4717	45109.65	44595.5
791.1472	95.7282	46511.6	45996.95
791.2885	97.9842	47146.15	46630.55
791.4297	100.2398	47580.85	47063.6
791.571	102.4949	47229.8	46707.9
791.7123	104.7495	47785.9	47262.5
791.8536	107.0036	47394.3	46867.95
791.9949	109.2573	48217.3	47694.2
792.1363	111.5105	47455.9	46929
792.2777	113.7632	48177.65	47648.7
792.4191	116.0154	48280.15	47739.95
792.5605	118.2672	48676.8	48144.2
792.7019	120.5185	48669.15	48133.2
792.8434	122.7693	48714.4	48175.1
792.9849	125.0197	48361.9	47818.75
793.1264	127.2696	49289.35	48741.5
793.2679	129.519	49348.65	48800.55
793.4094	131.7679	49806.85	49256.25
793.551	134.0163	48503.3	47947.55
793.6926	136.2642	49116.5	48557.75
793.8342	138.5117	50097.9	49535.4
793.9758	140.7587	49768.05	49208.1
794.1175	143.0052	49928.1	49364.7
794.2591	145.2512	49262.85	48697.2
794.4008	147.4967	50181.45	49612.9
794.5425	149.7417	49843.15	49272
794.6842	151.9863	50012.1	49436.45
794.826	154.2304	49232.85	48656.35
794.9677	156.4739	50014.5	49428.95
795.1095	158.717	50338.45	49756.85
795.2513	160.9596	50123.9	49533.45
795.3931	163.2017	49489.95	48898.85
795.535	165.4433	50349.45	49757.9
795.6768	167.6844	49985.4	49391.15
795.8187	169.925	50396	49798.6
795.9606	172.1651	50227.15	49624.5
796.1025	174.4047	50088.55	49482.75
796.2445	176.6439	50365.2	49758.75
796.3864	178.8825	50423.45	49815.7
796.5284	181.1206	50745.7	50132.15
796.6704	183.3582	50835.35	50218.8
796.8124	185.5954	50341.1	49721.3
796.9544	187.832	50673.7	50053
797.0965	190.0681	50324.45	49697.25
797.2386	192.3037	51148.25	50518.85
797.3806	194.5388	51923.1	51290
797.5228	196.7734	50222.3	49589.55
797.6649	199.0075	51662.05	51026.05
797.807	201.2411	51292.5	50659.75
797.9492	203.4742	52112.35	51472.7
798.0914	205.7068	52018.5	51375.45
798.2336	207.9389	51942.35	51299.85
798.3758	210.1704	51799.55	51166.2
798.518	212.4015	52612.7	51988.25
798.6603	214.632	51547.25	50928.5
798.8025	216.862	52495.7	51875.75
798.9448	219.0915	52430.8	51807.45
799.0871	221.3205	52072.75	51445.95
799.2294	223.549	52831.35	52211.55
799.3718	225.777	52804.5	52182.9
799.5141	228.0044	53025.95	52396.9
799.6565	230.2314	52831.25	52198.15
799.7989	232.4578	52767.35	52129.45
799.9413	234.6837	52826.85	52180.8
800.0837	236.909	54301.2	53652.75
800.2262	239.1339	52449.95	51782.35
800.3687	241.3582	53185.25	52530.2
800.5111	243.582	53232.05	52545.1
800.6536	245.8053	53405.2	52734.75
800.7961	248.0281	53373.6	52705.15
800.9387	250.2503	53770	53097.9
801.0812	252.472	53265.15	52590.7
801.2238	254.6932	53470.4	52798.5
801.3664	256.9139	53365.35	52690.6
801.509	259.134	54692.65	54012.1
801.6516	261.3536	53078.15	52401.3
801.7942	263.5727	54165.35	53486.5
801.9369	265.7912	53576.6	52899.75
802.0795	268.0092	53799.15	53121.75
802.2222	270.2267	53924.5	53244.5
802.3649	272.4436	53462.15	52780.25
802.5076	274.6601	54017.8	53323.6
802.6504	276.8759	54329.5	53640.8
802.7931	279.0913	54200.95	53512.5
802.9359	281.3061	54063.05	53372.8
803.0787	283.5204	54350.5	53658.95
803.2215	285.7341	54178.45	53482.75
803.3643	287.9473	54968.6	54263.9
803.5071	290.16	54281.1	53581.9
803.6499	292.3721	54858.05	54163.65
803.7928	294.5837	53949.2	53255.95
803.9357	296.7947	53645.7	52951.6
804.0786	299.0052	54574.45	53879.15
804.2215	301.2152	54029.85	53331.65
804.3644	303.4246	54848.6	54152.1
804.5074	305.6334	54798.85	54104.8
804.6503	307.8418	53898.35	53197.3
804.7933	310.0495	54312.6	53608.6
804.9363	312.2568	54075.5	53373.25
805.0793	314.4635	54095.75	53389.75
805.2223	316.6696	54357.15	53650.95
805.3653	318.8752	54818.8	54099.95
805.5084	321.0802	53397.55	52689.6
805.6514	323.2847	53870.65	53158.4
805.7945	325.4887	54010.65	53297.9
805.9376	327.692	53626.45	52913.1
806.0807	329.8949	54079.75	53365.85
806.2238	332.0972	53784.85	53068.1
806.367	334.2989	54090.65	53371.5
806.5101	336.5001	54735.7	54015.65
806.6533	338.7007	53652.85	52933.3
806.7965	340.9008	54110.45	53386.9
806.9397	343.1003	54132.9	53409.25
807.0829	345.2992	54595.05	53870.85
807.2261	347.4976	54023	53298.25
807.3693	349.6955	54205.05	53474.7
807.5126	351.8927	53848.35	53115.85
807.6559	354.0895	54357.65	53613.65
807.7991	356.2856	54174.65	53441.55
807.9424	358.4812	54639.75	53905.25
808.0857	360.6763	54005.15	53267.95
808.2291	362.8707	54303.45	53564.3
808.3724	365.0646	54048.2	53305.6
808.5158	367.258	54071.15	53327.95
808.6591	369.4508	53689	52940.25
808.8025	371.643	54254.25	53509.45
808.9459	373.8346	54045.6	53298.4
809.0893	376.0257	54023.3	53274.2
809.2327	378.2162	53850.35	53103.7
809.3762	380.4062	53426.6	52681.15
809.5196	382.5956	53612.75	52867.95
809.6631	384.7844	53754.2	53017.65
809.8066	386.9726	53844.1	53102.5
809.9501	389.1603	54007.1	53268.05
810.0936	391.3474	53318.65	52529.2
810.2371	393.5339	53909.35	53163.1
810.3806	395.7199	53091.6	52349.45
810.5241	397.9052	53223.3	52476.95
810.6677	400.09	53444.45	52697.4
810.8113	402.2743	53611.85	52863.15
810.9548	404.4579	53389.9	52642.15
811.0984	406.641	53207.1	52453.8
811.2421	408.8235	53597.15	52843.35
811.3857	411.0054	53471.1	52715.4
811.5293	413.1868	53459.5	52701.3
811.673	415.3675	53451.65	52690.1
811.8166	417.5477	53528.1	52765.3
811.9603	419.7273	53415.45	52650.05
812.104	421.9064	53177.35	52407.45
812.2477	424.0848	53329	52564.1
812.3914	426.2627	53451.8	52689.2
812.5351	428.4399	52758	51989.9
812.6788	430.6166	52490.45	51720.45
812.8226	432.7928	52966.1	52193
812.9663	434.9683	52484	51713.15
813.1101	437.1432	52536.55	51763.35
813.2539	439.3176	52820.25	52049.1
813.3977	441.4914	52142.85	51370.1
813.5415	443.6645	52195.1	51418.6
813.6853	445.8371	52187.75	51413.7
813.8291	448.0091	51803.35	51029.85
813.973	450.1806	51679.8	50906.3
814.1168	452.3514	51622.2	50843.55
814.2607	454.5216	51465.05	50678.65
814.4046	456.6913	51440.65	50661.55
814.5485	458.8603	51550.35	50772.35
814.6924	461.0288	51297.3	50520.7
814.8363	463.1967	51556.65	50779.95
814.9802	465.3639	51598.05	50819.1
815.1241	467.5306	50968.3	50187.4
815.2681	469.6967	51102.55	50320.75
815.412	471.8622	51109.4	50330.5
815.556	474.0271	51016.75	50237.05
815.7	476.1914	51011.65	50228.45
815.844	478.3551	50981.6	50198.45
815.988	480.5182	51284.25	50500.25
816.132	482.6807	50869.95	50085.6
816.276	484.8426	50990.7	50206.15
816.4201	487.0039	51358.3	50573.15
816.5641	489.1647	51259.75	50472.35
816.7082	491.3248	50922.45	50135.8
816.8522	493.4843	51294.35	50506.4
816.9963	495.6432	51229.9	50441.8
817.1404	497.8015	50741	49948.1
817.2845	499.9592	50983.4	50192.95
817.4286	502.1163	50954.55	50164.1
817.5727	504.2728	50837.1	50043.85
817.7168	506.4287	50949.15	50158.65
817.861	508.5839	50621.75	49832.1
818.0051	510.7386	50711.75	49921
818.1493	512.8927	50806.15	50004.5
818.2935	515.0461	50681.55	49887.8
818.4377	517.199	50864.2	50068.95
818.5818	519.3512	50768.4	49972.8
818.726	521.5029	50590.8	49788.95
818.8703	523.6539	50701.75	49900.25
819.0145	525.8043	50379.25	49580.5
819.1587	527.9541	50575.25	49775.35
819.303	530.1033	50423.7	49622.5
819.4472	532.2519	50245.4	49446.45
819.5915	534.3999	50333.4	49530.05
819.7357	536.5472	50464.9	49660.7
819.88	538.694	50029.35	49228.8
820.0243	540.8401	50301.1	49500.15
820.1686	542.9856	50232.35	49429.95
820.3129	545.1305	50215.85	49411.65
820.4572	547.2748	50151.9	49346.6
820.6016	549.4185	50199.05	49395.25
820.7459	551.5615	50230.95	49425.65
820.8902	553.704	50155.15	49349.8
821.0346	555.8458	49920.25	49117.7
821.1789	557.987	50026.5	49220.4
821.3233	560.1276	50063.85	49257.2
821.4677	562.2675	49977.9	49172.2
821.6121	564.4069	49935.8	49130
821.7565	566.5456	49966.2	49157.15
821.9009	568.6837	49779.45	48970.85
822.0453	570.8212	49737.4	48928.65
822.1897	572.958	49432.95	48621.2
822.3342	575.0942	49465.3	48655.65
822.4786	577.2299	49254.15	48445.9
822.6231	579.3648	49158.6	48348.1
822.7675	581.4992	48850.95	48040
822.912	583.6329	48775.4	47964.85
823.0565	585.766	48676.65	47866.35
823.201	587.8985	48688.45	47876.35
823.3454	590.0304	48426.75	47592.2
823.4899	592.1616	48501	47682.85
823.6345	594.2922	48373.35	47557.8
823.779	596.4222	48218.7	47403.9
823.9235	598.5515	48138.25	47321.75
824.068	600.6802	48019.95	47204.15
824.2126	602.8083	47750	46934.9
824.3571	604.9358	47760.6	46943.85
824.5017	607.0626	47711.3	46896.25
824.6462	609.1888	47505.1	46687.05
824.7908	611.3144	47600.6	46782
824.9354	613.4393	47427.2	46608.4
825.08	615.5636	47425.05	46605.1
825.2246	617.6873	47431.05	46612
825.3692	619.8103	47463.4	46639.5
825.5138	621.9327	47375.75	46553.05
825.6584	624.0544	47376.35	46556.85
825.803	626.1756	47289.25	46469.05
825.9477	628.2961	47215.2	46395.2
826.0923	630.4159	47085.5	46265.5
826.237	632.5351	47080.1	46257.55
826.3816	634.6537	47067.55	46243.25
826.5263	636.7716	46914.75	46087.25
826.6709	638.8889	46896.7	46070.05
826.8156	641.0056	46887.2	46062.95
826.9603	643.1216	46812.8	45985.85
827.105	645.237	46963.65	46137.15
827.2497	647.3518	46716.9	45891.6
827.3944	649.4659	46733.1	45907.35
827.5391	651.5793	46684.3	45857.15
827.6838	653.6922	46558.75	45731.85
827.8285	655.8043	46475.4	45648.8
827.9733	657.9159	46546.1	45718.4
828.118	660.0268	46304.85	45475.75
828.2627	662.137	46233.55	45404.6
828.4075	664.2466	46250.2	45418.6
828.5522	666.3556	46154.15	45323.65
828.697	668.4639	46058.2	45227.6
828.8418	670.5716	46087.3	45256.35
828.9865	672.6786	46093.5	45260.85
829.1313	674.785	45815	44981.45
829.2761	676.8907	45718	44887.6
829.4209	678.9958	45737.05	44904.6
829.5657	681.1002	45593.05	44760.45
829.7105	683.204	45539.95	44702.75
829.8553	685.3072	45474.9	44640.05
830.0001	687.4097	45360.15	44526.25
830.1449	689.5115	45332.05	44498.45
830.2898	691.6127	45380.85	44547.4
830.4346	693.7132	45198.95	44363.6
830.5794	695.8131	45300.8	44449.4
830.7243	697.9123	45291.85	44454.75
830.8691	700.0109	45178.8	44342.2
831.014	702.1089	45097.15	44260.35
831.1588	704.2061	44994.3	44157.3
831.3037	706.3028	45003.2	44164.6
831.4486	708.3987	45013.95	44177.2
831.5935	710.4941	44930.1	44090.8
831.7383	712.5887	44880.8	44041.35
831.8832	714.6827	44868.45	44027.05
832.0281	716.7761	44787.85	43946.1
832.173	718.8688	44769.55	43928.6
832.3179	720.9608	44649.55	43805.25
832.4628	723.0522	44691.8	43846.8
832.6077	725.1429	44553.15	43713.15
832.7527	727.233	44552.45	43709.95
832.8976	729.3224	44567.35	43725.1
833.0425	731.4112	44369.3	43527.35
833.1874	733.4993	44322.55	43478.2
833.3324	735.5867	44192.3	43348.6
833.4773	737.6735	44096.95	43252.15
833.6222	739.7596	44003.05	43158.55
833.7672	741.845	43957.85	43113.65
833.9122	743.9298	43864.8	43019.2
834.0571	746.014	43707	42863.3
834.2021	748.0974	43708.05	42861.95
834.347	750.1802	43520.5	42676.25
834.492	752.2624	43397.35	42552.55
834.637	754.3439	43232.5	42385.65
834.782	756.4247	43104.05	42248.9
834.9269	758.5048	42986.9	42141.25
835.0719	760.5843	42948.2	42100.75
835.2169	762.6631	42783.1	41936.05
835.3619	764.7413	42733.35	41888.15
835.5069	766.8188	42744.4	41897.25
835.6519	768.8956	42606.35	41757.7
835.7969	770.9718	42651.25	41804.9
835.9419	773.0473	42443.7	41597.7
836.0869	775.1221	42405.35	41558.5
836.232	777.1962	42257.55	41408.8
836.377	779.2697	42290.05	41440.1
836.522	781.3426	42184.1	41321.55
836.667	783.4147	42115.3	41266
836.8121	785.4862	42077.95	41230.75
836.9571	787.557	41898.9	41048.85
837.1021	789.6271	41789.6	40940.1
837.2472	791.6966	41665.45	40815.4
837.3922	793.7654	41491	40640.45
837.5373	795.8335	41427.35	40576.55
837.6823	797.901	41296.3	40445.7
837.8274	799.9678	41191.3	40337.7
837.9724	802.0339	41182	40331.35
838.1175	804.0993	41127.35	40267.8
838.2626	806.1641	41011.55	40159.9
838.4076	808.2282	40890.35	40039.8
838.5527	810.2916	40883.75	40031.7
838.6978	812.3544	40756.4	39905.85
838.8428	814.4164	40703.5	39854.05
838.9879	816.4778	40791.4	39938
839.133	818.5385	40622.35	39769.9
839.2781	820.5986	40635.7	39782.7
839.4232	822.658	40591.5	39737.2
839.5682	824.7166	40448.75	39596.95
839.7133	826.7747	40579.1	39725.6
839.8584	828.832	40519.75	39666.95
840.0035	830.8886	40360.2	39505.2
840.1486	832.9446	40345	39491.55
840.2937	834.9999	40243.35	39391.95
840.4388	837.0545	40148.8	39292.55
840.5839	839.1085	40120.1	39262.7
840.729	841.1618	39973.75	39115.35
840.8741	843.2143	39811.95	38954.9
841.0192	845.2662	39641.85	38787.05
841.1643	847.3175	39621.1	38767.2
841.3095	849.368	39505.8	38648.15
841.4546	851.4179	39485.85	38632.3
841.5997	853.467	39275.25	38421.5
841.7448	855.5155	39240.45	38382.7
841.8899	857.5633	39149.25	38292.65
842.0351	859.6105	39095.1	38239
842.1802	861.6569	39041.4	38186.05
842.3253	863.7027	38945.15	38085.6
842.4704	865.7478	38973.2	38116.05
842.6156	867.7922	38915.8	38058.2
842.7607	869.8359	38787.05	37928.4
842.9058	871.8789	38708.7	37850.5
843.0509	873.9212	38690.3	37801.4
843.1961	875.9629	38499.1	37642
843.3412	878.0039	38551.2	37691.55
843.4863	880.0441	38495.9	37638.4
843.6315	882.0837	38505.6	37644.95
843.7766	884.1226	38459.2	37599.7
843.9218	886.1609	38417.1	37558.4
844.0669	888.1984	38421.8	37563.1
844.212	890.2352	38434.25	37575.65
844.3572	892.2714	38368.2	37506.6
844.5023	894.3069	38339.75	37479.55
844.6475	896.3416	38107.95	37248.6
844.7926	898.3757	38063.55	37203.45
844.9377	900.4091	38051.25	37189.9
845.0829	902.4418	37910.25	37044.25
845.228	904.4739	37829.5	36967.1
845.3732	906.5052	37827.8	36967.15
845.5183	908.5358	37723.95	36863.75
845.6635	910.5658	37632	36766.9
845.8086	912.595	37581.4	36719
845.9538	914.6236	37440.65	36580.3
846.0989	916.6515	37362.45	36499.3
846.2441	918.6786	37251.6	36388.85
846.3892	920.7051	37239.4	36374.85
846.5344	922.7309	37226.4	36363
846.6795	924.756	37033.8	36170.3
846.8246	926.7804	37085.1	36220.35
846.9698	928.8041	36798.35	35935
847.1149	930.8272	36793.95	35929.75
847.2601	932.8495	36597.6	35734
847.4052	934.8711	36620.55	35757.85
847.5504	936.892	36429.35	35565.65
847.6955	938.9123	36371.5	35505.55
847.8407	940.9318	36321.45	35456.9
847.9858	942.9506	36194.9	35327.8
848.131	944.9688	36055.55	35192.4
848.2761	946.9862	35950.05	35084.4
848.4213	949.003	35789.25	34923.4
848.5664	951.019	35756	34891.95
848.7115	953.0344	35624.3	34757.45
848.8567	955.0491	35528.15	34661.65
849.0018	957.063	35483.2	34616.95
849.147	959.0763	35532.65	34668.25
849.2921	961.0888	35430.7	34561.85
849.4373	963.1007	35391.35	34526.45
849.5824	965.1119	35311.35	34446.8
849.7275	967.1223	35270.95	34404.75
849.8727	969.1321	35201.75	34337.15
850.0178	971.1412	35155.85	34292.05
850.1629	973.1495	35015.7	34149.5
850.3081	975.1572	34939.9	34027.3
850.4532	977.1641	34973.9	34109.3
850.5983	979.1704	34783.25	33917.4
850.7435	981.1759	34747.75	33877.4
850.8886	983.1808	34721.2	33854.15
851.0337	985.1849	34606.9	33735.7
851.1788	987.1884	34476	33607.1
851.324	989.1911	34440.35	33570.45
851.4691	991.1932	34355.35	33485.3
851.6142	993.1945	34202.05	33334.15
851.7593	995.1951	34044.2	33177.45
851.9045	997.1951	33999.25	33126.05
852.0496	999.1943	33808	32939.5
852.1947	1001.1928	33697.2	32829.1
852.3398	1003.1906	33605.95	32738.75
852.4849	1005.1877	33562.95	32694.25
852.63	1007.1841	33457.9	32589.3
852.7751	1009.1798	33307.25	32438.05
852.9202	1011.1748	33204.25	32336.65
853.0653	1013.1691	33133.55	32265
853.2104	1015.1627	32974.95	32104.7
853.3555	1017.1556	32689.8	31822.1
853.5006	1019.1477	32637.35	31768.85
853.6457	1021.1392	32463.1	31594.55
853.7908	1023.1299	32341.1	31473.3
853.9359	1025.12	32186.45	31314.8
854.081	1027.1093	32109.2	31244.65
854.2261	1029.0979	32003.95	31136
854.3712	1031.0859	31918.6	31049
854.5163	1033.0731	31828.65	30958.85
854.6613	1035.0596	31708.8	30840.85
854.8064	1037.0454	31552.05	30684.6
854.9515	1039.0304	31502.35	30631.5
855.0965	1041.0148	31352.95	30484.8
855.2416	1042.9985	31211.45	30339.7
855.3867	1044.9814	31232.65	30364.85
855.5317	1046.9636	31070.3	30196.75
855.6768	1048.9452	30989.15	30120
855.8219	1050.926	30934.4	30067.1
855.9669	1052.9061	30868.55	29998.4
856.112	1054.8855	30750.7	29881.2
856.257	1056.8642	30722.1	29851.3
856.4021	1058.8421	30704.2	29828.9
856.5471	1060.8194	30583.95	29712.6
856.6921	1062.7959	30564.65	29693.25
856.8372	1064.7717	30490.85	29619.25
856.9822	1066.7469	30389.3	29516.9
857.1272	1068.7213	30326.8	29454.95
857.2723	1070.695	30298.1	29426.95
857.4173	1072.6679	30132.05	29258.5
857.5623	1074.6402	30145.3	29272.35
857.7073	1076.6117	30105.65	29229.4
857.8523	1078.5826	30121.15	29246.9
857.9973	1080.5527	29960.1	29086
858.1423	1082.5221	29844.1	28972.85
858.2873	1084.4908	29758.4	28887.55
858.4323	1086.4587	29685.4	28812
858.5773	1088.426	29613.1	28738.8
858.7223	1090.3925	29458	28580.55
858.8673	1092.3584	29419.65	28548.25
859.0123	1094.3235	29342.3	28469.75
859.1573	1096.2879	29244.55	28371.65
859.3022	1098.2515	29197.35	28324.35
859.4472	1100.2145	29282.85	28409.6
859.5922	1102.1767	29159	28285.55
859.7371	1104.1382	29126.6	28254
859.8821	1106.099	29095.9	28221.05
860.027	1108.0591	28971.65	28098.55
860.172	1110.0185	28982.2	28107.3
860.3169	1111.9771	29020.2	28145.3
860.4619	1113.9351	28891.4	28017.5
860.6068	1115.8923	28838.55	27964.3
860.7517	1117.8488	28777.55	27900.95
860.8967	1119.8045	28685.55	27811.15
861.0416	1121.7596	28569.25	27695
861.1865	1123.7139	28371.4	27497.45
861.3314	1125.6675	28263.1	27389.95
861.4763	1127.6204	28309.45	27436.35
861.6212	1129.5726	28184.2	27309.05
861.7661	1131.524	28165.65	27289
861.911	1133.4748	28171.5	27298.2
862.0559	1135.4248	27956.5	27078.95
862.2008	1137.3741	27865.8	26992.05
862.3457	1139.3226	27735.7	26861.25
862.4905	1141.2705	27820	26946.8
862.6354	1143.2176	27626.35	26745.05
862.7803	1145.164	27602.3	26727.7
862.9251	1147.1097	27567.35	26692.25
863.07	1149.0546	27589	26713.65
863.2148	1150.9989	27536.15	26661.4
863.3597	1152.9424	27455.25	26581.1
863.5045	1154.8852	27362.6	26487.45
863.6493	1156.8272	27340.25	26466.2
863.7942	1158.7686	27356.3	26473.05
863.939	1160.7092	27202.15	26325.05
864.0838	1162.6491	27129.75	26252.45
864.2286	1164.5883	27163	26288.6
864.3734	1166.5267	27107.5	26229.95
864.5182	1168.4644	27074.4	26200
864.663	1170.4014	27023.2	26143
864.8078	1172.3377	27070.4	26196.65
864.9526	1174.2732	27010.75	26136.7
865.0974	1176.2081	27045.1	26170.15
865.2421	1178.1421	27082.85	26202.55
865.3869	1180.0755	27147.7	26270.95
865.5317	1182.0082	27108.65	26233.95
