Software Version:	3.9.2.0
Unit SN:	10000200
Spectrometer SN:	6960
Date:	3/6/2024 9:30:49 AM
Data Line Index:	25
Spectral Points:	2048
Integration time (ms):	125
Averages:	20
Delay (ms):	30
Sequence Number:	1
Processing:	dark subtract
Laser Power (mW):	300
Laser Current (mA):	822
Laser Diode Temp (C):	25.1
Laser Case Temp (C):	23.5
System Temp (C):	23.3
Spectrometer Temp (C):	20.9
CCD Temp (C):	-0.052
Secondary Temp (C):	20.02
Heatsink Temp (C):	17.612
CCDPCB Temp (C):	29.86
SecondaryPCB Temp (C):	25.158

Wavelength	RamanShift	Raw Counts	Dark Subtracted
787.061	30.1047	517.65	109.45
787.2016	32.3739	518.7	113.8
787.3422	34.6426	529.5	122.9
787.4828	36.9109	537.9	128.35
787.6235	39.1787	550.85	137.05
787.7642	41.4461	563.55	144.7
787.9049	43.7131	573.2	152.25
788.0456	45.9796	583.6	161.55
788.1863	48.2456	599.55	174.6
788.3271	50.5112	616.35	186.75
788.4679	52.7764	626.8	194.25
788.6087	55.0411	640.45	203.85
788.7496	57.3054	662.45	219.6
788.8904	59.5692	671.55	226.4
789.0313	61.8326	691.05	244.45
789.1722	64.0955	712.1	262
789.3132	66.3579	732.8	279.55
789.4541	68.6199	770.1	312.5
789.5951	70.8815	822.05	360.8
789.7361	73.1426	935.5	469.95
789.8771	75.4032	1220.6	750.6
790.0181	77.6634	1923.85	1450.85
790.1592	79.9231	3607.55	3131.3
790.3003	82.1824	7274.4	6794.75
790.4414	84.4412	13843.4	13354.65
790.5825	86.6995	22604.15	22103.25
790.7237	88.9574	31094.45	30586.4
790.8648	91.2148	37096.55	36583.5
791.006	93.4717	40240.45	39723.25
791.1472	95.7282	41642.2	41122.65
791.2885	97.9842	42355.15	41833.75
791.4297	100.2398	42703.7	42180.2
791.571	102.4949	42610.4	42084.95
791.7123	104.7495	42843.15	42313.3
791.8536	107.0036	42701.3	42169.1
791.9949	109.2573	43101.1	42571
792.1363	111.5105	42762.5	42228.55
792.2777	113.7632	43077.8	42541.45
792.4191	116.0154	43165.45	42618.55
792.5605	118.2672	43490.15	42949.65
792.7019	120.5185	43431.2	42890.45
792.8434	122.7693	43499.1	42951.75
792.9849	125.0197	43531.5	42982.35
793.1264	127.2696	43808.45	43255.9
793.2679	129.519	44030.05	43474.65
793.4094	131.7679	44387.7	43829.6
793.551	134.0163	43642.75	43083.1
793.6926	136.2642	44070.95	43508.15
793.8342	138.5117	44443.05	43875.6
793.9758	140.7587	44390.65	43826.9
794.1175	143.0052	44589.8	44020.1
794.2591	145.2512	44245.15	43671.15
794.4008	147.4967	44595.2	44020.5
794.5425	149.7417	44509.5	43932.5
794.6842	151.9863	44545.65	43967.6
794.826	154.2304	44164.05	43581.2
794.9677	156.4739	44428.45	43838.45
795.1095	158.717	44563.45	43976
795.2513	160.9596	44576.85	43980.2
795.3931	163.2017	44294.6	43699.15
795.535	165.4433	44697.95	44100.2
795.6768	167.6844	44468.35	43868.05
795.8187	169.925	44795.5	44193.1
795.9606	172.1651	44660.65	44054.35
796.1025	174.4047	44548.95	43938.7
796.2445	176.6439	44696.75	44083.6
796.3864	178.8825	44786.35	44169.4
796.5284	181.1206	44914.45	44297.25
796.6704	183.3582	44958.1	44334.45
796.8124	185.5954	44652.75	44027.8
796.9544	187.832	44953.1	44326.55
797.0965	190.0681	44948.6	44316.5
797.2386	192.3037	45199.65	44562.5
797.3806	194.5388	45621.05	44983.25
797.5228	196.7734	44951.5	44313.35
797.6649	199.0075	45503.85	44862.65
797.807	201.2411	45669.7	45029
797.9492	203.4742	45834.1	45187.3
798.0914	205.7068	45984.1	45335.55
798.2336	207.9389	46012.45	45364.4
798.3758	210.1704	45983.05	45340.6
798.518	212.4015	46326.55	45696.55
798.6603	214.632	45911.25	45285.55
798.8025	216.862	46303.8	45679
798.9448	219.0915	46391.3	45763.7
799.0871	221.3205	46190.35	45560.15
799.2294	223.549	46567.3	45941.55
799.3718	225.777	46626.1	45997.35
799.5141	228.0044	46631.65	45995.9
799.6565	230.2314	46770	46133.4
799.7989	232.4578	46713.9	46072.8
799.9413	234.6837	46739.15	46088.85
800.0837	236.909	47290.15	46639.6
800.2262	239.1339	46627.15	45951.75
800.3687	241.3582	46968.25	46305.15
800.5111	243.582	46931.5	46238.85
800.6536	245.8053	47115.7	46437.9
800.7961	248.0281	47088.25	46411.95
800.9387	250.2503	47188.15	46512
801.0812	252.472	47153	46474.5
801.2238	254.6932	47195.7	46518.3
801.3664	256.9139	47145.45	46467
801.509	259.134	47619.2	46936.75
801.6516	261.3536	46998.8	46317.5
801.7942	263.5727	47531.2	46846.1
801.9369	265.7912	47318.9	46633.85
802.0795	268.0092	47428.35	46743.9
802.2222	270.2267	47439.5	46752.5
802.3649	272.4436	47385.2	46695.95
802.5076	274.6601	47502.15	46803.6
802.6504	276.8759	47540.75	46848.05
802.7931	279.0913	47669.35	46974.75
802.9359	281.3061	47518.55	46822.9
803.0787	283.5204	47793.25	47094.05
803.2215	285.7341	47724.95	47022.85
803.3643	287.9473	47998.8	47285.25
803.5071	290.16	47724.2	47018.85
803.6499	292.3721	48225.7	47529.1
803.7928	294.5837	47565.2	46866.8
803.9357	296.7947	47481.7	46782.5
804.0786	299.0052	47761.35	47061.5
804.2215	301.2152	47584.1	46880.35
804.3644	303.4246	47932.75	47231.85
804.5074	305.6334	47854.4	47151.35
804.6503	307.8418	47579.1	46871.6
804.7933	310.0495	47766.65	47058.1
804.9363	312.2568	47638.05	46930.85
805.0793	314.4635	47491.35	46780.05
805.2223	316.6696	47487.65	46774.65
805.3653	318.8752	47649.85	46929.25
805.5084	321.0802	47053.05	46338.7
805.6514	323.2847	47275.45	46559.45
805.7945	325.4887	47316.75	46599.65
805.9376	327.692	47129.55	46410.25
806.0807	329.8949	47383.85	46662.5
806.2238	332.0972	47291.75	46571.25
806.367	334.2989	47430.95	46705.2
806.5101	336.5001	47546.2	46821.2
806.6533	338.7007	47319.5	46595.45
806.7965	340.9008	47449.25	46722.2
806.9397	343.1003	47418.25	46688.35
807.0829	345.2992	47545.05	46814.6
807.2261	347.4976	47333.5	46604.05
807.3693	349.6955	47364.3	46629.05
807.5126	351.8927	47341.5	46605.9
807.6559	354.0895	47394.05	46646.7
807.7991	356.2856	47351.35	46612
807.9424	358.4812	47492.1	46752.9
808.0857	360.6763	47337.4	46596.7
808.2291	362.8707	47220.05	46476.75
808.3724	365.0646	47292.7	46546.3
808.5158	367.258	47284.55	46537.65
808.6591	369.4508	47171.55	46419.1
808.8025	371.643	47227.5	46475.9
808.9459	373.8346	47157.8	46406.8
809.0893	376.0257	47125.1	46370.6
809.2327	378.2162	47029.45	46277.5
809.3762	380.4062	47003.05	46247.4
809.5196	382.5956	46974	46225.9
809.6631	384.7844	47005.65	46258.35
809.8066	386.9726	46854.65	46107.5
809.9501	389.1603	46830	46081.85
810.0936	391.3474	46686.15	45890.9
810.2371	393.5339	46832.15	46080.65
810.3806	395.7199	46512.2	45765.25
810.5241	397.9052	46597.55	45849.2
810.6677	400.09	46576.15	45826.05
810.8113	402.2743	46582.15	45833.1
810.9548	404.4579	46561.7	45808.5
811.0984	406.641	46546	45791.15
811.2421	408.8235	46707	45949
811.3857	411.0054	46669.1	45910.35
811.5293	413.1868	46763.8	45999.5
811.673	415.3675	46766.25	46001.05
811.8166	417.5477	46748.95	45980.95
811.9603	419.7273	46645.95	45875.6
812.104	421.9064	46492.55	45716.75
812.2477	424.0848	46391.65	45620.7
812.3914	426.2627	46338.2	45566.25
812.5351	428.4399	46180.95	45409.7
812.6788	430.6166	46134.6	45359.85
812.8226	432.7928	45991.1	45213.2
812.9663	434.9683	45851.3	45074.75
813.1101	437.1432	45811.25	45032.7
813.2539	439.3176	45670.35	44893.9
813.3977	441.4914	45517.55	44740.75
813.5415	443.6645	45465.75	44686.95
813.6853	445.8371	45315.85	44536.5
813.8291	448.0091	45185.85	44408.25
813.973	450.1806	45025.3	44248.65
814.1168	452.3514	44950.65	44168.3
814.2607	454.5216	44949.95	44161.1
814.4046	456.6913	44718.8	43933.15
814.5485	458.8603	44804.5	44022.2
814.6924	461.0288	44813.15	44028.95
814.8363	463.1967	44739.6	43958.6
814.9802	465.3639	44742.75	43957.55
815.1241	467.5306	44632.35	43849.05
815.2681	469.6967	44538.7	43754.1
815.412	471.8622	44372.9	43588.05
815.556	474.0271	44380.85	43594.45
815.7	476.1914	44410.15	43623.3
815.844	478.3551	44344.25	43557.6
815.988	480.5182	44400.8	43611.15
816.132	482.6807	44373.2	43584.75
816.276	484.8426	44414	43628.85
816.4201	487.0039	44509.6	43718.95
816.5641	489.1647	44551.4	43759.35
816.7082	491.3248	44584.95	43794.3
816.8522	493.4843	44559.4	43767.8
816.9963	495.6432	44509	43718.2
817.1404	497.8015	44321.35	43525.75
817.2845	499.9592	44410.35	43615.7
817.4286	502.1163	44317.2	43519.05
817.5727	504.2728	44217.8	43419.2
817.7168	506.4287	44260.95	43465.75
817.861	508.5839	44103.5	43306.6
818.0051	510.7386	44112.7	43317.9
818.1493	512.8927	44143.95	43340.35
818.2935	515.0461	44134.5	43335.65
818.4377	517.199	44125.9	43325.75
818.5818	519.3512	44053.8	43255.7
818.726	521.5029	44059.85	43252.55
818.8703	523.6539	44074.9	43270.3
819.0145	525.8043	44044.9	43241.75
819.1587	527.9541	44013.75	43208.65
819.303	530.1033	43891.95	43088.95
819.4472	532.2519	43787	42983.8
819.5915	534.3999	43724.6	42919.1
819.7357	536.5472	43757.2	42949.6
819.88	538.694	43728	42923.8
820.0243	540.8401	43734.1	42929.2
820.1686	542.9856	43709.5	42900.45
820.3129	545.1305	43672.7	42861.8
820.4572	547.2748	43709.15	42897.85
820.6016	549.4185	43707.5	42895.45
820.7459	551.5615	43571.65	42762.4
820.8902	553.704	43590	42779.1
821.0346	555.8458	43471.5	42658.4
821.1789	557.987	43484.85	42677.35
821.3233	560.1276	43427.85	42616.9
821.4677	562.2675	43530.45	42722.6
821.6121	564.4069	43484.7	42675.35
821.7565	566.5456	43401.1	42593.4
821.9009	568.6837	43430.7	42620.35
822.0453	570.8212	43253.45	42443.2
822.1897	572.958	43077.95	42262.5
822.3342	575.0942	42990.5	42176.85
822.4786	577.2299	42851.5	42038.2
822.6231	579.3648	42736.4	41923.55
822.7675	581.4992	42606.4	41793.9
822.912	583.6329	42449.75	41636.9
823.0565	585.766	42359.6	41545.8
823.201	587.8985	42345.65	41529.5
823.3454	590.0304	42218.1	41390.15
823.4899	592.1616	42192.1	41372.55
823.6345	594.2922	42160.2	41340.5
823.779	596.4222	42025.1	41205.7
823.9235	598.5515	41875.9	41055.35
824.068	600.6802	41749.05	40928.5
824.2126	602.8083	41590.05	40768.95
824.3571	604.9358	41574.45	40752
824.5017	607.0626	41437.1	40616.75
824.6462	609.1888	41383.2	40560
824.7908	611.3144	41432.3	40609.45
824.9354	613.4393	41330.25	40505.9
825.08	615.5636	41326.45	40505
825.2246	617.6873	41307.15	40482.5
825.3692	619.8103	41379.9	40553.05
825.5138	621.9327	41219.4	40392
825.6584	624.0544	41208.1	40383.25
825.803	626.1756	41119.9	40297.25
825.9477	628.2961	41064.45	40237.7
826.0923	630.4159	40952.85	40125.15
826.237	632.5351	40939.15	40113.6
826.3816	634.6537	40857.75	40030.1
826.5263	636.7716	40860.7	40031.65
826.6709	638.8889	40895.8	40067.15
826.8156	641.0056	40908.8	40079.2
826.9603	643.1216	40794.45	39964.95
827.105	645.237	40857	40026.2
827.2497	647.3518	40788.75	39960.75
827.3944	649.4659	40708.4	39882.1
827.5391	651.5793	40617.65	39786.55
827.6838	653.6922	40534.3	39705.8
827.8285	655.8043	40476.3	39645.9
827.9733	657.9159	40482.45	39650.45
828.118	660.0268	40359.35	39526.35
828.2627	662.137	40289.3	39454.05
828.4075	664.2466	40288.9	39455.3
828.5522	666.3556	40203	39369.45
828.697	668.4639	40082.1	39244.95
828.8418	670.5716	40107.95	39272.75
828.9865	672.6786	40095.15	39259.6
829.1313	674.785	39959	39122.1
829.2761	676.8907	39785.65	38949.2
829.4209	678.9958	39847.5	39012.1
829.5657	681.1002	39725.9	38888.95
829.7105	683.204	39628.05	38785.6
829.8553	685.3072	39640.9	38801.1
830.0001	687.4097	39539.6	38701.4
830.1449	689.5115	39489.55	38649.3
830.2898	691.6127	39487.5	38650
830.4346	693.7132	39389.7	38551.5
830.5794	695.8131	39455.75	38594.9
830.7243	697.9123	39416.65	38577.55
830.8691	700.0109	39362.9	38523.5
831.014	702.1089	39325.85	38485.35
831.1588	704.2061	39274.2	38434.6
831.3037	706.3028	39291.65	38449.25
831.4486	708.3987	39194.85	38353.5
831.5935	710.4941	39104	38263.7
831.7383	712.5887	39128.85	38285.2
831.8832	714.6827	39099.7	38252.75
832.0281	716.7761	39057.85	38217.2
832.173	718.8688	39030.1	38187.85
832.3179	720.9608	38883.5	38035.5
832.4628	723.0522	38941.4	38092.45
832.6077	725.1429	38866.8	38023.4
832.7527	727.233	38814.95	37969.7
832.8976	729.3224	38876.05	38028.7
833.0425	731.4112	38811.95	37964.7
833.1874	733.4993	38734.6	37885
833.3324	735.5867	38598.6	37749.95
833.4773	737.6735	38548.15	37700.35
833.6222	739.7596	38404	37556.6
833.7672	741.845	38340.95	37493.9
833.9122	743.9298	38235.1	37385.8
834.0571	746.014	38213.85	37366.2
834.2021	748.0974	38168.9	37319.55
834.347	750.1802	37974.2	37126.25
834.492	752.2624	37888.55	37041.05
834.637	754.3439	37759.35	36908.85
834.782	756.4247	37642.8	36784.5
834.9269	758.5048	37518.15	36668.8
835.0719	760.5843	37444.25	36594.1
835.2169	762.6631	37365.45	36514.75
835.3619	764.7413	37325.9	36477.95
835.5069	766.8188	37329.65	36479.15
835.6519	768.8956	37244.65	36391.05
835.7969	770.9718	37316.85	36467.5
835.9419	773.0473	37098.9	36248.85
836.0869	775.1221	37026.65	36175.55
836.232	777.1962	36944.75	36094.65
836.377	779.2697	36884.5	36029.1
836.522	781.3426	36879.45	36006.75
836.667	783.4147	36856.5	36004.3
836.8121	785.4862	36807.5	35958.05
836.9571	787.557	36677.75	35825.4
837.1021	789.6271	36561.25	35707.85
837.2472	791.6966	36378.5	35525.3
837.3922	793.7654	36136.2	35283.35
837.5373	795.8335	36197	35343.45
837.6823	797.901	36055.2	35203.45
837.8274	799.9678	36013.8	35158.5
837.9724	802.0339	35922.65	35069.65
838.1175	804.0993	35890.95	35026.3
838.2626	806.1641	35776.55	34920.6
838.4076	808.2282	35658.7	34803.5
838.5527	810.2916	35715	34857.3
838.6978	812.3544	35675	34821.65
838.8428	814.4164	35574.4	34719.75
838.9879	816.4778	35590	34731.7
839.133	818.5385	35466.6	34612
839.2781	820.5986	35504.55	34651.3
839.4232	822.658	35445.35	34587.5
839.5682	824.7166	35382.45	34526.35
839.7133	826.7747	35503.85	34647.75
839.8584	828.832	35424.7	34566.05
840.0035	830.8886	35306.25	34445.7
840.1486	832.9446	35282.95	34424.6
840.2937	834.9999	35190.15	34332.95
840.4388	837.0545	35083.4	34222.8
840.5839	839.1085	34979.9	34121.2
840.729	841.1618	34864.1	34003.55
840.8741	843.2143	34773.55	33914.45
841.0192	845.2662	34656.45	33797.7
841.1643	847.3175	34665.85	33808.95
841.3095	849.368	34519.45	33659.45
841.4546	851.4179	34458.3	33598.8
841.5997	853.467	34316.65	33456.7
841.7448	855.5155	34294.85	33437.1
841.8899	857.5633	34227.15	33368.45
842.0351	859.6105	34102.8	33245.25
842.1802	861.6569	34096.1	33235.65
842.3253	863.7027	34022.1	33161.6
842.4704	865.7478	34063.4	33203.4
842.6156	867.7922	34008.8	33149.45
842.7607	869.8359	33885.65	33023.8
842.9058	871.8789	33823.25	32961.95
843.0509	873.9212	33778.9	32887.5
843.1961	875.9629	33628.6	32768.65
843.3412	878.0039	33673.8	32810.8
843.4863	880.0441	33603.95	32744.05
843.6315	882.0837	33632	32769.15
843.7766	884.1226	33539.95	32674.8
843.9218	886.1609	33551.45	32690.15
844.0669	888.1984	33603.05	32742.9
844.212	890.2352	33627.85	32768.6
844.3572	892.2714	33539.15	32672.85
844.5023	894.3069	33517.1	32654.2
844.6475	896.3416	33321.45	32457.9
844.7926	898.3757	33313.75	32450.35
844.9377	900.4091	33231.3	32365.25
845.0829	902.4418	33175.05	32306
845.228	904.4739	33055.55	32188.65
845.3732	906.5052	33028.05	32164.55
845.5183	908.5358	33008.05	32145.95
845.6635	910.5658	32913.8	32047.45
845.8086	912.595	32821.1	31959.6
845.9538	914.6236	32683.45	31819.15
846.0989	916.6515	32657.1	31793.1
846.2441	918.6786	32507	31639.5
846.3892	920.7051	32516.25	31650.9
846.5344	922.7309	32576.2	31711.2
846.6795	924.756	32390.5	31524.7
846.8246	926.7804	32369.2	31499.85
846.9698	928.8041	32150	31281.95
847.1149	930.8272	32155.4	31290.55
847.2601	932.8495	32009.4	31144
847.4052	934.8711	32026.6	31161.45
847.5504	936.892	31820.1	30953.3
847.6955	938.9123	31790.1	30921.15
847.8407	940.9318	31772.3	30904.65
847.9858	942.9506	31657.65	30792.2
848.131	944.9688	31494.75	30629
848.2761	946.9862	31447.35	30581
848.4213	949.003	31263.9	30397.75
848.5664	951.019	31151.1	30283.45
848.7115	953.0344	31118.9	30252.8
848.8567	955.0491	31042.3	30171.7
849.0018	957.063	31023.5	30156.85
849.147	959.0763	31092.8	30224.8
849.2921	961.0888	30935.45	30065.6
849.4373	963.1007	30834.65	29966.1
849.5824	965.1119	30812.65	29945.5
849.7275	967.1223	30832.45	29966.4
849.8727	969.1321	30682	29816.75
850.0178	971.1412	30688.55	29819.3
850.1629	973.1495	30592.95	29725.9
850.3081	975.1572	30578.2	29661.85
850.4532	977.1641	30524.05	29656.75
850.5983	979.1704	30417.8	29548.55
850.7435	981.1759	30313.4	29440.85
850.8886	983.1808	30307.9	29437.35
851.0337	985.1849	30215.4	29341.9
851.1788	987.1884	30117.85	29245
851.324	989.1911	30088.6	29216.9
851.4691	991.1932	30016.25	29142.2
851.6142	993.1945	29871.4	29002.2
851.7593	995.1951	29708.2	28838
851.9045	997.1951	29665.95	28790.3
852.0496	999.1943	29505.05	28637.05
852.1947	1001.1928	29425	28554.35
852.3398	1003.1906	29328	28458.9
852.4849	1005.1877	29327.3	28455.65
852.63	1007.1841	29192.75	28322.6
852.7751	1009.1798	29091.45	28222.15
852.9202	1011.1748	29016.05	28144.65
853.0653	1013.1691	28921.7	28050.6
853.2104	1015.1627	28816.7	27942.8
853.3555	1017.1556	28613.35	27742.95
853.5006	1019.1477	28487.75	27615
853.6457	1021.1392	28325.65	27456.5
853.7908	1023.1299	28234.25	27364.45
853.9359	1025.12	28133.35	27261.15
854.081	1027.1093	28008.25	27140.4
854.2261	1029.0979	27953.5	27087.4
854.3712	1031.0859	27809.9	26941.5
854.5163	1033.0731	27796.95	26927.6
854.6613	1035.0596	27688.95	26817.6
854.8064	1037.0454	27519.4	26648.95
854.9515	1039.0304	27515.65	26643.7
855.0965	1041.0148	27366.65	26494.75
855.2416	1042.9985	27240.3	26366.85
855.3867	1044.9814	27211.7	26338.95
855.5317	1046.9636	27060.1	26184.1
855.6768	1048.9452	26984.85	26112.8
855.8219	1050.926	27005.65	26131.5
855.9669	1052.9061	26918.35	26046.45
856.112	1054.8855	26848.15	25975.6
856.257	1056.8642	26797.75	25924.35
856.4021	1058.8421	26770.1	25892.6
856.5471	1060.8194	26643.8	25770.1
856.6921	1062.7959	26585.35	25710.7
856.8372	1064.7717	26577.8	25703.15
856.9822	1066.7469	26489.7	25616.95
857.1272	1068.7213	26470.1	25596.4
857.2723	1070.695	26438.9	25566
857.4173	1072.6679	26306.15	25431.65
857.5623	1074.6402	26291.2	25416.4
857.7073	1076.6117	26243.45	25364.75
857.8523	1078.5826	26194.05	25318.75
857.9973	1080.5527	26127.9	25251.9
858.1423	1082.5221	26029.5	25154.5
858.2873	1084.4908	25977	25101.8
858.4323	1086.4587	25868	24993.2
858.5773	1088.426	25790.2	24916.75
858.7223	1090.3925	25691.75	24812.4
858.8673	1092.3584	25658.5	24784.5
859.0123	1094.3235	25528.9	24654.3
859.1573	1096.2879	25498.75	24622.65
859.3022	1098.2515	25502.9	24627.1
859.4472	1100.2145	25484.6	24608.5
859.5922	1102.1767	25350.7	24474.85
859.7371	1104.1382	25348.65	24473.75
859.8821	1106.099	25340.5	24463.5
860.027	1108.0591	25282.6	24407.8
860.172	1110.0185	25241.7	24365.25
860.3169	1111.9771	25271.35	24396.45
860.4619	1113.9351	25152.8	24278.15
860.6068	1115.8923	25160.1	24284.25
860.7517	1117.8488	25102.85	24227.6
860.8967	1119.8045	24996.6	24120.8
861.0416	1121.7596	24937.65	24061.95
861.1865	1123.7139	24744	23869.4
861.3314	1125.6675	24659.7	23782.65
861.4763	1127.6204	24671.3	23797.15
861.6212	1129.5726	24551.3	23674.65
861.7661	1131.524	24544.05	23668.05
861.911	1133.4748	24470.5	23595.1
862.0559	1135.4248	24356.05	23478.8
862.2008	1137.3741	24281.55	23404.95
862.3457	1139.3226	24169.05	23288.5
862.4905	1141.2705	24204.6	23328.8
862.6354	1143.2176	24051.8	23169.2
862.7803	1145.164	24024.6	23144.95
862.9251	1147.1097	23974.8	23099
863.07	1149.0546	23946.6	23069.35
863.2148	1150.9989	23896.7	23019.9
863.3597	1152.9424	23907.65	23032.8
863.5045	1154.8852	23819.15	22941.65
863.6493	1156.8272	23786.45	22910.75
863.7942	1158.7686	23762.1	22879.25
863.939	1160.7092	23687.65	22808.55
864.0838	1162.6491	23585.3	22707.4
864.2286	1164.5883	23566.4	22689.7
864.3734	1166.5267	23483.95	22605.35
864.5182	1168.4644	23500.9	22622.6
864.663	1170.4014	23490.2	22609.05
864.8078	1172.3377	23549.95	22675.8
864.9526	1174.2732	23488.75	22611.75
865.0974	1176.2081	23525	22647.9
865.2421	1178.1421	23543.8	22664.35
865.3869	1180.0755	23625.55	22747.45
865.5317	1182.0082	23556.45	22680
865.6764	1183.9401	23559.65	22680.7
