Software Version:	3.9.2.0
Unit SN:	10000200
Spectrometer SN:	6960
Date:	3/6/2024 10:00:05 AM
Data Line Index:	25
Spectral Points:	2048
Integration time (ms):	125
Averages:	20
Delay (ms):	30
Sequence Number:	1
Processing:	dark subtract
Laser Power (mW):	300
Laser Current (mA):	824
Laser Diode Temp (C):	25.1
Laser Case Temp (C):	24.6
System Temp (C):	24.4
Spectrometer Temp (C):	22
CCD Temp (C):	0
Secondary Temp (C):	20.006
Heatsink Temp (C):	18.28
CCDPCB Temp (C):	31.005
SecondaryPCB Temp (C):	26.303

Wavelength	RamanShift	Raw Counts	Dark Subtracted
787.061	30.1047	694.75	285.65
787.2016	32.3739	698.4	291.1
787.3422	34.6426	716.05	308.2
787.4828	36.9109	739.2	331.1
787.6235	39.1787	762.75	349
787.7642	41.4461	786.35	367.7
787.9049	43.7131	812.1	393.7
788.0456	45.9796	841	417.45
788.1863	48.2456	866.5	439
788.3271	50.5112	897.5	464.5
788.4679	52.7764	925.95	489
788.6087	55.0411	963.4	524.5
788.7496	57.3054	997.9	553.15
788.8904	59.5692	1028.95	583.95
789.0313	61.8326	1068.55	622.25
789.1722	64.0955	1116.45	665.9
789.3132	66.3579	1165.8	708.85
789.4541	68.6199	1237.05	777.8
789.5951	70.8815	1347.85	884.45
789.7361	73.1426	1606.25	1138.6
789.8771	75.4032	2239	1768.45
790.0181	77.6634	3852.2	3377.65
790.1592	79.9231	7897.25	7418.3
790.3003	82.1824	18177.05	17688.7
790.4414	84.4412	40194.2	39686.6
790.5825	86.6995	52461.4	51937.55
790.7237	88.9574	57117.2	56580
790.8648	91.2148	59754.9	59206.7
791.006	93.4717	60620.7	60059.15
791.1472	95.7282	61005.7	60441.65
791.2885	97.9842	61221.55	60657.05
791.4297	100.2398	61236.85	60670.55
791.571	102.4949	61203.1	60632.9
791.7123	104.7495	61257.5	60683.15
791.8536	107.0036	61146	60570.25
791.9949	109.2573	61309.4	60735.85
792.1363	111.5105	61181.15	60603.15
792.2777	113.7632	61244.6	60663.25
792.4191	116.0154	61310.8	60722.4
792.5605	118.2672	61412.15	60828.95
792.7019	120.5185	61417.3	60833.45
792.8434	122.7693	61430.6	60841.95
792.9849	125.0197	61301.2	60705.45
793.1264	127.2696	61574.65	60977.8
793.2679	129.519	61561.5	60962.4
793.4094	131.7679	61671.45	61067.95
793.551	134.0163	61377.6	60774.5
793.6926	136.2642	61504.15	60897.85
793.8342	138.5117	61687.35	61073.05
793.9758	140.7587	61604.05	60991.25
794.1175	143.0052	61622.95	61006.75
794.2591	145.2512	61472.9	60856.9
794.4008	147.4967	61662.6	61043.95
794.5425	149.7417	61596	60975.8
794.6842	151.9863	61599.55	60975.25
794.826	154.2304	61479.25	60849.7
794.9677	156.4739	61564.5	60929.55
795.1095	158.717	61686.35	61050.85
795.2513	160.9596	61632.5	60994.2
795.3931	163.2017	61483.35	60842.15
795.535	165.4433	61633.75	60990.3
795.6768	167.6844	61551.95	60911.1
795.8187	169.925	61651.65	61005.2
795.9606	172.1651	61555.65	60905.55
796.1025	174.4047	61574.65	60918
796.2445	176.6439	61580.3	60926.1
796.3864	178.8825	61548.5	60889.2
796.5284	181.1206	61656	60995.15
796.6704	183.3582	61662.75	60995.6
796.8124	185.5954	61584.4	60916.55
796.9544	187.832	61619	60947.6
797.0965	190.0681	61523.2	60845.6
797.2386	192.3037	61692.85	61010.95
797.3806	194.5388	61875.25	61193.2
797.5228	196.7734	61487.35	60804.8
797.6649	199.0075	61821.5	61135
797.807	201.2411	61735.85	61051.7
797.9492	203.4742	61923.9	61235.75
798.0914	205.7068	61877.9	61186.75
798.2336	207.9389	61877.95	61181.2
798.3758	210.1704	61864.5	61173.8
798.518	212.4015	62022.65	61341.2
798.6603	214.632	61821.4	61150.6
798.8025	216.862	62036.05	61367.4
798.9448	219.0915	61957.6	61282.35
799.0871	221.3205	61928.25	61250.3
799.2294	223.549	62098.4	61427.2
799.3718	225.777	62069.2	61397.8
799.5141	228.0044	62158.9	61480.4
799.6565	230.2314	62087.45	61405.2
799.7989	232.4578	62092.15	61407.35
799.9413	234.6837	62129.55	61440.25
800.0837	236.909	62452	61760.2
800.2262	239.1339	62010.6	61291.1
800.3687	241.3582	62198.2	61494.1
800.5111	243.582	62221.95	61485.65
800.6536	245.8053	62238.2	61515.15
800.7961	248.0281	62257.9	61543.05
800.9387	250.2503	62296.45	61573.5
801.0812	252.472	62186.85	61464.05
801.2238	254.6932	62277.95	61555.2
801.3664	256.9139	62217.6	61492.25
801.509	259.134	62500.25	61770.25
801.6516	261.3536	62182.45	61454.8
801.7942	263.5727	62366.2	61635.55
801.9369	265.7912	62255.35	61526.3
802.0795	268.0092	62303.15	61572.85
802.2222	270.2267	62342.15	61611.75
802.3649	272.4436	62224.95	61498.3
802.5076	274.6601	62366.8	61625.8
802.6504	276.8759	62432.8	61694.2
802.7931	279.0913	62343.7	61606.45
802.9359	281.3061	62371.55	61631.85
803.0787	283.5204	62395.05	61651.25
803.2215	285.7341	62396.35	61649.2
803.3643	287.9473	62516.15	61761.2
803.5071	290.16	62403.85	61655.7
803.6499	292.3721	62482.15	61741.6
803.7928	294.5837	62356.75	61612.15
803.9357	296.7947	62272.05	61525.65
804.0786	299.0052	62489.45	61743.5
804.2215	301.2152	62380.4	61633.55
804.3644	303.4246	62492.75	61748.15
804.5074	305.6334	62507.45	61760.25
804.6503	307.8418	62344	61592.5
804.7933	310.0495	62373.25	61621.7
804.9363	312.2568	62348.25	61596.65
805.0793	314.4635	62309.1	61552.75
805.2223	316.6696	62390.55	61629.5
805.3653	318.8752	62483.15	61714.8
805.5084	321.0802	62169.2	61411.1
805.6514	323.2847	62317.25	61558.45
805.7945	325.4887	62289.4	61527.75
805.9376	327.692	62223.1	61459.7
806.0807	329.8949	62313.1	61546.05
806.2238	332.0972	62258.1	61489.35
806.367	334.2989	62293.2	61520.75
806.5101	336.5001	62393.45	61624.25
806.6533	338.7007	62175.5	61409.3
806.7965	340.9008	62298.55	61529.45
806.9397	343.1003	62302.4	61529.25
807.0829	345.2992	62398.95	61625.85
807.2261	347.4976	62286.85	61510.4
807.3693	349.6955	62346.95	61569.55
807.5126	351.8927	62246.7	61467.3
807.6559	354.0895	62328.4	61535.6
807.7991	356.2856	62332.45	61551.3
807.9424	358.4812	62434.3	61653.2
808.0857	360.6763	62253.2	61468.35
808.2291	362.8707	62425.4	61638.1
808.3724	365.0646	62314.25	61525.25
808.5158	367.258	62304.8	61517.9
808.6591	369.4508	62205.85	61410.8
808.8025	371.643	62373	61580.75
808.9459	373.8346	62304.6	61508.7
809.0893	376.0257	62317.5	61519
809.2327	378.2162	62257.9	61459.5
809.3762	380.4062	62104.95	61307.4
809.5196	382.5956	62227.5	61429.45
809.6631	384.7844	62221.25	61428.65
809.8066	386.9726	62287.05	61496.4
809.9501	389.1603	62284.2	61494.65
810.0936	391.3474	62160.85	61338.7
810.2371	393.5339	62301.95	61508.9
810.3806	395.7199	62112.95	61320.4
810.5241	397.9052	62142.95	61353.7
810.6677	400.09	62144	61355.1
810.8113	402.2743	62275	61483.5
810.9548	404.4579	62130.6	61334
811.0984	406.641	62158.3	61362.05
811.2421	408.8235	62228.7	61431.4
811.3857	411.0054	62233.7	61434.35
811.5293	413.1868	62229.6	61425.6
811.673	415.3675	62178.6	61371.45
811.8166	417.5477	62189.05	61383.25
811.9603	419.7273	62171.2	61364.4
812.104	421.9064	62159.2	61342.3
812.2477	424.0848	62158.35	61349.3
812.3914	426.2627	62248.65	61441.45
812.5351	428.4399	62090.25	61280.45
812.6788	430.6166	61994.75	61180.9
812.8226	432.7928	62124.35	61306.45
812.9663	434.9683	62007.7	61187.35
813.1101	437.1432	61985.35	61169.55
813.2539	439.3176	62071.35	61256.4
813.3977	441.4914	61895.65	61085.8
813.5415	443.6645	61927.85	61114.6
813.6853	445.8371	61948.4	61133.55
813.8291	448.0091	61840.95	61023.9
813.973	450.1806	61782.3	60965.15
814.1168	452.3514	61800.6	60981.1
814.2607	454.5216	61734.15	60907.7
814.4046	456.6913	61779.8	60956.45
814.5485	458.8603	61849.45	61030.65
814.6924	461.0288	61735.15	60917.65
814.8363	463.1967	61809.55	60991.6
814.9802	465.3639	61798.45	60979.25
815.1241	467.5306	61636.9	60815.6
815.2681	469.6967	61699.75	60877.45
815.412	471.8622	61765.05	60947.75
815.556	474.0271	61676.35	60857.3
815.7	476.1914	61689.65	60865.8
815.844	478.3551	61714.05	60891.1
815.988	480.5182	61841.15	61017.35
816.132	482.6807	61670.85	60848.8
816.276	484.8426	61714.1	60896.7
816.4201	487.0039	61849.35	61026.3
816.5641	489.1647	61831	61005.55
816.7082	491.3248	61669.1	60842.95
816.8522	493.4843	61826.15	61004.25
816.9963	495.6432	61838.7	61015.1
817.1404	497.8015	61670.45	60838
817.2845	499.9592	61760.35	60926.4
817.4286	502.1163	61761.6	60929.3
817.5727	504.2728	61705.15	60869.6
817.7168	506.4287	61705.3	60880.3
817.861	508.5839	61632.05	60806.45
818.0051	510.7386	61674.6	60845.2
818.1493	512.8927	61705.85	60874.35
818.2935	515.0461	61669.85	60834.8
818.4377	517.199	61772.15	60939.25
818.5818	519.3512	61678	60845.2
818.726	521.5029	61635.8	60796.3
818.8703	523.6539	61674.9	60841.15
819.0145	525.8043	61547.25	60709.75
819.1587	527.9541	61642.75	60803.45
819.303	530.1033	61624.05	60786.25
819.4472	532.2519	61579.3	60742.3
819.5915	534.3999	61656.45	60814.1
819.7357	536.5472	61717.35	60876.5
819.88	538.694	61543	60705.65
820.0243	540.8401	61632.6	60792.5
820.1686	542.9856	61642.35	60799.1
820.3129	545.1305	61694.85	60844.75
820.4572	547.2748	61593.6	60744.35
820.6016	549.4185	61593.8	60745.95
820.7459	551.5615	61649	60800.8
820.8902	553.704	61612.6	60767.55
821.0346	555.8458	61535.7	60691.55
821.1789	557.987	61587.4	60741.8
821.3233	560.1276	61606	60759.5
821.4677	562.2675	61568.8	60722.05
821.6121	564.4069	61567.35	60723.25
821.7565	566.5456	61607.8	60763.05
821.9009	568.6837	61530.05	60686.1
822.0453	570.8212	61553.7	60708.25
822.1897	572.958	61414.9	60565.65
822.3342	575.0942	61520.8	60675.15
822.4786	577.2299	61417.85	60574.65
822.6231	579.3648	61370.4	60528.65
822.7675	581.4992	61319.35	60482.05
822.912	583.6329	61304.5	60463.95
823.0565	585.766	61328.05	60486.4
823.201	587.8985	61342.2	60502.35
823.3454	590.0304	61189.25	60333
823.4899	592.1616	61272.4	60420.4
823.6345	594.2922	61216.8	60363.4
823.779	596.4222	61156.8	60300.5
823.9235	598.5515	61150.7	60296.15
824.068	600.6802	61217.85	60365.25
824.2126	602.8083	61105.8	60253.3
824.3571	604.9358	61102.1	60248.85
824.5017	607.0626	61133.05	60277.5
824.6462	609.1888	61058.35	60196.75
824.7908	611.3144	61105.85	60247.3
824.9354	613.4393	61016.2	60158.1
825.08	615.5636	61003.9	60146.15
825.2246	617.6873	61018	60161.1
825.3692	619.8103	60974.85	60115.6
825.5138	621.9327	61014.1	60154.95
825.6584	624.0544	61027.2	60171.5
825.803	626.1756	60949.25	60093.8
825.9477	628.2961	60953.65	60095.7
826.0923	630.4159	60900.3	60042.8
826.237	632.5351	60917.9	60058.05
826.3816	634.6537	61013.45	60149.15
826.5263	636.7716	60865	59998.85
826.6709	638.8889	60874.7	60009.7
826.8156	641.0056	60884.1	60021.55
826.9603	643.1216	60920.35	60055.95
827.105	645.237	60931.1	60067.35
827.2497	647.3518	60848.4	59986.6
827.3944	649.4659	60868.55	60007.05
827.5391	651.5793	60862.3	60002.5
827.6838	653.6922	60862.7	60001.5
827.8285	655.8043	60772.35	59911.15
827.9733	657.9159	60914.35	60047.2
828.118	660.0268	60657.2	59792.1
828.2627	662.137	60748.4	59883.55
828.4075	664.2466	60771.25	59898.75
828.5522	666.3556	60731.3	59863.75
828.697	668.4639	60742.1	59874.05
828.8418	670.5716	60701.05	59836.8
828.9865	672.6786	60735.9	59867.75
829.1313	674.785	60647.8	59777.55
829.2761	676.8907	60638.2	59770.75
829.4209	678.9958	60650.2	59785.05
829.5657	681.1002	60671.1	59801.5
829.7105	683.204	60590.4	59714.85
829.8553	685.3072	60531.5	59660.9
830.0001	687.4097	60564.75	59694
830.1449	689.5115	60529.8	59658.7
830.2898	691.6127	60614.95	59746.45
830.4346	693.7132	60518.05	59653.2
830.5794	695.8131	60558.35	59663.05
830.7243	697.9123	60536.85	59662.6
830.8691	700.0109	60539	59662.3
831.014	702.1089	60416.2	59545.75
831.1588	704.2061	60459.6	59584.9
831.3037	706.3028	60465.65	59589.95
831.4486	708.3987	60463	59590.55
831.5935	710.4941	60416.1	59540.65
831.7383	712.5887	60455.4	59581.95
831.8832	714.6827	60405.45	59528.95
832.0281	716.7761	60445.8	59571.55
832.173	718.8688	60451.85	59578.3
832.3179	720.9608	60358.75	59477.75
832.4628	723.0522	60398.85	59520.6
832.6077	725.1429	60347.95	59471.35
832.7527	727.233	60456.3	59580.55
832.8976	729.3224	60199.5	59322.4
833.0425	731.4112	60273.35	59396
833.1874	733.4993	60261.35	59384.05
833.3324	735.5867	60272.5	59393.2
833.4773	737.6735	60168.25	59290.65
833.6222	739.7596	60105.85	59228.15
833.7672	741.845	60087	59208.3
833.9122	743.9298	60163	59283.25
834.0571	746.014	60081.2	59206.2
834.2021	748.0974	59989.15	59108.15
834.347	750.1802	60092.95	59212.25
834.492	752.2624	59930.85	59051.25
834.637	754.3439	59916.25	59032.4
834.782	756.4247	59917.75	59029.2
834.9269	758.5048	59814.35	58932.6
835.0719	760.5843	59835.5	58954.35
835.2169	762.6631	59849.35	58967.45
835.3619	764.7413	59810.8	58931.2
835.5069	766.8188	59848.45	58963.25
835.6519	768.8956	59831.2	58945.9
835.7969	770.9718	59813.65	58933.75
835.9419	773.0473	59765.5	58884.05
836.0869	775.1221	59676.15	58795.65
836.232	777.1962	59627.45	58744.05
836.377	779.2697	59506.2	58623.3
836.522	781.3426	59545.7	58641.3
836.667	783.4147	59551.6	58665.3
836.8121	785.4862	59506.1	58622.8
836.9571	787.557	59385.6	58498.8
837.1021	789.6271	59479.75	58594.15
837.2472	791.6966	59405.15	58519.4
837.3922	793.7654	59274.05	58388.85
837.5373	795.8335	59276	58393.3
837.6823	797.901	59299.9	58414.8
837.8274	799.9678	59204.45	58317.2
837.9724	802.0339	59179.95	58294.95
838.1175	804.0993	59206.35	58309.55
838.2626	806.1641	59125.05	58237.6
838.4076	808.2282	59068.8	58184.75
838.5527	810.2916	59026.45	58140.5
838.6978	812.3544	59110.45	58226.55
838.8428	814.4164	58968.7	58084.1
838.9879	816.4778	58975.2	58087.85
839.133	818.5385	58958.9	58071.4
839.2781	820.5986	58960.55	58074.4
839.4232	822.658	58955.35	58067.7
839.5682	824.7166	58928.45	58042.3
839.7133	826.7747	58857.7	57968.25
839.8584	828.832	58899.25	58010.35
840.0035	830.8886	58903.05	58011.1
840.1486	832.9446	58899.1	58010.15
840.2937	834.9999	58705.85	57818.55
840.4388	837.0545	58782.85	57889.15
840.5839	839.1085	58788.35	57897.2
840.729	841.1618	58750	57857.85
840.8741	843.2143	58587.55	57697.8
841.0192	845.2662	58552.3	57662.85
841.1643	847.3175	58600.65	57710
841.3095	849.368	58447.75	57555.5
841.4546	851.4179	58555.8	57666.3
841.5997	853.467	58419.45	57531
841.7448	855.5155	58440.7	57550.15
841.8899	857.5633	58377.3	57486.2
842.0351	859.6105	58290.5	57399.3
842.1802	861.6569	58338.1	57446.6
842.3253	863.7027	58264.25	57370.2
842.4704	865.7478	58304.4	57414.05
842.6156	867.7922	58280.1	57389.5
842.7607	869.8359	58278.75	57387.15
842.9058	871.8789	58166.9	57274.25
843.0509	873.9212	58202.05	57275.8
843.1961	875.9629	58113.05	57217.75
843.3412	878.0039	58140.25	57245.35
843.4863	880.0441	58091.6	57202.85
843.6315	882.0837	58093.2	57199.75
843.7766	884.1226	58098.95	57206.25
843.9218	886.1609	58084.05	57192.5
844.0669	888.1984	58045.85	57152.55
844.212	890.2352	58114.25	57221.85
844.3572	892.2714	58011.2	57112.15
844.5023	894.3069	58048.85	57156.1
844.6475	896.3416	57984.4	57089.4
844.7926	898.3757	57961.3	57067.3
844.9377	900.4091	57841.35	56944.15
845.0829	902.4418	57912	57010.8
845.228	904.4739	57848.9	56953.35
845.3732	906.5052	57843.6	56947.2
845.5183	908.5358	57772.1	56877.15
845.6635	910.5658	57728.6	56831.65
845.8086	912.595	57731.75	56837
845.9538	914.6236	57627.55	56730.6
846.0989	916.6515	57755.25	56859.05
846.2441	918.6786	57590.4	56693.2
846.3892	920.7051	57589	56689.2
846.5344	922.7309	57589.55	56694
846.6795	924.756	57533.15	56639.2
846.8246	926.7804	57513.85	56614.65
846.9698	928.8041	57367.05	56470.35
847.1149	930.8272	57443.8	56548.4
847.2601	932.8495	57370.25	56471.9
847.4052	934.8711	57302.8	56404.2
847.5504	936.892	57259	56358.95
847.6955	938.9123	57228.9	56331.1
847.8407	940.9318	57171.2	56272.95
847.9858	942.9506	57126.85	56229.6
848.131	944.9688	57113.9	56217.35
848.2761	946.9862	57009.6	56109.25
848.4213	949.003	57018.3	56121.95
848.5664	951.019	56913.65	56017.65
848.7115	953.0344	56883.55	55983.05
848.8567	955.0491	56876.55	55979.85
849.0018	957.063	56875.2	55976.75
849.147	959.0763	56885.45	55988
849.2921	961.0888	56822.3	55921.95
849.4373	963.1007	56837.1	55941.75
849.5824	965.1119	56822.3	55926.45
849.7275	967.1223	56780.2	55884.85
849.8727	969.1321	56786.65	55893.9
850.0178	971.1412	56700.9	55804.45
850.1629	973.1495	56657.3	55760.3
850.3081	975.1572	56669.8	55732.1
850.4532	977.1641	56652.55	55754.45
850.5983	979.1704	56599.6	55699.5
850.7435	981.1759	56590.25	55689.75
850.8886	983.1808	56522.85	55623.55
851.0337	985.1849	56496.95	55584.8
851.1788	987.1884	56497.3	55595.3
851.324	989.1911	56446.75	55549.1
851.4691	991.1932	56416.85	55517.9
851.6142	993.1945	56357.05	55458.8
851.7593	995.1951	56314.15	55415.8
851.9045	997.1951	56300.9	55396.7
852.0496	999.1943	56257.1	55356.85
852.1947	1001.1928	56186.15	55286.65
852.3398	1003.1906	56129.85	55231.15
852.4849	1005.1877	56113.95	55214.8
852.63	1007.1841	56064.25	55167.45
852.7751	1009.1798	56028.95	55129.35
852.9202	1011.1748	55952.1	55051.25
853.0653	1013.1691	55897.05	54998.55
853.2104	1015.1627	55777.2	54876.75
853.3555	1017.1556	55774.05	54876.9
853.5006	1019.1477	55743.55	54847.05
853.6457	1021.1392	55647.05	54753.25
853.7908	1023.1299	55537.3	54642.25
853.9359	1025.12	55563.5	54669.55
854.081	1027.1093	55468.2	54580.3
854.2261	1029.0979	55426.55	54540.1
854.3712	1031.0859	55363.55	54473.95
854.5163	1033.0731	55265.55	54370.85
854.6613	1035.0596	55295.7	54400.25
854.8064	1037.0454	55202.6	54304.9
854.9515	1039.0304	55157.45	54258.55
855.0965	1041.0148	55018.3	54119.45
855.2416	1042.9985	55007.25	54106.1
855.3867	1044.9814	55045.55	54147.9
855.5317	1046.9636	54912.85	54012.8
855.6768	1048.9452	54906.5	54008.45
855.8219	1050.926	54879.4	53982.4
855.9669	1052.9061	54839.05	53941.9
856.112	1054.8855	54770.1	53871.3
856.257	1056.8642	54736.55	53836.4
856.4021	1058.8421	54678.85	53775.85
856.5471	1060.8194	54652.95	53753.9
856.6921	1062.7959	54553.15	53654.65
856.8372	1064.7717	54657.75	53755.95
856.9822	1066.7469	54600.25	53699.95
857.1272	1068.7213	54569.15	53665.75
857.2723	1070.695	54516.55	53617.9
857.4173	1072.6679	54401.15	53499.85
857.5623	1074.6402	54453.65	53554.75
857.7073	1076.6117	54359.7	53454.4
857.8523	1078.5826	54343.3	53442.65
857.9973	1080.5527	54325.45	53422.2
858.1423	1082.5221	54237.45	53336.05
858.2873	1084.4908	54247.45	53345.45
858.4323	1086.4587	54180.35	53279.05
858.5773	1088.426	54140.7	53239.6
858.7223	1090.3925	54047.45	53139.2
858.8673	1092.3584	54035.75	53134.3
859.0123	1094.3235	53932.9	53033.85
859.1573	1096.2879	53921.1	53020.45
859.3022	1098.2515	53978.55	53078.1
859.4472	1100.2145	53889.35	52990.65
859.5922	1102.1767	53845.05	52943.25
859.7371	1104.1382	53853.25	52952.55
859.8821	1106.099	53805.95	52903.9
860.027	1108.0591	53768.9	52871
860.172	1110.0185	53578.35	52680.1
860.3169	1111.9771	53759.5	52859.75
860.4619	1113.9351	53650.35	52749.8
860.6068	1115.8923	53569.4	52669.15
860.7517	1117.8488	53444.6	52541.65
860.8967	1119.8045	53328.3	52426.55
861.0416	1121.7596	53357.65	52459.5
861.1865	1123.7139	53264.2	52366.55
861.3314	1125.6675	53237.5	52339.75
861.4763	1127.6204	53195.75	52294.65
861.6212	1129.5726	53029	52124.3
861.7661	1131.524	53146	52249.95
861.911	1133.4748	53109.2	52210
862.0559	1135.4248	52945.25	52045.25
862.2008	1137.3741	52899.65	51999.5
862.3457	1139.3226	52863.5	51958.65
862.4905	1141.2705	52866.25	51966.7
862.6354	1143.2176	52821.35	51912.65
862.7803	1145.164	52598.3	51695.85
862.9251	1147.1097	52732.75	51834.35
863.07	1149.0546	52670.75	51770.7
863.2148	1150.9989	52722.05	51821.5
863.3597	1152.9424	52494.55	51591.85
863.5045	1154.8852	52631.1	51732.65
863.6493	1156.8272	52458.3	51556.2
863.7942	1158.7686	52611.2	51701.4
863.939	1160.7092	52310.1	51406.4
864.0838	1162.6491	52326.75	51425.25
864.2286	1164.5883	52412.75	51510.7
864.3734	1166.5267	52225.05	51322.8
864.5182	1168.4644	52344.7	51444.1
864.663	1170.4014	52278	51371.95
864.8078	1172.3377	52369.05	51469.2
864.9526	1174.2732	52404.65	51503.45
865.0974	1176.2081	52320.25	51419.55
865.2421	1178.1421	52247.6	51342.5
865.3869	1180.0755	52410.25	51511.9
