Software Version:	3.9.2.0
Unit SN:	10000200
Spectrometer SN:	6960
Date:	3/6/2024 9:31:41 AM
Data Line Index:	25
Spectral Points:	2048
Integration time (ms):	125
Averages:	20
Delay (ms):	30
Sequence Number:	1
Processing:	dark subtract
Laser Power (mW):	305
Laser Current (mA):	824
Laser Diode Temp (C):	25.1
Laser Case Temp (C):	23.6
System Temp (C):	23.3
Spectrometer Temp (C):	20.9
CCD Temp (C):	-0.034
Secondary Temp (C):	20.001
Heatsink Temp (C):	17.752
CCDPCB Temp (C):	29.982
SecondaryPCB Temp (C):	25.18

Wavelength	RamanShift	Raw Counts	Dark Subtracted
787.061	30.1047	519.95	111.4
787.2016	32.3739	521.25	116.65
787.3422	34.6426	530.15	124.55
787.4828	36.9109	539.1	131.15
787.6235	39.1787	551.5	138.25
787.7642	41.4461	564.55	148.45
787.9049	43.7131	577.65	157.55
788.0456	45.9796	589.8	166.3
788.1863	48.2456	600.85	173.05
788.3271	50.5112	615.55	185.7
788.4679	52.7764	630.3	197.35
788.6087	55.0411	645.1	207.9
788.7496	57.3054	666.3	223.7
788.8904	59.5692	677.5	233.4
789.0313	61.8326	689.95	243.45
789.1722	64.0955	713.7	262.7
789.3132	66.3579	744.9	291.2
789.4541	68.6199	773.6	314
789.5951	70.8815	822.25	359.75
789.7361	73.1426	939.9	474.5
789.8771	75.4032	1226.95	757.1
790.0181	77.6634	1931.55	1460.85
790.1592	79.9231	3648	3171.75
790.3003	82.1824	7386.6	6905.6
790.4414	84.4412	14001.35	13511.05
790.5825	86.6995	22879.9	22378.9
790.7237	88.9574	31479.75	30971.8
790.8648	91.2148	37589.6	37075.9
791.006	93.4717	40749.4	40232.55
791.1472	95.7282	42201.75	41682.75
791.2885	97.9842	42870.65	42349.25
791.4297	100.2398	43185.85	42661.9
791.571	102.4949	43077.2	42549.35
791.7123	104.7495	43368.85	42838.5
791.8536	107.0036	43207.15	42673.85
791.9949	109.2573	43702.25	43169.5
792.1363	111.5105	43257.35	42722.05
792.2777	113.7632	43625.15	43087.85
792.4191	116.0154	43683.4	43135.6
792.5605	118.2672	44024.1	43484.65
792.7019	120.5185	43979.2	43435.2
792.8434	122.7693	44054.55	43507
792.9849	125.0197	44035.95	43482
793.1264	127.2696	44395.7	43839.55
793.2679	129.519	44626.35	44069.5
793.4094	131.7679	45017.85	44457.25
793.551	134.0163	44209.2	43647.25
793.6926	136.2642	44616	44049.15
793.8342	138.5117	45030.25	44462.6
793.9758	140.7587	45001.3	44434.15
794.1175	143.0052	45135.1	44561.9
794.2591	145.2512	44737.15	44163
794.4008	147.4967	45210.45	44635.5
794.5425	149.7417	45047.35	44467.1
794.6842	151.9863	45155.55	44572.25
794.826	154.2304	44760.85	44175.95
794.9677	156.4739	45051	44459.75
795.1095	158.717	45244.1	44649.95
795.2513	160.9596	45244.65	44647.25
795.3931	163.2017	44931.25	44336.6
795.535	165.4433	45346.15	44745.05
795.6768	167.6844	45130.6	44527.45
795.8187	169.925	45394.2	44786.45
795.9606	172.1651	45328.6	44720
796.1025	174.4047	45174.6	44563.4
796.2445	176.6439	45324.45	44711.6
796.3864	178.8825	45382.9	44764.9
796.5284	181.1206	45552.25	44929.05
796.6704	183.3582	45630.35	45003.5
796.8124	185.5954	45303.2	44675.95
796.9544	187.832	45614.5	44984.15
797.0965	190.0681	45555.25	44920.2
797.2386	192.3037	45905.3	45268.8
797.3806	194.5388	46341.15	45700.45
797.5228	196.7734	45545.8	44907.55
797.6649	199.0075	46226.75	45585.9
797.807	201.2411	46275.65	45631.6
797.9492	203.4742	46553.1	45906.5
798.0914	205.7068	46700.45	46051.1
798.2336	207.9389	46767.15	46120.55
798.3758	210.1704	46667.2	46029.5
798.518	212.4015	47067.75	46435.05
798.6603	214.632	46522.45	45896.5
798.8025	216.862	47035.6	46406.6
798.9448	219.0915	47196.45	46567.5
799.0871	221.3205	46898.15	46268.7
799.2294	223.549	47235.5	46607.45
799.3718	225.777	47334.1	46704.25
799.5141	228.0044	47345.7	46705.35
799.6565	230.2314	47504.25	46863.3
799.7989	232.4578	47456.65	46810.75
799.9413	234.6837	47434.5	46782.15
800.0837	236.909	48124.8	47470.85
800.2262	239.1339	47299.3	46622.5
800.3687	241.3582	47659.55	46995.4
800.5111	243.582	47673.85	46978.8
800.6536	245.8053	47849.35	47167.1
800.7961	248.0281	47816.2	47140.6
800.9387	250.2503	48014.35	47335.7
801.0812	252.472	47882.45	47204.25
801.2238	254.6932	47934.15	47254.5
801.3664	256.9139	47888.35	47203.8
801.509	259.134	48526.4	47842.65
801.6516	261.3536	47679.35	46997.75
801.7942	263.5727	48348.1	47663.8
801.9369	265.7912	48114.55	47430.55
802.0795	268.0092	48199.65	47513.1
802.2222	270.2267	48233.9	47545.5
802.3649	272.4436	48155.35	47466.7
802.5076	274.6601	48332.6	47634.1
802.6504	276.8759	48390	47695.8
802.7931	279.0913	48457.4	47760.2
802.9359	281.3061	48303.25	47605.6
803.0787	283.5204	48536.1	47838.4
803.2215	285.7341	48496.7	47794.1
803.3643	287.9473	48860.9	48149.9
803.5071	290.16	48548.15	47840.45
803.6499	292.3721	49099.45	48400.65
803.7928	294.5837	48314.5	47613.7
803.9357	296.7947	48275.05	47571.15
804.0786	299.0052	48604.75	47901.6
804.2215	301.2152	48394.25	47686.75
804.3644	303.4246	48764.55	48061.3
804.5074	305.6334	48671.55	47967.3
804.6503	307.8418	48320.15	47613.85
804.7933	310.0495	48509.55	47801.5
804.9363	312.2568	48376.85	47668.2
805.0793	314.4635	48287.35	47576.9
805.2223	316.6696	48299.55	47585.25
805.3653	318.8752	48506.15	47779.3
805.5084	321.0802	47847.4	47131.2
805.6514	323.2847	48073.35	47355.7
805.7945	325.4887	48092.25	47373.3
805.9376	327.692	47958.4	47239.6
806.0807	329.8949	48226.4	47504.4
806.2238	332.0972	48148.2	47424.65
806.367	334.2989	48282.2	47555
806.5101	336.5001	48457.6	47730.75
806.6533	338.7007	48137.1	47410.85
806.7965	340.9008	48369.5	47639.95
806.9397	343.1003	48276.3	47544.05
807.0829	345.2992	48397.1	47664.95
807.2261	347.4976	48192	47457.85
807.3693	349.6955	48215.1	47477.35
807.5126	351.8927	48169.6	47431.95
807.6559	354.0895	48205.8	47454.35
807.7991	356.2856	48187.8	47446.25
807.9424	358.4812	48402.75	47662.45
808.0857	360.6763	48162.3	47418.75
808.2291	362.8707	48110.25	47366.7
808.3724	365.0646	48158.35	47409.75
808.5158	367.258	48152.25	47403.45
808.6591	369.4508	48025.65	47272.45
808.8025	371.643	48132.9	47380.75
808.9459	373.8346	48040.55	47286.3
809.0893	376.0257	47930.85	47174.25
809.2327	378.2162	47888.3	47131.55
809.3762	380.4062	47830.7	47072.3
809.5196	382.5956	47809.15	47056.25
809.6631	384.7844	47812.8	47063.7
809.8066	386.9726	47710.5	46962.95
809.9501	389.1603	47785.9	47038.8
810.0936	391.3474	47534.75	46737.2
810.2371	393.5339	47746.15	46994.45
810.3806	395.7199	47363.3	46612.45
810.5241	397.9052	47382.7	46634.8
810.6677	400.09	47406.1	46654.95
810.8113	402.2743	47449.6	46697.1
810.9548	404.4579	47515	46761.05
811.0984	406.641	47453.05	46696.25
811.2421	408.8235	47581.75	46822.8
811.3857	411.0054	47573.25	46813.45
811.5293	413.1868	47630.2	46867.65
811.673	415.3675	47591.4	46824.9
811.8166	417.5477	47603.6	46837.55
811.9603	419.7273	47572.6	46804.7
812.104	421.9064	47360	46582.35
812.2477	424.0848	47293.15	46521.65
812.3914	426.2627	47250.3	46479.05
812.5351	428.4399	46980.4	46208.2
812.6788	430.6166	46913.05	46133.45
812.8226	432.7928	46871.6	46092.1
812.9663	434.9683	46678.7	45898
813.1101	437.1432	46625.15	45842.85
813.2539	439.3176	46496.55	45717.05
813.3977	441.4914	46307.15	45527.2
813.5415	443.6645	46392.85	45613.95
813.6853	445.8371	46185.95	45405.45
813.8291	448.0091	45953.7	45175.45
813.973	450.1806	45892.65	45111.55
814.1168	452.3514	45739.15	44952.8
814.2607	454.5216	45784.65	44993
814.4046	456.6913	45556.8	44770.7
814.5485	458.8603	45589.75	44806.35
814.6924	461.0288	45613.9	44830.4
814.8363	463.1967	45547.1	44763.55
814.9802	465.3639	45633.95	44847.5
815.1241	467.5306	45399.8	44612.6
815.2681	469.6967	45359.2	44573.2
815.412	471.8622	45209.75	44424.8
815.556	474.0271	45192.1	44404.7
815.7	476.1914	45176.25	44383.9
815.844	478.3551	45171.35	44383.6
815.988	480.5182	45251.35	44462.7
816.132	482.6807	45159.65	44369.9
816.276	484.8426	45276.35	44487.6
816.4201	487.0039	45377.45	44585.9
816.5641	489.1647	45416.4	44623.05
816.7082	491.3248	45449.95	44658.25
816.8522	493.4843	45378.05	44584.6
816.9963	495.6432	45379.55	44584.8
817.1404	497.8015	45189	44394.05
817.2845	499.9592	45265.9	44471.15
817.4286	502.1163	45191.3	44392.55
817.5727	504.2728	45008.95	44211.5
817.7168	506.4287	45112.6	44316.4
817.861	508.5839	44960.85	44164.55
818.0051	510.7386	44900.85	44101.35
818.1493	512.8927	44986.1	44179.85
818.2935	515.0461	44945.9	44145.15
818.4377	517.199	44901.6	44099.75
818.5818	519.3512	44915.8	44114.35
818.726	521.5029	44941.1	44132.65
818.8703	523.6539	44913.8	44109.05
819.0145	525.8043	44865.5	44061.6
819.1587	527.9541	44812.25	44008.6
819.303	530.1033	44676.15	43869.6
819.4472	532.2519	44629.35	43824.55
819.5915	534.3999	44568.75	43761.45
819.7357	536.5472	44587.85	43780.85
819.88	538.694	44552.25	43745.45
820.0243	540.8401	44583.6	43775.4
820.1686	542.9856	44592.45	43782.15
820.3129	545.1305	44455.35	43645.7
820.4572	547.2748	44507.35	43696
820.6016	549.4185	44506.55	43692.5
820.7459	551.5615	44406.75	43595.35
820.8902	553.704	44436.7	43624.85
821.0346	555.8458	44315.25	43505.3
821.1789	557.987	44322.75	43513.7
821.3233	560.1276	44306.2	43491.75
821.4677	562.2675	44360.45	43549.15
821.6121	564.4069	44294.65	43483.25
821.7565	566.5456	44255.2	43442.4
821.9009	568.6837	44226.95	43415.5
822.0453	570.8212	44006.85	43194.9
822.1897	572.958	43901.95	43085.2
822.3342	575.0942	43781.5	42966.5
822.4786	577.2299	43633.85	42820.25
822.6231	579.3648	43501.55	42685.6
822.7675	581.4992	43315.6	42502.1
822.912	583.6329	43193.25	42378.7
823.0565	585.766	43142	42329.05
823.201	587.8985	43087.7	42272.65
823.3454	590.0304	43026.1	42197.15
823.4899	592.1616	42978.05	42158.1
823.6345	594.2922	42909.9	42091.7
823.779	596.4222	42809.6	41987.25
823.9235	598.5515	42687.85	41865.05
824.068	600.6802	42525.4	41705.25
824.2126	602.8083	42330.55	41510.1
824.3571	604.9358	42339.8	41516.7
824.5017	607.0626	42257.1	41434.7
824.6462	609.1888	42204.7	41382
824.7908	611.3144	42198.8	41375.6
824.9354	613.4393	42062.45	41240.25
825.08	615.5636	42073.3	41249.1
825.2246	617.6873	42072.9	41249.45
825.3692	619.8103	42107.75	41278.8
825.5138	621.9327	42006.4	41176
825.6584	624.0544	42050.9	41222.75
825.803	626.1756	41959.75	41133.55
825.9477	628.2961	41865.5	41036.95
826.0923	630.4159	41724.25	40898.55
826.237	632.5351	41736.75	40907.35
826.3816	634.6537	41660.85	40831.3
826.5263	636.7716	41581	40751.75
826.6709	638.8889	41614.15	40782.05
826.8156	641.0056	41604.3	40774.55
826.9603	643.1216	41540.2	40708.15
827.105	645.237	41664	40830.85
827.2497	647.3518	41537.1	40704.1
827.3944	649.4659	41534.7	40702.6
827.5391	651.5793	41394.1	40561.8
827.6838	653.6922	41273.95	40444.2
827.8285	655.8043	41281.75	40450.35
827.9733	657.9159	41246.4	40411.8
828.118	660.0268	41088.15	40254
828.2627	662.137	41025.85	40192.95
828.4075	664.2466	40998.55	40163.2
828.5522	666.3556	40956	40122.95
828.697	668.4639	40841.3	40003.45
828.8418	670.5716	40883.4	40049.3
828.9865	672.6786	40842.2	40005.75
829.1313	674.785	40667.15	39825.75
829.2761	676.8907	40535.05	39696.5
829.4209	678.9958	40556	39719.35
829.5657	681.1002	40488.3	39649.9
829.7105	683.204	40366.4	39522.7
829.8553	685.3072	40328.95	39486.55
830.0001	687.4097	40318.1	39478.45
830.1449	689.5115	40270.9	39429.2
830.2898	691.6127	40291.55	39452.1
830.4346	693.7132	40129.05	39290.35
830.5794	695.8131	40131	39274.35
830.7243	697.9123	40191.45	39350.25
830.8691	700.0109	40090.7	39250.95
831.014	702.1089	40047.6	39205.55
831.1588	704.2061	39954.6	39113.8
831.3037	706.3028	39954.7	39111.55
831.4486	708.3987	39928.5	39089.4
831.5935	710.4941	39868.25	39023.85
831.7383	712.5887	39895.25	39050.45
831.8832	714.6827	39828.75	38982.05
832.0281	716.7761	39705.4	38862.15
832.173	718.8688	39695.4	38850.7
832.3179	720.9608	39624.8	38778.3
832.4628	723.0522	39680.75	38832.35
832.6077	725.1429	39557.6	38711.85
832.7527	727.233	39522.6	38675.35
832.8976	729.3224	39579.3	38734.55
833.0425	731.4112	39469	38622.15
833.1874	733.4993	39400	38550.85
833.3324	735.5867	39327.8	38480.9
833.4773	737.6735	39257.1	38407.75
833.6222	739.7596	39135.95	38287.2
833.7672	741.845	39033.4	38185.25
833.9122	743.9298	38911.1	38059.9
834.0571	746.014	38871.8	38022.75
834.2021	748.0974	38817.2	37967.9
834.347	750.1802	38696.6	37848
834.492	752.2624	38607.1	37757.8
834.637	754.3439	38411	37560.1
834.782	756.4247	38317.35	37454.05
834.9269	758.5048	38251.9	37401.55
835.0719	760.5843	38116.45	37262.45
835.2169	762.6631	38025.55	37172.2
835.3619	764.7413	37982.35	37131
835.5069	766.8188	37998.9	37148.45
835.6519	768.8956	37925.65	37070.45
835.7969	770.9718	37978.05	37126.45
835.9419	773.0473	37807.15	36957.1
836.0869	775.1221	37819.05	36968.2
836.232	777.1962	37577.25	36727.35
836.377	779.2697	37597.5	36742.3
836.522	781.3426	37572.5	36701.45
836.667	783.4147	37502.5	36646.25
836.8121	785.4862	37496.8	36644.6
836.9571	787.557	37312.85	36460.2
837.1021	789.6271	37207.95	36354.4
837.2472	791.6966	37034.95	36179.4
837.3922	793.7654	36884.75	36030.95
837.5373	795.8335	36827.65	35975.95
837.6823	797.901	36688.95	35834.4
837.8274	799.9678	36680.75	35823.3
837.9724	802.0339	36597.55	35741.8
838.1175	804.0993	36630.55	35767.65
838.2626	806.1641	36452.1	35595.35
838.4076	808.2282	36354.5	35501.35
838.5527	810.2916	36366.45	35505.65
838.6978	812.3544	36338.45	35484.55
838.8428	814.4164	36187.55	35334.15
838.9879	816.4778	36225.95	35368.95
839.133	818.5385	36125.8	35268.5
839.2781	820.5986	36143.65	35287.95
839.4232	822.658	36135.3	35274.35
839.5682	824.7166	36006.2	35151.25
839.7133	826.7747	36146.5	35290.55
839.8584	828.832	36090.4	35236.1
840.0035	830.8886	35954.25	35094.25
840.1486	832.9446	35940.45	35080.1
840.2937	834.9999	35869.95	35011.25
840.4388	837.0545	35714.1	34849.1
840.5839	839.1085	35674.05	34814.2
840.729	841.1618	35546.95	34684.85
840.8741	843.2143	35465.25	34605.95
841.0192	845.2662	35310.5	34451.15
841.1643	847.3175	35292.75	34433.45
841.3095	849.368	35195.45	34336.75
841.4546	851.4179	35131.55	34273.7
841.5997	853.467	34992.4	34131.4
841.7448	855.5155	34961.45	34100.65
841.8899	857.5633	34917.2	34056.7
842.0351	859.6105	34835.25	33974.75
842.1802	861.6569	34775.15	33914.6
842.3253	863.7027	34737.6	33876
842.4704	865.7478	34642.95	33780.25
842.6156	867.7922	34643.75	33783.55
842.7607	869.8359	34501.8	33640.45
842.9058	871.8789	34499.2	33638.35
843.0509	873.9212	34436.2	33541.15
843.1961	875.9629	34266.1	33405.6
843.3412	878.0039	34317.65	33454.5
843.4863	880.0441	34271.35	33410.3
843.6315	882.0837	34284.55	33423.4
843.7766	884.1226	34252.2	33386.3
843.9218	886.1609	34240.25	33379.75
844.0669	888.1984	34281.7	33419.7
844.212	890.2352	34310.3	33447.8
844.3572	892.2714	34221.7	33353.15
844.5023	894.3069	34192	33327
844.6475	896.3416	33986.6	33123.2
844.7926	898.3757	33983.9	33119.15
844.9377	900.4091	33853.65	32989.9
845.0829	902.4418	33792.1	32921.45
845.228	904.4739	33648.4	32781.25
845.3732	906.5052	33694.6	32829.6
845.5183	908.5358	33629.25	32765.55
845.6635	910.5658	33550.55	32685.55
845.8086	912.595	33485.75	32620.1
845.9538	914.6236	33333.7	32470
846.0989	916.6515	33325.15	32462.95
846.2441	918.6786	33215.05	32347.1
846.3892	920.7051	33158.8	32291.3
846.5344	922.7309	33181.35	32315.55
846.6795	924.756	33016.7	32149.85
846.8246	926.7804	33023.65	32153.55
846.9698	928.8041	32786.45	31916.85
847.1149	930.8272	32776.1	31910.9
847.2601	932.8495	32675.95	31809.4
847.4052	934.8711	32671.05	31803.75
847.5504	936.892	32501.3	31635
847.6955	938.9123	32407.6	31537.7
847.8407	940.9318	32382.85	31513.85
847.9858	942.9506	32276.2	31407.75
848.131	944.9688	32137.25	31271.9
848.2761	946.9862	32042.15	31174.3
848.4213	949.003	31855.55	30987.3
848.5664	951.019	31811.25	30943.65
848.7115	953.0344	31709.55	30840.7
848.8567	955.0491	31667.75	30799.3
849.0018	957.063	31670.9	30800.4
849.147	959.0763	31695.35	30826.6
849.2921	961.0888	31562.7	30693.9
849.4373	963.1007	31533.85	30663
849.5824	965.1119	31488.95	30619.65
849.7275	967.1223	31410.95	30544.3
849.8727	969.1321	31385.5	30518.8
850.0178	971.1412	31308.35	30439.3
850.1629	973.1495	31186.15	30318
850.3081	975.1572	31221.2	30305.05
850.4532	977.1641	31147.6	30276.5
850.5983	979.1704	31009.5	30137.75
850.7435	981.1759	30956.7	30084.2
850.8886	983.1808	30932.5	30060.25
851.0337	985.1849	30824.7	29948.7
851.1788	987.1884	30722.2	29848.9
851.324	989.1911	30652.75	29780.05
851.4691	991.1932	30621.9	29751.85
851.6142	993.1945	30499.65	29629.2
851.7593	995.1951	30355.8	29486.25
851.9045	997.1951	30350	29469.75
852.0496	999.1943	30210.85	29338.15
852.1947	1001.1928	30082.95	29210.75
852.3398	1003.1906	29901	29030.05
852.4849	1005.1877	29942.25	29068.5
852.63	1007.1841	29845.6	28972.5
852.7751	1009.1798	29701.65	28830
852.9202	1011.1748	29587.6	28717.45
853.0653	1013.1691	29517.5	28647.15
853.2104	1015.1627	29386.3	28513
853.3555	1017.1556	29142.8	28272.3
853.5006	1019.1477	29129.45	28256.5
853.6457	1021.1392	28950.35	28078.5
853.7908	1023.1299	28842.2	27970.65
853.9359	1025.12	28696.25	27823.5
854.081	1027.1093	28582.65	27712.85
854.2261	1029.0979	28532.1	27664.65
854.3712	1031.0859	28412.05	27542.25
854.5163	1033.0731	28375.55	27504.85
854.6613	1035.0596	28280.65	27411.4
854.8064	1037.0454	28140.85	27268.25
854.9515	1039.0304	28093.65	27222.05
855.0965	1041.0148	27936.05	27062.25
855.2416	1042.9985	27826.95	26951.4
855.3867	1044.9814	27827.95	26955
855.5317	1046.9636	27666.7	26791.3
855.6768	1048.9452	27571.65	26701.6
855.8219	1050.926	27548.15	26675.05
855.9669	1052.9061	27493.75	26619.05
856.112	1054.8855	27415.85	26543.75
856.257	1056.8642	27401.95	26527.65
856.4021	1058.8421	27377.2	26498.4
856.5471	1060.8194	27204.95	26332.7
856.6921	1062.7959	27154	26280.35
856.8372	1064.7717	27104.95	26230
856.9822	1066.7469	27060.15	26184.15
857.1272	1068.7213	27016.1	26138.45
857.2723	1070.695	26961.15	26088.65
857.4173	1072.6679	26835	25961.35
857.5623	1074.6402	26836.05	25961.95
857.7073	1076.6117	26830.05	25950.4
857.8523	1078.5826	26757.15	25881.3
857.9973	1080.5527	26662.45	25784.45
858.1423	1082.5221	26536.1	25660.45
858.2873	1084.4908	26488.7	25612.85
858.4323	1086.4587	26439.15	25564.7
858.5773	1088.426	26356.7	25482
858.7223	1090.3925	26283.6	25406.2
858.8673	1092.3584	26269.3	25393.4
859.0123	1094.3235	26139.6	25264.65
859.1573	1096.2879	26060.9	25185.45
859.3022	1098.2515	26005.3	25129.9
859.4472	1100.2145	26029.2	25155.05
859.5922	1102.1767	25934.15	25055.5
859.7371	1104.1382	25927.6	25050.4
859.8821	1106.099	25872.75	24996.65
860.027	1108.0591	25843.7	24968.75
860.172	1110.0185	25826.35	24949.75
860.3169	1111.9771	25805.75	24932.9
860.4619	1113.9351	25742.85	24866.85
860.6068	1115.8923	25702.35	24825.3
860.7517	1117.8488	25633.85	24755.25
860.8967	1119.8045	25569.65	24692.05
861.0416	1121.7596	25461.15	24583.55
861.1865	1123.7139	25264.75	24387.7
861.3314	1125.6675	25208.7	24329.7
861.4763	1127.6204	25210.35	24334.65
861.6212	1129.5726	25149.25	24270.75
861.7661	1131.524	25102.85	24227.5
861.911	1133.4748	25072.7	24197.15
862.0559	1135.4248	24922.2	24045.55
862.2008	1137.3741	24810.65	23932.5
862.3457	1139.3226	24741.7	23863.7
862.4905	1141.2705	24723.85	23845.8
862.6354	1143.2176	24588.45	23704.65
862.7803	1145.164	24569.25	23691.95
862.9251	1147.1097	24549.95	23671.75
863.07	1149.0546	24483.25	23604.45
863.2148	1150.9989	24432.8	23556.6
863.3597	1152.9424	24437.35	23559.7
863.5045	1154.8852	24341.25	23464.8
863.6493	1156.8272	24327.5	23451.35
863.7942	1158.7686	24336.5	23452.15
863.939	1160.7092	24188.8	23308.15
864.0838	1162.6491	24097.85	23216.85
864.2286	1164.5883	24046.95	23168.95
864.3734	1166.5267	24060.6	23180.3
864.5182	1168.4644	24095	23217.1
864.663	1170.4014	24017.2	23134.05
864.8078	1172.3377	24090.55	23213.7
864.9526	1174.2732	24025.25	23147.85
865.0974	1176.2081	24090.7	23212.85
865.2421	1178.1421	24176.2	23294.4
865.3869	1180.0755	24134.75	23254.95
