Software Version:	3.9.2.0
Unit SN:	10000200
Spectrometer SN:	6960
Date:	3/6/2024 10:03:54 AM
Data Line Index:	25
Spectral Points:	2048
Integration time (ms):	125
Averages:	20
Delay (ms):	30
Sequence Number:	1
Processing:	dark subtract
Laser Power (mW):	305
Laser Current (mA):	827
Laser Diode Temp (C):	25
Laser Case Temp (C):	24.7
System Temp (C):	24.6
Spectrometer Temp (C):	22.1
CCD Temp (C):	0.002
Secondary Temp (C):	20.013
Heatsink Temp (C):	18.576
CCDPCB Temp (C):	31.494
SecondaryPCB Temp (C):	26.492

Wavelength	RamanShift	Raw Counts	Dark Subtracted
787.061	30.1047	601.6	194.5
787.2016	32.3739	607.25	201
787.3422	34.6426	620.4	214.8
787.4828	36.9109	631.6	222.05
787.6235	39.1787	652.5	239.85
787.7642	41.4461	668.75	250.9
787.9049	43.7131	692.9	272.4
788.0456	45.9796	712.5	289.6
788.1863	48.2456	731.4	304.45
788.3271	50.5112	750.1	318.8
788.4679	52.7764	771.25	337.65
788.6087	55.0411	794.55	354.55
788.7496	57.3054	819.65	376.1
788.8904	59.5692	844.85	400.15
789.0313	61.8326	872.85	422.9
789.1722	64.0955	903.75	454.8
789.3132	66.3579	940.65	487.25
789.4541	68.6199	992.2	533.1
789.5951	70.8815	1080.05	618.5
789.7361	73.1426	1245.4	777
789.8771	75.4032	1694.7	1224.05
790.0181	77.6634	2830.1	2356.2
790.1592	79.9231	5584.15	5104.85
790.3003	82.1824	12109.8	11621
790.4414	84.4412	26290	25785.7
790.5825	86.6995	38844.45	38324.55
790.7237	88.9574	46111.5	45572.95
790.8648	91.2148	50720.15	50170
791.006	93.4717	52467.3	51911.05
791.1472	95.7282	53241.9	52681.3
791.2885	97.9842	53639.9	53076.85
791.4297	100.2398	53718.65	53153.7
791.571	102.4949	53687.55	53120.1
791.7123	104.7495	53751.1	53180.85
791.8536	107.0036	53552.55	52980.6
791.9949	109.2573	53786.9	53213.4
792.1363	111.5105	53589.85	53017.7
792.2777	113.7632	53694.2	53116.6
792.4191	116.0154	53790.25	53203.25
792.5605	118.2672	53993.35	53410.65
792.7019	120.5185	54001.45	53421.15
792.8434	122.7693	54068.2	53479.65
792.9849	125.0197	53878.35	53288.1
793.1264	127.2696	54304.4	53707.65
793.2679	129.519	54282.35	53684.4
793.4094	131.7679	54491	53891.9
793.551	134.0163	54029.45	53427.05
793.6926	136.2642	54243.5	53634.25
793.8342	138.5117	54562.2	53953.25
793.9758	140.7587	54448.9	53839.35
794.1175	143.0052	54472.05	53856.95
794.2591	145.2512	54211.65	53597.65
794.4008	147.4967	54553.85	53936.3
794.5425	149.7417	54446	53827.15
794.6842	151.9863	54434.55	53810.9
794.826	154.2304	54259.75	53631.6
794.9677	156.4739	54385.55	53750.7
795.1095	158.717	54593.65	53960.1
795.2513	160.9596	54458.45	53823.7
795.3931	163.2017	54223.2	53585.15
795.535	165.4433	54480.45	53839.4
795.6768	167.6844	54328.35	53685.4
795.8187	169.925	54488.15	53843.25
795.9606	172.1651	54339.1	53688.1
796.1025	174.4047	54392.8	53740.1
796.2445	176.6439	54373.7	53722.05
796.3864	178.8825	54349.95	53690.9
796.5284	181.1206	54577.65	53917.8
796.6704	183.3582	54551.55	53886.85
796.8124	185.5954	54424.35	53757.65
796.9544	187.832	54484.8	53812.35
797.0965	190.0681	54355.2	53682.6
797.2386	192.3037	54621.9	53942.9
797.3806	194.5388	54943.2	54262.65
797.5228	196.7734	54289.4	53611.8
797.6649	199.0075	54939.65	54255.7
797.807	201.2411	54755.25	54070.9
797.9492	203.4742	55113	54426.6
798.0914	205.7068	55061.85	54368.9
798.2336	207.9389	55077.1	54384.85
798.3758	210.1704	55068.5	54382.35
798.518	212.4015	55295.75	54621.3
798.6603	214.632	55013.85	54347
798.8025	216.862	55373.55	54703.4
798.9448	219.0915	55184.65	54511.65
799.0871	221.3205	55145.7	54471
799.2294	223.549	55475.25	54810.4
799.3718	225.777	55433.2	54761.75
799.5141	228.0044	55630.1	54952.45
799.6565	230.2314	55534.35	54854.8
799.7989	232.4578	55546.05	54861.55
799.9413	234.6837	55647.95	54957.7
800.0837	236.909	56117.1	55423.25
800.2262	239.1339	55444.65	54726.2
800.3687	241.3582	55777.75	55074.3
800.5111	243.582	55797.55	55064.7
800.6536	245.8053	55782.65	55062.1
800.7961	248.0281	55828.7	55111.95
800.9387	250.2503	55921.4	55202.2
801.0812	252.472	55721	54996.65
801.2238	254.6932	55909.25	55192.6
801.3664	256.9139	55794.9	55070.9
801.509	259.134	56192.85	55464.55
801.6516	261.3536	55747.95	55024.85
801.7942	263.5727	56026.75	55299.95
801.9369	265.7912	55877.35	55152.85
802.0795	268.0092	55957.35	55231.2
802.2222	270.2267	55962.75	55236.45
802.3649	272.4436	55805.15	55075.7
802.5076	274.6601	55987.05	55247.4
802.6504	276.8759	56105.35	55370.7
802.7931	279.0913	55988.9	55253.15
802.9359	281.3061	56104.75	55366.05
803.0787	283.5204	56133.65	55389.65
803.2215	285.7341	56089.05	55345.35
803.3643	287.9473	56311.6	55559.55
803.5071	290.16	56138	55392.75
803.6499	292.3721	56235.5	55496.9
803.7928	294.5837	56053.4	55309.8
803.9357	296.7947	55916.7	55173.6
804.0786	299.0052	56257.65	55513.85
804.2215	301.2152	56099	55352.5
804.3644	303.4246	56222.85	55477.6
804.5074	305.6334	56250.75	55506.25
804.6503	307.8418	56032	55284.4
804.7933	310.0495	56002.3	55251.85
804.9363	312.2568	56001.55	55253.2
805.0793	314.4635	55980.25	55228.15
805.2223	316.6696	56080.7	55327.5
805.3653	318.8752	56146.35	55384.25
805.5084	321.0802	55724.9	54972.2
805.6514	323.2847	55966.9	55206.55
805.7945	325.4887	55874.6	55117.7
805.9376	327.692	55817.9	55058
806.0807	329.8949	55962	55203.5
806.2238	332.0972	55838.6	55074.55
806.367	334.2989	55930.9	55165.5
806.5101	336.5001	56043.1	55274.25
806.6533	338.7007	55687.5	54919.65
806.7965	340.9008	55935.4	55168
806.9397	343.1003	55947.35	55177.05
807.0829	345.2992	56054.35	55286
807.2261	347.4976	55891	55118.95
807.3693	349.6955	55949.55	55175.45
807.5126	351.8927	55898.55	55122.55
807.6559	354.0895	55992.7	55202.35
807.7991	356.2856	55974.55	55192.05
807.9424	358.4812	56077.55	55296.4
808.0857	360.6763	55826.55	55042.35
808.2291	362.8707	56126.05	55342.15
808.3724	365.0646	55963.25	55175.45
808.5158	367.258	55931.95	55142.7
808.6591	369.4508	55739.7	54948.3
808.8025	371.643	56009.25	55217.05
808.9459	373.8346	55846.1	55052.4
809.0893	376.0257	55854.35	55058.3
809.2327	378.2162	55770.05	54974.85
809.3762	380.4062	55639.6	54844.1
809.5196	382.5956	55779.85	54986.3
809.6631	384.7844	55787.8	55001.1
809.8066	386.9726	55832.2	55042.4
809.9501	389.1603	55778.95	54993.9
810.0936	391.3474	55659.7	54832.35
810.2371	393.5339	55773.45	54983.4
810.3806	395.7199	55489.25	54705.65
810.5241	397.9052	55573.4	54784.65
810.6677	400.09	55586.85	54795.9
810.8113	402.2743	55728.1	54940.1
810.9548	404.4579	55534.65	54742.7
811.0984	406.641	55566.05	54773.4
811.2421	408.8235	55644.9	54850.4
811.3857	411.0054	55732.15	54937.85
811.5293	413.1868	55781.9	54983.2
811.673	415.3675	55683.6	54880.85
811.8166	417.5477	55683.6	54878.4
811.9603	419.7273	55679.65	54872.65
812.104	421.9064	55570	54756.1
812.2477	424.0848	55579.15	54771.35
812.3914	426.2627	55682.35	54872.3
812.5351	428.4399	55476.05	54665.95
812.6788	430.6166	55228.4	54413.95
812.8226	432.7928	55452	54637.85
812.9663	434.9683	55274.05	54462.1
813.1101	437.1432	55240.5	54423.55
813.2539	439.3176	55390.3	54577.4
813.3977	441.4914	55034	54223.85
813.5415	443.6645	55114.75	54303.35
813.6853	445.8371	55069.25	54255.85
813.8291	448.0091	54879.25	54066.05
813.973	450.1806	54782.45	53969.15
814.1168	452.3514	54769.3	53953.4
814.2607	454.5216	54619.35	53794.15
814.4046	456.6913	54723.3	53906.75
814.5485	458.8603	54812.6	53998.65
814.6924	461.0288	54616.65	53801.15
814.8363	463.1967	54779.45	53965.15
814.9802	465.3639	54741.2	53922.1
815.1241	467.5306	54383.2	53565.75
815.2681	469.6967	54565	53745.85
815.412	471.8622	54640.35	53822.9
815.556	474.0271	54541.4	53721.05
815.7	476.1914	54525.55	53701.4
815.844	478.3551	54523.6	53703.25
815.988	480.5182	54758.4	53936.5
816.132	482.6807	54490.5	53669.35
816.276	484.8426	54492.05	53675.95
816.4201	487.0039	54784.9	53965.7
816.5641	489.1647	54807.8	53985.8
816.7082	491.3248	54547	53722.75
816.8522	493.4843	54820.6	53996.3
816.9963	495.6432	54844.85	54024.3
817.1404	497.8015	54516.15	53682.85
817.2845	499.9592	54653.55	53826.5
817.4286	502.1163	54643.1	53813.5
817.5727	504.2728	54560.4	53729.9
817.7168	506.4287	54587.7	53765.3
817.861	508.5839	54414.05	53585.2
818.0051	510.7386	54486.85	53660
818.1493	512.8927	54543.05	53711.6
818.2935	515.0461	54517.5	53684.65
818.4377	517.199	54650.65	53817.75
818.5818	519.3512	54462.95	53628.5
818.726	521.5029	54463.75	53625.25
818.8703	523.6539	54500.15	53664.1
819.0145	525.8043	54263.55	53428.6
819.1587	527.9541	54413.05	53577.35
819.303	530.1033	54364	53525.55
819.4472	532.2519	54267.35	53430.6
819.5915	534.3999	54434.55	53595.95
819.7357	536.5472	54498.4	53661.45
819.88	538.694	54205.6	53367.55
820.0243	540.8401	54405.55	53566.7
820.1686	542.9856	54367.05	53524.6
820.3129	545.1305	54460.5	53617.75
820.4572	547.2748	54325.9	53481.9
820.6016	549.4185	54308.25	53463.75
820.7459	551.5615	54432.65	53588.5
820.8902	553.704	54398.4	53552.2
821.0346	555.8458	54226.2	53383.45
821.1789	557.987	54255.25	53414.8
821.3233	560.1276	54342	53501.95
821.4677	562.2675	54239.7	53394.1
821.6121	564.4069	54247.9	53402.95
821.7565	566.5456	54348.95	53504.2
821.9009	568.6837	54130.75	53286.55
822.0453	570.8212	54176.3	53330.9
822.1897	572.958	53918	53068.95
822.3342	575.0942	54119.6	53273.8
822.4786	577.2299	53877.4	53032.9
822.6231	579.3648	53794.45	52954.5
822.7675	581.4992	53699.7	52862.45
822.912	583.6329	53664.7	52825.1
823.0565	585.766	53615.65	52778.25
823.201	587.8985	53690.3	52849.25
823.3454	590.0304	53395.65	52526.1
823.4899	592.1616	53539.25	52686.55
823.6345	594.2922	53419.3	52568.5
823.779	596.4222	53300.55	52448.4
823.9235	598.5515	53335.15	52482.8
824.068	600.6802	53366.25	52515.25
824.2126	602.8083	53159.8	52308.65
824.3571	604.9358	53137.65	52285.95
824.5017	607.0626	53228.45	52377
824.6462	609.1888	53009.9	52153
824.7908	611.3144	53141.35	52280.25
824.9354	613.4393	53005.3	52151.55
825.08	615.5636	52884.2	52026.6
825.2246	617.6873	52980.15	52122.35
825.3692	619.8103	52882.6	52025.7
825.5138	621.9327	52957.6	52099.7
825.6584	624.0544	52999.25	52144.5
825.803	626.1756	52900.4	52045.5
825.9477	628.2961	52854.75	51998.75
826.0923	630.4159	52766.95	51910.9
826.237	632.5351	52722.8	51862.9
826.3816	634.6537	52944.35	52085.3
826.5263	636.7716	52693.75	51829.95
826.6709	638.8889	52754.5	51890.6
826.8156	641.0056	52748.6	51888.55
826.9603	643.1216	52720.85	51856.7
827.105	645.237	52831.1	51966.6
827.2497	647.3518	52604.9	51744.9
827.3944	649.4659	52669.15	51811.5
827.5391	651.5793	52620.45	51761.45
827.6838	653.6922	52628.25	51769.1
827.8285	655.8043	52500.85	51638.5
827.9733	657.9159	52696.65	51833.75
828.118	660.0268	52333.4	51469.5
828.2627	662.137	52440.1	51579.75
828.4075	664.2466	52461.55	51593.85
828.5522	666.3556	52402.1	51535.35
828.697	668.4639	52392	51526
828.8418	670.5716	52372.75	51512.45
828.9865	672.6786	52432.65	51565.05
829.1313	674.785	52240.5	51373.65
829.2761	676.8907	52190.9	51324.95
829.4209	678.9958	52212.75	51349.6
829.5657	681.1002	52221.35	51356.2
829.7105	683.204	52080.95	51209.35
829.8553	685.3072	52029.3	51158.1
830.0001	687.4097	52017.55	51148.8
830.1449	689.5115	51978.1	51111.3
830.2898	691.6127	52036.2	51171.65
830.4346	693.7132	51942.9	51072.8
830.5794	695.8131	51995.65	51109.8
830.7243	697.9123	51999.85	51128.2
830.8691	700.0109	51933.55	51061.7
831.014	702.1089	51771.2	50901.75
831.1588	704.2061	51832.1	50961.6
831.3037	706.3028	51857.8	50984
831.4486	708.3987	51822.55	50949.65
831.5935	710.4941	51754.85	50885.8
831.7383	712.5887	51820.75	50951
831.8832	714.6827	51727.85	50852.5
832.0281	716.7761	51784.1	50913.6
832.173	718.8688	51778.55	50905.6
832.3179	720.9608	51618	50741.1
832.4628	723.0522	51707.45	50827.75
832.6077	725.1429	51554.7	50679.8
832.7527	727.233	51745.8	50868.7
832.8976	729.3224	51468.5	50593.65
833.0425	731.4112	51469.1	50592.15
833.1874	733.4993	51413.05	50539.8
833.3324	735.5867	51419.95	50544.55
833.4773	737.6735	51345.65	50472.15
833.6222	739.7596	51275.9	50399.55
833.7672	741.845	51247.35	50372.75
833.9122	743.9298	51241.4	50361.95
834.0571	746.014	51113.05	50233.2
834.2021	748.0974	51091.55	50208.7
834.347	750.1802	51086.8	50208.6
834.492	752.2624	50920.35	50040.85
834.637	754.3439	50875.4	49996.95
834.782	756.4247	50842.05	49951.05
834.9269	758.5048	50759.4	49881.15
835.0719	760.5843	50731.6	49849.1
835.2169	762.6631	50711.45	49831.35
835.3619	764.7413	50635.3	49756.95
835.5069	766.8188	50658.4	49775.95
835.6519	768.8956	50574.3	49691.45
835.7969	770.9718	50660	49776.65
835.9419	773.0473	50562.35	49683.7
836.0869	775.1221	50482.3	49603.6
836.232	777.1962	50427.75	49546.5
836.377	779.2697	50308.55	49427.3
836.522	781.3426	50266.8	49364.25
836.667	783.4147	50238.9	49357
836.8121	785.4862	50217.8	49336.5
836.9571	787.557	50127.55	49246.4
837.1021	789.6271	50075.75	49193.6
837.2472	791.6966	50033.65	49149
837.3922	793.7654	49898.9	49017.55
837.5373	795.8335	49902.4	49023.05
837.6823	797.901	49838.9	48955.15
837.8274	799.9678	49790.5	48907.15
837.9724	802.0339	49694.3	48808.25
838.1175	804.0993	49711.2	48817.45
838.2626	806.1641	49591.1	48707
838.4076	808.2282	49531.65	48647.35
838.5527	810.2916	49525.6	48639.95
838.6978	812.3544	49548.05	48665.55
838.8428	814.4164	49390.65	48508.1
838.9879	816.4778	49454.75	48570.8
839.133	818.5385	49359.5	48473.9
839.2781	820.5986	49344.05	48458.9
839.4232	822.658	49366.8	48478.15
839.5682	824.7166	49267.1	48382.15
839.7133	826.7747	49280.65	48395.45
839.8584	828.832	49247.55	48360.7
840.0035	830.8886	49179.2	48291.2
840.1486	832.9446	49200.55	48312.65
840.2937	834.9999	48986.4	48098.8
840.4388	837.0545	49040.45	48149.75
840.5839	839.1085	49052.45	48164.3
840.729	841.1618	48952.55	48062.8
840.8741	843.2143	48802.45	47915.85
841.0192	845.2662	48724.45	47834.4
841.1643	847.3175	48730.75	47843.95
841.3095	849.368	48622.35	47732.75
841.4546	851.4179	48641.8	47753.4
841.5997	853.467	48480.65	47592.25
841.7448	855.5155	48523.05	47634.3
841.8899	857.5633	48391.1	47504.2
842.0351	859.6105	48263.4	47375.5
842.1802	861.6569	48267.2	47378.45
842.3253	863.7027	48200.45	47311.5
842.4704	865.7478	48241.95	47352.2
842.6156	867.7922	48198.05	47309.45
842.7607	869.8359	48203.4	47310.85
842.9058	871.8789	48115.65	47224.75
843.0509	873.9212	48105.5	47186.05
843.1961	875.9629	48006.35	47116.05
843.3412	878.0039	48077.65	47187.5
843.4863	880.0441	47976.6	47084.8
843.6315	882.0837	47973.9	47083.1
843.7766	884.1226	47937.7	47043.6
843.9218	886.1609	47962.1	47071.7
844.0669	888.1984	47916.65	47025.1
844.212	890.2352	47954.45	47064.7
844.3572	892.2714	47830.9	46934.2
844.5023	894.3069	47857.75	46965.5
844.6475	896.3416	47730.3	46838.8
844.7926	898.3757	47692.15	46801.1
844.9377	900.4091	47607.3	46717.55
845.0829	902.4418	47651.15	46755.5
845.228	904.4739	47508.45	46614.5
845.3732	906.5052	47540.4	46647.7
845.5183	908.5358	47472.9	46581.45
845.6635	910.5658	47385.4	46491
845.8086	912.595	47354.25	46462.5
845.9538	914.6236	47200.8	46310.7
846.0989	916.6515	47282.4	46391.15
846.2441	918.6786	47127.85	46233.4
846.3892	920.7051	47133.5	46236.95
846.5344	922.7309	47110.5	46214.6
846.6795	924.756	47019.2	46126.45
846.8246	926.7804	47004.85	46109.6
846.9698	928.8041	46775.5	45879.95
847.1149	930.8272	46846.85	45948.75
847.2601	932.8495	46711.95	45816.35
847.4052	934.8711	46656.45	45759.9
847.5504	936.892	46535.7	45640.65
847.6955	938.9123	46482.1	45586.25
847.8407	940.9318	46419.5	45524.3
847.9858	942.9506	46354.6	45458.6
848.131	944.9688	46299.6	45404.35
848.2761	946.9862	46152.65	45256.6
848.4213	949.003	46070.55	45177.55
848.5664	951.019	45918.35	45021.8
848.7115	953.0344	45856.95	44962.55
848.8567	955.0491	45855.25	44961.3
849.0018	957.063	45846.7	44951.5
849.147	959.0763	45904.25	45010.1
849.2921	961.0888	45735.7	44837.85
849.4373	963.1007	45757.5	44863.9
849.5824	965.1119	45726.75	44837.75
849.7275	967.1223	45617.55	44726.2
849.8727	969.1321	45671.9	44781.25
850.0178	971.1412	45572.45	44678.9
850.1629	973.1495	45461.2	44567.2
850.3081	975.1572	45449.6	44515.1
850.4532	977.1641	45397.25	44499.35
850.5983	979.1704	45337.95	44441
850.7435	981.1759	45275.6	44375.1
850.8886	983.1808	45219.5	44321.4
851.0337	985.1849	45129.7	44223.7
851.1788	987.1884	45112.25	44213.85
851.324	989.1911	45111.1	44212.05
851.4691	991.1932	44956.05	44059.3
851.6142	993.1945	44905.75	44009.35
851.7593	995.1951	44809.95	43915.55
851.9045	997.1951	44758.65	43855.05
852.0496	999.1943	44622.75	43727.75
852.1947	1001.1928	44563.55	43665.15
852.3398	1003.1906	44463.65	43566.4
852.4849	1005.1877	44360.1	43461.4
852.63	1007.1841	44247.65	43347.45
852.7751	1009.1798	44158.15	43261.7
852.9202	1011.1748	44138.25	43244.7
853.0653	1013.1691	44080.2	43184.35
853.2104	1015.1627	43916.3	43019.45
853.3555	1017.1556	43765.4	42868.85
853.5006	1019.1477	43740.45	42840.25
853.6457	1021.1392	43518.7	42625.9
853.7908	1023.1299	43453.25	42559.7
853.9359	1025.12	43398.5	42506.05
854.081	1027.1093	43244.3	42356.05
854.2261	1029.0979	43235.35	42348.05
854.3712	1031.0859	43177.2	42290
854.5163	1033.0731	43049.45	42156.15
854.6613	1035.0596	42984.85	42090
854.8064	1037.0454	42855.55	41957.1
854.9515	1039.0304	42809.3	41911.2
855.0965	1041.0148	42675	41778.9
855.2416	1042.9985	42585.75	41689.55
855.3867	1044.9814	42603.1	41707.5
855.5317	1046.9636	42457.85	41557
855.6768	1048.9452	42367.75	41471.8
855.8219	1050.926	42359.25	41466.2
855.9669	1052.9061	42289.45	41391.65
856.112	1054.8855	42241.5	41342.8
856.257	1056.8642	42170.85	41275.75
856.4021	1058.8421	42092.35	41191.15
856.5471	1060.8194	42061.6	41163.45
856.6921	1062.7959	41972.25	41073.55
856.8372	1064.7717	41989.55	41090.75
856.9822	1066.7469	41958.5	41060.4
857.1272	1068.7213	41916.1	41013.9
857.2723	1070.695	41834.1	40936.35
857.4173	1072.6679	41736.6	40840.6
857.5623	1074.6402	41745.1	40849.1
857.7073	1076.6117	41645.75	40742.75
857.8523	1078.5826	41604.35	40705.35
857.9973	1080.5527	41541.3	40641.8
858.1423	1082.5221	41420.15	40522.45
858.2873	1084.4908	41404.6	40505.55
858.4323	1086.4587	41321.15	40421.4
858.5773	1088.426	41326.2	40427.35
858.7223	1090.3925	41177.85	40274.35
858.8673	1092.3584	41171	40274.15
859.0123	1094.3235	41031.25	40135.35
859.1573	1096.2879	40987.9	40090.9
859.3022	1098.2515	40955.3	40055.35
859.4472	1100.2145	40914.45	40017.9
859.5922	1102.1767	40835.9	39936.1
859.7371	1104.1382	40833.65	39935.5
859.8821	1106.099	40823.6	39922.75
860.027	1108.0591	40752.9	39853.8
860.172	1110.0185	40594.8	39693.9
860.3169	1111.9771	40683.5	39787.05
860.4619	1113.9351	40525.15	39627.25
860.6068	1115.8923	40431.9	39533.4
860.7517	1117.8488	40330.75	39431
860.8967	1119.8045	40153.9	39258.75
861.0416	1121.7596	40175.75	39277.5
861.1865	1123.7139	40060.15	39162.4
861.3314	1125.6675	40040.25	39143.1
861.4763	1127.6204	40036.75	39139.6
861.6212	1129.5726	39919.5	39019.95
861.7661	1131.524	39925.75	39028.9
861.911	1133.4748	39856.5	38955.05
862.0559	1135.4248	39715.9	38815.95
862.2008	1137.3741	39716.65	38817.15
862.3457	1139.3226	39654.9	38754.7
862.4905	1141.2705	39639.4	38740.65
862.6354	1143.2176	39507.95	38603.4
862.7803	1145.164	39363.9	38463.2
862.9251	1147.1097	39398.6	38501.9
863.07	1149.0546	39350.35	38448.85
863.2148	1150.9989	39364.65	38468
863.3597	1152.9424	39182.45	38281.5
863.5045	1154.8852	39251.15	38351.6
863.6493	1156.8272	39074.55	38177.3
863.7942	1158.7686	39230.6	38323
863.939	1160.7092	39003.5	38102.3
864.0838	1162.6491	38910.7	38009.7
864.2286	1164.5883	38950.1	38053.4
864.3734	1166.5267	38824	37925
864.5182	1168.4644	38902.9	38005.1
864.663	1170.4014	38839.05	37935.45
864.8078	1172.3377	38877.55	37979.45
864.9526	1174.2732	38892.45	37994.1
865.0974	1176.2081	38918.2	38019.6
865.2421	1178.1421	38805	37903.4
865.3869	1180.0755	38924.15	38025.25
865.5317	1182.0082	38806.85	37909.85
