Software Version:	3.9.2.0
Unit SN:	10000200
Spectrometer SN:	6960
Date:	3/6/2024 9:41:17 AM
Data Line Index:	25
Spectral Points:	2048
Integration time (ms):	125
Averages:	20
Delay (ms):	30
Sequence Number:	1
Processing:	dark subtract
Laser Power (mW):	300
Laser Current (mA):	825
Laser Diode Temp (C):	25
Laser Case Temp (C):	24
System Temp (C):	23.8
Spectrometer Temp (C):	21.4
CCD Temp (C):	-0.02
Secondary Temp (C):	20.032
Heatsink Temp (C):	17.305
CCDPCB Temp (C):	30.126
SecondaryPCB Temp (C):	25.191

Wavelength	RamanShift	Raw Counts	Dark Subtracted
787.061	30.1047	457.2	49.9
787.2016	32.3739	462	56.2
787.3422	34.6426	464.6	58.2
787.4828	36.9109	470.6	61.35
787.6235	39.1787	480.15	69.4
787.7642	41.4461	486.9	69.6
787.9049	43.7131	492.1	72.8
788.0456	45.9796	502.6	81.8
788.1863	48.2456	510.7	85.55
788.3271	50.5112	519.05	88.45
788.4679	52.7764	524.8	91.1
788.6087	55.0411	533.7	96.2
788.7496	57.3054	548.55	106.45
788.8904	59.5692	553.3	110.4
789.0313	61.8326	561.6	115.35
789.1722	64.0955	576.7	127.9
789.3132	66.3579	587.75	134.05
789.4541	68.6199	606.25	147.15
789.5951	70.8815	633.9	171.25
789.7361	73.1426	691.95	226.65
789.8771	75.4032	838.5	368.65
790.0181	77.6634	1194.95	722.75
790.1592	79.9231	2068.35	1593.75
790.3003	82.1824	3874.15	3395.45
790.4414	84.4412	7087.6	6600.65
790.5825	86.6995	11427.75	10930.5
790.7237	88.9574	15677.35	15174.75
790.8648	91.2148	18849.7	18342
791.006	93.4717	20540.15	20028.5
791.1472	95.7282	21312.1	20799.65
791.2885	97.9842	21715.6	21198.7
791.4297	100.2398	21848.7	21329.2
791.571	102.4949	21946.45	21425.5
791.7123	104.7495	21910.85	21385.1
791.8536	107.0036	21909.15	21381.4
791.9949	109.2573	21955.7	21431.9
792.1363	111.5105	21940.4	21411.7
792.2777	113.7632	21941.95	21412.15
792.4191	116.0154	21964.15	21423.2
792.5605	118.2672	22023.5	21490.45
792.7019	120.5185	22056.45	21522.05
792.8434	122.7693	22105.6	21564.1
792.9849	125.0197	22100.4	21554.4
793.1264	127.2696	22142.45	21595
793.2679	129.519	22212.65	21662.6
793.4094	131.7679	22295.2	21742.9
793.551	134.0163	22317.15	21762.4
793.6926	136.2642	22346.85	21788.65
793.8342	138.5117	22409.7	21848.45
793.9758	140.7587	22433.55	21870.65
794.1175	143.0052	22453.85	21888.05
794.2591	145.2512	22407.95	21839.8
794.4008	147.4967	22402.05	21835.1
794.5425	149.7417	22383.3	21813.1
794.6842	151.9863	22363.6	21786.95
794.826	154.2304	22421.1	21842.95
794.9677	156.4739	22381	21796.35
795.1095	158.717	22417.35	21832.5
795.2513	160.9596	22465.2	21873.35
795.3931	163.2017	22437.3	21844.9
795.535	165.4433	22470.6	21878.5
795.6768	167.6844	22481.7	21883.1
795.8187	169.925	22471.7	21870.75
795.9606	172.1651	22448.45	21845.8
796.1025	174.4047	22429.7	21822.45
796.2445	176.6439	22461.55	21853.1
796.3864	178.8825	22447.6	21836.4
796.5284	181.1206	22504.1	21891.85
796.6704	183.3582	22533.1	21914.1
796.8124	185.5954	22542.85	21923.3
796.9544	187.832	22540.95	21918.45
797.0965	190.0681	22609.25	21980.95
797.2386	192.3037	22692.1	22059.95
797.3806	194.5388	22696.2	22063.05
797.5228	196.7734	22746.6	22112.3
797.6649	199.0075	22807	22172.15
797.807	201.2411	22921.2	22285.75
797.9492	203.4742	22957.45	22319.35
798.0914	205.7068	23048.2	22405
798.2336	207.9389	23089.05	22444.9
798.3758	210.1704	23136.35	22501.5
798.518	212.4015	23086.45	22464.75
798.6603	214.632	23188.3	22565.55
798.8025	216.862	23195.65	22575.2
798.9448	219.0915	23227.4	22604.8
799.0871	221.3205	23267.2	22642.05
799.2294	223.549	23318.5	22699.8
799.3718	225.777	23388.1	22766.25
799.5141	228.0044	23399.3	22766.9
799.6565	230.2314	23451.1	22817.8
799.7989	232.4578	23449.55	22812.4
799.9413	234.6837	23458.85	22812.1
800.0837	236.909	23508.8	22861.15
800.2262	239.1339	23534.1	22864.55
800.3687	241.3582	23554.8	22898.1
800.5111	243.582	23528.45	22840.25
800.6536	245.8053	23560.5	22885.05
800.7961	248.0281	23565.85	22899.35
800.9387	250.2503	23641.35	22969.2
801.0812	252.472	23649.95	22976.1
801.2238	254.6932	23685.6	23011.45
801.3664	256.9139	23639.8	22964.4
801.509	259.134	23674.45	22997.15
801.6516	261.3536	23695.65	23018.55
801.7942	263.5727	23748.3	23068.8
801.9369	265.7912	23774.15	23096.35
802.0795	268.0092	23815.95	23138.4
802.2222	270.2267	23840.2	23160.75
802.3649	272.4436	23902.65	23218.65
802.5076	274.6601	23905.7	23214.1
802.6504	276.8759	23888.25	23201.85
802.7931	279.0913	23959.95	23269.75
802.9359	281.3061	23937.95	23245.35
803.0787	283.5204	24020.05	23327.15
803.2215	285.7341	24038.6	23344.75
803.3643	287.9473	24113.65	23410.8
803.5071	290.16	24075.15	23374.2
803.6499	292.3721	24040.9	23349.1
803.7928	294.5837	24036.05	23342.5
803.9357	296.7947	24015.4	23319.4
804.0786	299.0052	23990.35	23294.4
804.2215	301.2152	23917	23216.9
804.3644	303.4246	23964.45	23268.15
804.5074	305.6334	23952.25	23255.15
804.6503	307.8418	23970.2	23269.05
804.7933	310.0495	23946.6	23244.5
804.9363	312.2568	23902.95	23198.8
805.0793	314.4635	23815.25	23109
805.2223	316.6696	23789.75	23079.25
805.3653	318.8752	23701.95	22983
805.5084	321.0802	23669.7	22958.9
805.6514	323.2847	23732	23021.25
805.7945	325.4887	23685.9	22974.3
805.9376	327.692	23663.65	22950.95
806.0807	329.8949	23730.6	23015.25
806.2238	332.0972	23741.1	23022.95
806.367	334.2989	23809.6	23088.3
806.5101	336.5001	23754.75	23034.8
806.6533	338.7007	23771.8	23050
806.7965	340.9008	23813.15	23091.55
806.9397	343.1003	23708.95	22985.65
807.0829	345.2992	23704.05	22979.85
807.2261	347.4976	23668.15	22940.9
807.3693	349.6955	23607.9	22877.55
807.5126	351.8927	23694.3	22962.3
807.6559	354.0895	23633.4	22889.15
807.7991	356.2856	23628.1	22890.9
807.9424	358.4812	23612.4	22878.85
808.0857	360.6763	23633.65	22897.85
808.2291	362.8707	23581.3	22843.85
808.3724	365.0646	23631.75	22889.4
808.5158	367.258	23568.65	22824.55
808.6591	369.4508	23570.65	22825.4
808.8025	371.643	23625.4	22882.35
808.9459	373.8346	23528.4	22782.4
809.0893	376.0257	23530.9	22781.2
809.2327	378.2162	23537.7	22790.05
809.3762	380.4062	23547.9	22798.85
809.5196	382.5956	23462.05	22712.45
809.6631	384.7844	23449.45	22708.5
809.8066	386.9726	23361.15	22621.7
809.9501	389.1603	23318.2	22579.05
810.0936	391.3474	23342	22560.6
810.2371	393.5339	23292.1	22548.4
810.3806	395.7199	23222.5	22481.8
810.5241	397.9052	23229.8	22487.45
810.6677	400.09	23234.3	22488.35
810.8113	402.2743	23233.5	22484.9
810.9548	404.4579	23226	22477.6
811.0984	406.641	23283.15	22533.55
811.2421	408.8235	23351.2	22598.45
811.3857	411.0054	23323.1	22567.1
811.5293	413.1868	23468.15	22711.65
811.673	415.3675	23438	22675.6
811.8166	417.5477	23465.55	22705.15
811.9603	419.7273	23363.45	22598.1
812.104	421.9064	23264.65	22491.9
812.2477	424.0848	23182.8	22416.5
812.3914	426.2627	23070.3	22304.5
812.5351	428.4399	23096.2	22326.85
812.6788	430.6166	22968.2	22196.1
812.8226	432.7928	22907.8	22134.6
812.9663	434.9683	22827.1	22053.95
813.1101	437.1432	22800.4	22025.9
813.2539	439.3176	22692.45	21922.55
813.3977	441.4914	22622.4	21851.6
813.5415	443.6645	22608.25	21834.45
813.6853	445.8371	22508.2	21732.7
813.8291	448.0091	22441.3	21667.6
813.973	450.1806	22379.65	21603.8
814.1168	452.3514	22351.1	21573
814.2607	454.5216	22366.5	21581.3
814.4046	456.6913	22214.4	21435.7
814.5485	458.8603	22233	21455
814.6924	461.0288	22223.15	21445.95
814.8363	463.1967	22210.6	21434.65
814.9802	465.3639	22230.9	21451.9
815.1241	467.5306	22146.25	21365.25
815.2681	469.6967	22119.15	21342.05
815.412	471.8622	22025.7	21245.45
815.556	474.0271	22036.6	21256.85
815.7	476.1914	22049.55	21267.15
815.844	478.3551	22019.85	21234.75
815.988	480.5182	22037.4	21253.45
816.132	482.6807	22025.6	21243.25
816.276	484.8426	22088.85	21306.2
816.4201	487.0039	22083.8	21299.05
816.5641	489.1647	22146.65	21362.15
816.7082	491.3248	22175.35	21388.6
816.8522	493.4843	22175.5	21389.65
816.9963	495.6432	22142.75	21355.9
817.1404	497.8015	22046.1	21254.95
817.2845	499.9592	22026.85	21237.6
817.4286	502.1163	21981.3	21189.7
817.5727	504.2728	21963.5	21169.2
817.7168	506.4287	21945	21153.1
817.861	508.5839	21896.9	21104.3
818.0051	510.7386	21853.55	21061.7
818.1493	512.8927	21916	21120.1
818.2935	515.0461	21864.3	21070.75
818.4377	517.199	21854.9	21061
818.5818	519.3512	21859.8	21063.35
818.726	521.5029	21872.25	21070.25
818.8703	523.6539	21894.65	21096.7
819.0145	525.8043	21885.2	21087.25
819.1587	527.9541	21828.85	21027.35
819.303	530.1033	21758.85	20959.45
819.4472	532.2519	21679.55	20879.9
819.5915	534.3999	21692.45	20890.95
819.7357	536.5472	21637.55	20835.6
819.88	538.694	21633.7	20835.45
820.0243	540.8401	21661.2	20859.1
820.1686	542.9856	21662.2	20857.75
820.3129	545.1305	21634.05	20829.65
820.4572	547.2748	21702.85	20900.1
820.6016	549.4185	21667.75	20861.85
820.7459	551.5615	21628.65	20822.45
820.8902	553.704	21617	20816.8
821.0346	555.8458	21555.3	20751
821.1789	557.987	21567.55	20764.65
821.3233	560.1276	21553.6	20746.2
821.4677	562.2675	21604.45	20802.15
821.6121	564.4069	21537.3	20732.75
821.7565	566.5456	21580.85	20776.15
821.9009	568.6837	21575.85	20768.7
822.0453	570.8212	21467.6	20661.5
822.1897	572.958	21407.75	20599.1
822.3342	575.0942	21339.3	20534.4
822.4786	577.2299	21276.2	20468.9
822.6231	579.3648	21198.5	20392.2
822.7675	581.4992	21099.55	20291.45
822.912	583.6329	21031.15	20225.7
823.0565	585.766	21013.15	20204.55
823.201	587.8985	21016.1	20206.25
823.3454	590.0304	20976.85	20155
823.4899	592.1616	20916.2	20101.5
823.6345	594.2922	20877.45	20066.9
823.779	596.4222	20828.1	20012.75
823.9235	598.5515	20751.65	19938.3
824.068	600.6802	20710.9	19897.1
824.2126	602.8083	20561.15	19747.6
824.3571	604.9358	20566	19748
824.5017	607.0626	20542.7	19728.6
824.6462	609.1888	20491.35	19673.5
824.7908	611.3144	20459.85	19640.75
824.9354	613.4393	20456.85	19641.3
825.08	615.5636	20433.6	19614.7
825.2246	617.6873	20495.75	19679.2
825.3692	619.8103	20559.25	19740.45
825.5138	621.9327	20488.75	19668.15
825.6584	624.0544	20456.2	19637.55
825.803	626.1756	20374	19555.95
825.9477	628.2961	20324.6	19503.85
826.0923	630.4159	20310.3	19488.45
826.237	632.5351	20293.5	19468.75
826.3816	634.6537	20228.85	19407.3
826.5263	636.7716	20218.95	19394.2
826.6709	638.8889	20217.2	19394.85
826.8156	641.0056	20252.6	19428.8
826.9603	643.1216	20196.7	19373.5
827.105	645.237	20285.1	19461.2
827.2497	647.3518	20156.65	19332.65
827.3944	649.4659	20170.95	19347.45
827.5391	651.5793	20116.7	19292.35
827.6838	653.6922	20042.55	19219.1
827.8285	655.8043	20042.3	19217.7
827.9733	657.9159	20008.8	19182.6
828.118	660.0268	19974.5	19146.95
828.2627	662.137	19909.35	19084.25
828.4075	664.2466	19922.85	19094.35
828.5522	666.3556	19908.25	19080.7
828.697	668.4639	19833.8	19002.45
828.8418	670.5716	19836.6	19007.85
828.9865	672.6786	19855.5	19029.2
829.1313	674.785	19757.65	18927.5
829.2761	676.8907	19692.4	18861.55
829.4209	678.9958	19680.8	18849.75
829.5657	681.1002	19607.6	18775.1
829.7105	683.204	19579.85	18743.15
829.8553	685.3072	19574.2	18739.1
830.0001	687.4097	19543.55	18714.4
830.1449	689.5115	19555.4	18723.35
830.2898	691.6127	19535.45	18705.1
830.4346	693.7132	19493.35	18660.45
830.5794	695.8131	19522.6	18681.1
830.7243	697.9123	19495.3	18659.35
830.8691	700.0109	19421.4	18589
831.014	702.1089	19436.8	18604.15
831.1588	704.2061	19392.55	18558.55
831.3037	706.3028	19444.5	18609.1
831.4486	708.3987	19405.95	18571.05
831.5935	710.4941	19414.95	18578.95
831.7383	712.5887	19387.2	18549.75
831.8832	714.6827	19369.7	18529.2
832.0281	716.7761	19376.6	18541.8
832.173	718.8688	19356.35	18518.2
832.3179	720.9608	19296.9	18455.85
832.4628	723.0522	19319.3	18476.45
832.6077	725.1429	19265.35	18428.3
832.7527	727.233	19261.05	18421.4
832.8976	729.3224	19334.8	18495.6
833.0425	731.4112	19281.05	18440.3
833.1874	733.4993	19249.65	18407.4
833.3324	735.5867	19192.15	18351.45
833.4773	737.6735	19127.85	18284.85
833.6222	739.7596	19100.05	18255.9
833.7672	741.845	19039.25	18197.6
833.9122	743.9298	19009.75	18164.85
834.0571	746.014	18966.95	18124.3
834.2021	748.0974	18934.9	18091.4
834.347	750.1802	18899.35	18056.25
834.492	752.2624	18847.4	18007.65
834.637	754.3439	18758.5	17915.9
834.782	756.4247	18704.55	17853.05
834.9269	758.5048	18667.45	17823.9
835.0719	760.5843	18624.25	17779.1
835.2169	762.6631	18560.1	17717.25
835.3619	764.7413	18554.6	17711.8
835.5069	766.8188	18607.3	17762.25
835.6519	768.8956	18561	17716.75
835.7969	770.9718	18618.95	17774.2
835.9419	773.0473	18552.1	17708
836.0869	775.1221	18528.5	17683.9
836.232	777.1962	18409	17564.7
836.377	779.2697	18460.55	17614.85
836.522	781.3426	18466.85	17601.5
836.667	783.4147	18451.4	17603.4
836.8121	785.4862	18426.85	17581.8
836.9571	787.557	18358.4	17512.1
837.1021	789.6271	18254.75	17408
837.2472	791.6966	18168.2	17321
837.3922	793.7654	18074.6	17227.15
837.5373	795.8335	18020.75	17174
837.6823	797.901	17974.35	17127.65
837.8274	799.9678	17933	17084.45
837.9724	802.0339	17864.45	17016.75
838.1175	804.0993	17872.65	17016.3
838.2626	806.1641	17828.05	16978.3
838.4076	808.2282	17764.7	16916.05
838.5527	810.2916	17761.75	16911.35
838.6978	812.3544	17754.7	16908.95
838.8428	814.4164	17690.25	16843.7
838.9879	816.4778	17713.15	16862.6
839.133	818.5385	17652.45	16804.25
839.2781	820.5986	17666.7	16816.65
839.4232	822.658	17656.1	16804.45
839.5682	824.7166	17657.1	16807.5
839.7133	826.7747	17751.2	16901.35
839.8584	828.832	17746	16897
840.0035	830.8886	17682.9	16831.9
840.1486	832.9446	17689.15	16834.65
840.2937	834.9999	17646.8	16797.75
840.4388	837.0545	17603.35	16748.05
840.5839	839.1085	17520.05	16667.75
840.729	841.1618	17465.8	16610.6
840.8741	843.2143	17426.25	16576.2
841.0192	845.2662	17340.45	16488.85
841.1643	847.3175	17345.55	16493.55
841.3095	849.368	17243.9	16391.15
841.4546	851.4179	17239.4	16385.25
841.5997	853.467	17196.8	16346.25
841.7448	855.5155	17174.45	16321.35
841.8899	857.5633	17155.65	16303.05
842.0351	859.6105	17076.05	16219.4
842.1802	861.6569	17055.95	16203
842.3253	863.7027	17031.7	16176.7
842.4704	865.7478	17036	16181.9
842.6156	867.7922	16982.05	16127.75
842.7607	869.8359	16952.8	16096.95
842.9058	871.8789	16935.3	16080.2
843.0509	873.9212	16954.95	16066.65
843.1961	875.9629	16874	16020.25
843.3412	878.0039	16865.8	16009.7
843.4863	880.0441	16861.15	16007.55
843.6315	882.0837	16894.6	16041
843.7766	884.1226	16878.2	16021
843.9218	886.1609	16853.75	15999.15
844.0669	888.1984	16885.9	16032.15
844.212	890.2352	16941.35	16088.95
844.3572	892.2714	16887.55	16028
844.5023	894.3069	16903.35	16047.85
844.6475	896.3416	16809.9	15953.7
844.7926	898.3757	16755.35	15897.5
844.9377	900.4091	16726.35	15866.85
845.0829	902.4418	16682.3	15820.9
845.228	904.4739	16658.9	15798.2
845.3732	906.5052	16650	15791.45
845.5183	908.5358	16615.55	15759.25
845.6635	910.5658	16573.9	15713.25
845.8086	912.595	16503.6	15645.35
845.9538	914.6236	16439.8	15583.5
846.0989	916.6515	16437.05	15580.4
846.2441	918.6786	16372.45	15512.25
846.3892	920.7051	16373.1	15512
846.5344	922.7309	16369.55	15509.8
846.6795	924.756	16304.4	15445.55
846.8246	926.7804	16308.5	15449.05
846.9698	928.8041	16206.4	15343.55
847.1149	930.8272	16224.3	15364.2
847.2601	932.8495	16152.75	15290.05
847.4052	934.8711	16171.15	15310
847.5504	936.892	16071.75	15213.3
847.6955	938.9123	16039.8	15177.75
847.8407	940.9318	16057.35	15197.25
847.9858	942.9506	15979.35	15116.65
848.131	944.9688	15942.15	15081.65
848.2761	946.9862	15902.45	15039.75
848.4213	949.003	15834.3	14973
848.5664	951.019	15733.5	14872.75
848.7115	953.0344	15703.4	14842.35
848.8567	955.0491	15703.5	14839.5
849.0018	957.063	15688.5	14827.05
849.147	959.0763	15721.5	14861
849.2921	961.0888	15639.2	14775.55
849.4373	963.1007	15629.7	14769.9
849.5824	965.1119	15602.15	14742
849.7275	967.1223	15601.3	14741.6
849.8727	969.1321	15569.9	14709.85
850.0178	971.1412	15593.3	14731.2
850.1629	973.1495	15470.5	14608.35
850.3081	975.1572	15501.9	14591.55
850.4532	977.1641	15470.95	14607.35
850.5983	979.1704	15422.2	14556.6
850.7435	981.1759	15377.15	14512.3
850.8886	983.1808	15347.25	14482.3
851.0337	985.1849	15345.15	14470.5
851.1788	987.1884	15286.6	14420.55
851.324	989.1911	15283.1	14417.05
851.4691	991.1932	15256.95	14391.15
851.6142	993.1945	15150.1	14286.45
851.7593	995.1951	15093.25	14229.2
851.9045	997.1951	15064.95	14193.75
852.0496	999.1943	15007.6	14144.5
852.1947	1001.1928	14949.6	14085.55
852.3398	1003.1906	14916.85	14052.85
852.4849	1005.1877	14914.45	14047.85
852.63	1007.1841	14855.65	13991.8
852.7751	1009.1798	14846.4	13982.95
852.9202	1011.1748	14787.3	13922.7
853.0653	1013.1691	14730.8	13864.25
853.2104	1015.1627	14687.55	13823.3
853.3555	1017.1556	14553.95	13690.6
853.5006	1019.1477	14533.75	13667.7
853.6457	1021.1392	14439.75	13576.1
853.7908	1023.1299	14412.35	13546.35
853.9359	1025.12	14342.05	13476.95
854.081	1027.1093	14269.05	13406.45
854.2261	1029.0979	14261.7	13400.85
854.3712	1031.0859	14245.2	13382.3
854.5163	1033.0731	14218.35	13352.25
854.6613	1035.0596	14153.05	13288.3
854.8064	1037.0454	14058.5	13193.25
854.9515	1039.0304	14047.7	13181.3
855.0965	1041.0148	14004.7	13141.2
855.2416	1042.9985	13967.55	13099.95
855.3867	1044.9814	13943.3	13081.35
855.5317	1046.9636	13867.9	13000.2
855.6768	1048.9452	13821.4	12955.7
855.8219	1050.926	13823.35	12959.6
855.9669	1052.9061	13810.7	12944.6
856.112	1054.8855	13761.75	12894.35
856.257	1056.8642	13736.05	12867.7
856.4021	1058.8421	13725.3	12851.85
856.5471	1060.8194	13673.05	12806.65
856.6921	1062.7959	13678.75	12811.5
856.8372	1064.7717	13618.85	12752
856.9822	1066.7469	13608.65	12738.9
857.1272	1068.7213	13574.5	12703.5
857.2723	1070.695	13537.9	12670.55
857.4173	1072.6679	13489.9	12620.45
857.5623	1074.6402	13534.3	12666.9
857.7073	1076.6117	13471.05	12597.4
857.8523	1078.5826	13503.65	12635.35
857.9973	1080.5527	13428.6	12556.6
858.1423	1082.5221	13389.45	12519.85
858.2873	1084.4908	13348.65	12482.65
858.4323	1086.4587	13277.9	12408.8
858.5773	1088.426	13244.3	12373.8
858.7223	1090.3925	13233.1	12361.85
858.8673	1092.3584	13227.55	12360.55
859.0123	1094.3235	13141.1	12271.85
859.1573	1096.2879	13149	12279.3
859.3022	1098.2515	13138.8	12267.75
859.4472	1100.2145	13121.45	12251.85
859.5922	1102.1767	13092.75	12219.55
859.7371	1104.1382	13089.05	12217.8
859.8821	1106.099	13104.35	12233
860.027	1108.0591	13099.35	12231.35
860.172	1110.0185	13095.65	12225.7
860.3169	1111.9771	13097.1	12230.25
860.4619	1113.9351	13078.5	12207.9
860.6068	1115.8923	13094.15	12224.5
860.7517	1117.8488	13066.25	12192.45
860.8967	1119.8045	13010.85	12141.8
861.0416	1121.7596	12942.6	12071.35
861.1865	1123.7139	12862.1	11991.45
861.3314	1125.6675	12782.75	11913.1
861.4763	1127.6204	12773.9	11904.35
861.6212	1129.5726	12729.8	11858.5
861.7661	1131.524	12720.25	11850.9
861.911	1133.4748	12714.95	11843.85
862.0559	1135.4248	12641.85	11769.95
862.2008	1137.3741	12581.1	11708.35
862.3457	1139.3226	12501.15	11627.8
862.4905	1141.2705	12522.65	11652.6
862.6354	1143.2176	12452.55	11573.65
862.7803	1145.164	12484.3	11612
862.9251	1147.1097	12429.15	11558.2
863.07	1149.0546	12419.65	11547.9
863.2148	1150.9989	12382.75	11512.9
863.3597	1152.9424	12389.7	11519.9
863.5045	1154.8852	12374.15	11503.55
863.6493	1156.8272	12315.4	11445.2
863.7942	1158.7686	12327	11450.55
863.939	1160.7092	12234.9	11363.75
864.0838	1162.6491	12247.3	11371.4
864.2286	1164.5883	12214.8	11343.95
864.3734	1166.5267	12194.65	11322.65
864.5182	1168.4644	12224.25	11351.05
864.663	1170.4014	12203.15	11326.8
864.8078	1172.3377	12239.7	11367.1
864.9526	1174.2732	12233.3	11363.35
865.0974	1176.2081	12296.75	11424.95
865.2421	1178.1421	12328.15	11451.05
865.3869	1180.0755	12397.7	11526.85
865.5317	1182.0082	12395.5	11522.5
865.6764	1183.9401	12347.65	11475
