Software Version:	3.9.2.0
Unit SN:	10000200
Spectrometer SN:	6960
Date:	3/6/2024 9:40:43 AM
Data Line Index:	25
Spectral Points:	2048
Integration time (ms):	125
Averages:	20
Delay (ms):	30
Sequence Number:	1
Processing:	dark subtract
Laser Power (mW):	300
Laser Current (mA):	825
Laser Diode Temp (C):	25
Laser Case Temp (C):	24
System Temp (C):	23.8
Spectrometer Temp (C):	21.4
CCD Temp (C):	-0.024
Secondary Temp (C):	20.008
Heatsink Temp (C):	17.209
CCDPCB Temp (C):	30.327
SecondaryPCB Temp (C):	25.324

Wavelength	RamanShift	Raw Counts	Dark Subtracted
787.061	30.1047	471.75	64.05
787.2016	32.3739	473.6	66.65
787.3422	34.6426	480	73.75
787.4828	36.9109	485.2	76.4
787.6235	39.1787	495.95	84.6
787.7642	41.4461	500.35	85.25
787.9049	43.7131	513.85	94.2
788.0456	45.9796	518.25	95.35
788.1863	48.2456	531.9	106.05
788.3271	50.5112	539.65	108.4
788.4679	52.7764	548.55	115.05
788.6087	55.0411	560.35	122.65
788.7496	57.3054	574.85	132.2
788.8904	59.5692	579.2	135.05
789.0313	61.8326	592.45	147.75
789.1722	64.0955	602.85	155.2
789.3132	66.3579	621.9	168.95
789.4541	68.6199	646.2	189.45
789.5951	70.8815	679	217.25
789.7361	73.1426	752.95	287.15
789.8771	75.4032	927.8	457.55
790.0181	77.6634	1370.45	898.15
790.1592	79.9231	2411.5	1937.5
790.3003	82.1824	4675.75	4196.15
790.4414	84.4412	8644	8153.85
790.5825	86.6995	13972	13474.55
790.7237	88.9574	19240.4	18735.95
790.8648	91.2148	23035.25	22524.35
791.006	93.4717	25118.2	24604.65
791.1472	95.7282	26023.15	25504.45
791.2885	97.9842	26468.05	25949.95
791.4297	100.2398	26646.9	26127.45
791.571	102.4949	26724.2	26199.5
791.7123	104.7495	26751.6	26223.65
791.8536	107.0036	26774.25	26245.75
791.9949	109.2573	26755.45	26228.05
792.1363	111.5105	26792.25	26263.2
792.2777	113.7632	26806.05	26272.9
792.4191	116.0154	26802.1	26258.1
792.5605	118.2672	26912.95	26375.4
792.7019	120.5185	26913.65	26375.75
792.8434	122.7693	26971.3	26429.65
792.9849	125.0197	27048.6	26498.35
793.1264	127.2696	27060.55	26511.5
793.2679	129.519	27172.8	26618.3
793.4094	131.7679	27208.35	26650.75
793.551	134.0163	27306.45	26748.55
793.6926	136.2642	27332.75	26769.95
793.8342	138.5117	27372.9	26810.2
793.9758	140.7587	27407.15	26843.15
794.1175	143.0052	27447.8	26878.6
794.2591	145.2512	27461.9	26893.05
794.4008	147.4967	27412.6	26842
794.5425	149.7417	27401.7	26827.5
794.6842	151.9863	27383.05	26807.05
794.826	154.2304	27476	26897
794.9677	156.4739	27380.55	26790.9
795.1095	158.717	27461.1	26875.7
795.2513	160.9596	27524	26930.1
795.3931	163.2017	27517.15	26921.65
795.535	165.4433	27539.5	26941
795.6768	167.6844	27600.55	27001.8
795.8187	169.925	27598.25	26996.45
795.9606	172.1651	27525.75	26919.25
796.1025	174.4047	27548.3	26936.4
796.2445	176.6439	27533.5	26923.15
796.3864	178.8825	27582.35	26970.45
796.5284	181.1206	27654	27036.1
796.6704	183.3582	27680.75	27060.7
796.8124	185.5954	27725	27101.6
796.9544	187.832	27706.65	27078.95
797.0965	190.0681	27822.85	27191.75
797.2386	192.3037	27882.7	27251
797.3806	194.5388	27898.95	27261.55
797.5228	196.7734	27964.25	27326.35
797.6649	199.0075	28078.1	27440.8
797.807	201.2411	28267.4	27628.15
797.9492	203.4742	28274	27631.4
798.0914	205.7068	28407.15	27757.95
798.2336	207.9389	28432	27785.95
798.3758	210.1704	28521.75	27884.75
798.518	212.4015	28490.45	27863.25
798.6603	214.632	28537.85	27913.9
798.8025	216.862	28576.7	27952.75
798.9448	219.0915	28565.65	27941.65
799.0871	221.3205	28675.45	28049.35
799.2294	223.549	28791.45	28167.85
799.3718	225.777	28836.3	28210.25
799.5141	228.0044	28907.35	28271.45
799.6565	230.2314	28933.2	28299.2
799.7989	232.4578	28951.85	28313.3
799.9413	234.6837	28978.6	28329.3
800.0837	236.909	29042.2	28392.5
800.2262	239.1339	29026.55	28353.95
800.3687	241.3582	29115.6	28459.15
800.5111	243.582	29121.3	28432.05
800.6536	245.8053	29172.05	28494.4
800.7961	248.0281	29160.95	28488.6
800.9387	250.2503	29192.4	28512.75
801.0812	252.472	29202.2	28523.85
801.2238	254.6932	29313.2	28635.15
801.3664	256.9139	29278.45	28600.5
801.509	259.134	29280.15	28598.2
801.6516	261.3536	29358.45	28679.7
801.7942	263.5727	29428.4	28747.35
801.9369	265.7912	29424.85	28743.05
802.0795	268.0092	29529.3	28848.95
802.2222	270.2267	29515.75	28832.2
802.3649	272.4436	29600.3	28914.55
802.5076	274.6601	29654.5	28959.4
802.6504	276.8759	29628.2	28937.2
802.7931	279.0913	29646.95	28954.9
802.9359	281.3061	29687.95	28995.6
803.0787	283.5204	29758.35	29063.55
803.2215	285.7341	29815.6	29119.55
803.3643	287.9473	29846.45	29135.65
803.5071	290.16	29899.2	29194.85
803.6499	292.3721	29864.2	29167.55
803.7928	294.5837	29860.1	29161.15
803.9357	296.7947	29785.75	29087.95
804.0786	299.0052	29802.4	29104.45
804.2215	301.2152	29714.5	29011.55
804.3644	303.4246	29808.8	29108.65
804.5074	305.6334	29756.25	29055.35
804.6503	307.8418	29776.2	29069.8
804.7933	310.0495	29760.95	29053.65
804.9363	312.2568	29676.5	28972.3
805.0793	314.4635	29611.3	28905.85
805.2223	316.6696	29551.15	28838.9
805.3653	318.8752	29440.05	28720.85
805.5084	321.0802	29436	28724.15
805.6514	323.2847	29448.8	28733
805.7945	325.4887	29410.75	28696.4
805.9376	327.692	29403.35	28685.65
806.0807	329.8949	29521.7	28803.6
806.2238	332.0972	29507.2	28788.8
806.367	334.2989	29575.25	28851.8
806.5101	336.5001	29511.75	28787.25
806.6533	338.7007	29524.7	28802.05
806.7965	340.9008	29593.8	28869.1
806.9397	343.1003	29514.8	28788.35
807.0829	345.2992	29509.15	28780.85
807.2261	347.4976	29470	28741.15
807.3693	349.6955	29409.9	28674.4
807.5126	351.8927	29468.55	28736.35
807.6559	354.0895	29395.3	28650.7
807.7991	356.2856	29487.4	28750.35
807.9424	358.4812	29393.55	28655.35
808.0857	360.6763	29454.25	28715.35
808.2291	362.8707	29351.05	28607.85
808.3724	365.0646	29425.7	28681.1
808.5158	367.258	29374.55	28625.35
808.6591	369.4508	29335.95	28588.25
808.8025	371.643	29400.7	28652.4
808.9459	373.8346	29286.45	28535.75
809.0893	376.0257	29301.85	28548.25
809.2327	378.2162	29262.45	28508.8
809.3762	380.4062	29312.4	28561.2
809.5196	382.5956	29263.65	28513.3
809.6631	384.7844	29248.25	28504.7
809.8066	386.9726	29108.75	28365.8
809.9501	389.1603	29069.4	28327
810.0936	391.3474	29103.45	28310.55
810.2371	393.5339	29059.75	28310.75
810.3806	395.7199	28965.8	28222.05
810.5241	397.9052	28991.4	28246.15
810.6677	400.09	28931.7	28182.9
810.8113	402.2743	29002.75	28253.05
810.9548	404.4579	28986.8	28237.95
811.0984	406.641	29075.85	28320.75
811.2421	408.8235	29116.65	28362.05
811.3857	411.0054	29125.8	28368.15
811.5293	413.1868	29285.75	28526.55
811.673	415.3675	29234.8	28470.95
811.8166	417.5477	29248.4	28485.35
811.9603	419.7273	29154.45	28385.85
812.104	421.9064	29040.05	28266.7
812.2477	424.0848	28967.95	28201.15
812.3914	426.2627	28868.05	28099.15
812.5351	428.4399	28809.1	28040.1
812.6788	430.6166	28713.5	27937.85
812.8226	432.7928	28576.75	27802.05
812.9663	434.9683	28464.55	27691.25
813.1101	437.1432	28461	27687.2
813.2539	439.3176	28340.95	27566.4
813.3977	441.4914	28262.8	27489.45
813.5415	443.6645	28258.95	27482.2
813.6853	445.8371	28131.5	27353
813.8291	448.0091	28011.75	27234.2
813.973	450.1806	27987.65	27209.2
814.1168	452.3514	27869.7	27091.95
814.2607	454.5216	27894.5	27105.8
814.4046	456.6913	27760.85	26980.25
814.5485	458.8603	27781.2	27000.65
814.6924	461.0288	27804.55	27023.45
814.8363	463.1967	27752.8	26975.3
814.9802	465.3639	27760.15	26979
815.1241	467.5306	27687	26904.65
815.2681	469.6967	27693.95	26911.85
815.412	471.8622	27576.2	26792.85
815.556	474.0271	27570.45	26787.1
815.7	476.1914	27567.4	26779.65
815.844	478.3551	27526.85	26742.1
815.988	480.5182	27579.8	26794.7
816.132	482.6807	27585.9	26801.55
816.276	484.8426	27611.65	26825.2
816.4201	487.0039	27625.75	26840.7
816.5641	489.1647	27688.15	26900.75
816.7082	491.3248	27702.9	26916.4
816.8522	493.4843	27696.9	26909.95
816.9963	495.6432	27670.25	26880.65
817.1404	497.8015	27598.2	26805.1
817.2845	499.9592	27618.95	26826.55
817.4286	502.1163	27522.75	26730.55
817.5727	504.2728	27412.5	26619.05
817.7168	506.4287	27449.25	26657.3
817.861	508.5839	27369.7	26576.15
818.0051	510.7386	27341.95	26549.6
818.1493	512.8927	27366.6	26568.1
818.2935	515.0461	27404.15	26609.85
818.4377	517.199	27358.35	26562.85
818.5818	519.3512	27322.9	26526.45
818.726	521.5029	27385	26581.05
818.8703	523.6539	27367.95	26566.2
819.0145	525.8043	27406	26604.7
819.1587	527.9541	27335.8	26533.5
819.303	530.1033	27259.3	26457.6
819.4472	532.2519	27171.25	26370.4
819.5915	534.3999	27119.65	26316.9
819.7357	536.5472	27137.4	26333.1
819.88	538.694	27102.7	26297.3
820.0243	540.8401	27151.7	26348.4
820.1686	542.9856	27124	26319.9
820.3129	545.1305	27069.95	26259.8
820.4572	547.2748	27146.05	26339.85
820.6016	549.4185	27118.7	26308.85
820.7459	551.5615	26999	26191.8
820.8902	553.704	27037.85	26228.65
821.0346	555.8458	26987.1	26180.95
821.1789	557.987	27004.85	26200.25
821.3233	560.1276	27021.2	26212.45
821.4677	562.2675	27085.75	26280.95
821.6121	564.4069	27043.95	26237.05
821.7565	566.5456	27015.7	26208.85
821.9009	568.6837	27008.5	26202.15
822.0453	570.8212	26889.9	26081.85
822.1897	572.958	26763.9	25955.45
822.3342	575.0942	26660.3	25852.7
822.4786	577.2299	26623.85	25813.45
822.6231	579.3648	26514.05	25704.6
822.7675	581.4992	26403	25594.1
822.912	583.6329	26303.95	25494.85
823.0565	585.766	26298.4	25488.35
823.201	587.8985	26272.55	25461.7
823.3454	590.0304	26223.25	25399.25
823.4899	592.1616	26186.65	25370.05
823.6345	594.2922	26164.55	25349.45
823.779	596.4222	26058.45	25242.25
823.9235	598.5515	25969.75	25152.5
824.068	600.6802	25881	25066.55
824.2126	602.8083	25718.35	24901.65
824.3571	604.9358	25755.35	24936.85
824.5017	607.0626	25695.6	24878.7
824.6462	609.1888	25651.2	24831.4
824.7908	611.3144	25618.55	24798.75
824.9354	613.4393	25573.1	24753.95
825.08	615.5636	25608.3	24789.85
825.2246	617.6873	25595.55	24776.75
825.3692	619.8103	25676.9	24854.15
825.5138	621.9327	25574.6	24750.85
825.6584	624.0544	25511.6	24691.9
825.803	626.1756	25488.55	24666.8
825.9477	628.2961	25426.9	24604.15
826.0923	630.4159	25399.35	24577.55
826.237	632.5351	25378.2	24552.4
826.3816	634.6537	25299.2	24471.95
826.5263	636.7716	25303.6	24475.35
826.6709	638.8889	25260.9	24435.5
826.8156	641.0056	25284.5	24458.5
826.9603	643.1216	25213.4	24385.1
827.105	645.237	25278.85	24451.55
827.2497	647.3518	25192.15	24366.25
827.3944	649.4659	25222.2	24398.7
827.5391	651.5793	25133.15	24308.35
827.6838	653.6922	25020.35	24195.85
827.8285	655.8043	25013.8	24185.6
827.9733	657.9159	25008.05	24179.5
828.118	660.0268	24943.4	24113.35
828.2627	662.137	24940.3	24110.8
828.4075	664.2466	24865.15	24032.2
828.5522	666.3556	24884.95	24054.75
828.697	668.4639	24803.75	23971.55
828.8418	670.5716	24819	23990.45
828.9865	672.6786	24754.6	23923.2
829.1313	674.785	24703.1	23869.5
829.2761	676.8907	24584.2	23753.4
829.4209	678.9958	24624.15	23793.25
829.5657	681.1002	24514.55	23681.65
829.7105	683.204	24514.1	23678.45
829.8553	685.3072	24510.6	23676.75
830.0001	687.4097	24435	23603.05
830.1449	689.5115	24456.95	23619.9
830.2898	691.6127	24375.65	23543.05
830.4346	693.7132	24365.95	23532.35
830.5794	695.8131	24383.15	23541.95
830.7243	697.9123	24352.1	23515.7
830.8691	700.0109	24273.1	23436.8
831.014	702.1089	24299.65	23465.05
831.1588	704.2061	24277.6	23440.75
831.3037	706.3028	24263.2	23424.2
831.4486	708.3987	24253.65	23415.3
831.5935	710.4941	24206.95	23368.35
831.7383	712.5887	24232.85	23395.55
831.8832	714.6827	24181.7	23339.65
832.0281	716.7761	24157.8	23320.55
832.173	718.8688	24165.3	23326.2
832.3179	720.9608	24068.65	23223.75
832.4628	723.0522	24158.65	23315.05
832.6077	725.1429	24044.05	23203.25
832.7527	727.233	24065.3	23225.65
832.8976	729.3224	24136.7	23294.2
833.0425	731.4112	24074.75	23232.6
833.1874	733.4993	24029.9	23185.5
833.3324	735.5867	23923.45	23080.65
833.4773	737.6735	23885.25	23039.95
833.6222	739.7596	23800.4	22955.45
833.7672	741.845	23733.1	22891.5
833.9122	743.9298	23653.65	22809.1
834.0571	746.014	23611.95	22771.25
834.2021	748.0974	23618.9	22775.3
834.347	750.1802	23562.95	22719.15
834.492	752.2624	23445.3	22601
834.637	754.3439	23415.65	22570.2
834.782	756.4247	23354.2	22501.85
834.9269	758.5048	23243.55	22398.9
835.0719	760.5843	23196.5	22349.55
835.2169	762.6631	23183.85	22337.35
835.3619	764.7413	23175.9	22330.35
835.5069	766.8188	23188.75	22342
835.6519	768.8956	23171.6	22321.45
835.7969	770.9718	23242.2	22395.1
835.9419	773.0473	23102.15	22256.05
836.0869	775.1221	23075.2	22229.5
836.232	777.1962	22972.05	22128.3
836.377	779.2697	22988.3	22139.9
836.522	781.3426	23063.4	22197.65
836.667	783.4147	22995.25	22146.2
836.8121	785.4862	22971.15	22124.55
836.9571	787.557	22877.95	22028.55
837.1021	789.6271	22771.2	21923
837.2472	791.6966	22645.4	21796.45
837.3922	793.7654	22510.95	21659.35
837.5373	795.8335	22470.15	21620.55
837.6823	797.901	22410.95	21563.5
837.8274	799.9678	22356.4	21505.9
837.9724	802.0339	22324.95	21478.05
838.1175	804.0993	22318.05	21457.75
838.2626	806.1641	22248.25	21398.4
838.4076	808.2282	22182.65	21332.25
838.5527	810.2916	22166.25	21314.7
838.6978	812.3544	22119.25	21269.7
838.8428	814.4164	22077.35	21228.3
838.9879	816.4778	22094.4	21243.55
839.133	818.5385	22030.4	21180.9
839.2781	820.5986	21999.65	21149.45
839.4232	822.658	22040.05	21188.15
839.5682	824.7166	22005.6	21154.5
839.7133	826.7747	22133.55	21283
839.8584	828.832	22140.25	21289.25
840.0035	830.8886	22045.55	21193.2
840.1486	832.9446	22068.5	21216.85
840.2937	834.9999	22031.25	21181.25
840.4388	837.0545	21978.3	21122.7
840.5839	839.1085	21873.25	21019.85
840.729	841.1618	21811.9	20955.15
840.8741	843.2143	21694.1	20840
841.0192	845.2662	21588.95	20736.2
841.1643	847.3175	21557.35	20705.2
841.3095	849.368	21522	20668.25
841.4546	851.4179	21501.05	20647.05
841.5997	853.467	21401.3	20545.8
841.7448	855.5155	21365.25	20508.75
841.8899	857.5633	21337.5	20484.4
842.0351	859.6105	21298.3	20442.9
842.1802	861.6569	21273.2	20417.6
842.3253	863.7027	21265.65	20411.25
842.4704	865.7478	21231.1	20374.95
842.6156	867.7922	21174.5	20317.2
842.7607	869.8359	21119.35	20262.75
842.9058	871.8789	21111.1	20254.2
843.0509	873.9212	21102.45	20216.5
843.1961	875.9629	21039.2	20182.45
843.3412	878.0039	21039.7	20183.1
843.4863	880.0441	21035.45	20179.6
843.6315	882.0837	21057.45	20198.85
843.7766	884.1226	21022.8	20161
843.9218	886.1609	21035.95	20180.1
844.0669	888.1984	21045.1	20187.7
844.212	890.2352	21103.3	20248
844.3572	892.2714	21063.95	20202.55
844.5023	894.3069	21058.3	20204.05
844.6475	896.3416	20936.4	20076.65
844.7926	898.3757	20909.15	20050.9
844.9377	900.4091	20834.15	19974
845.0829	902.4418	20813.55	19948.75
845.228	904.4739	20752.55	19890
845.3732	906.5052	20761.6	19901.55
845.5183	908.5358	20725.65	19864.35
845.6635	910.5658	20685.3	19826.45
845.8086	912.595	20609.8	19747.95
845.9538	914.6236	20532.6	19675.2
846.0989	916.6515	20503.85	19646.3
846.2441	918.6786	20432.05	19571.9
846.3892	920.7051	20425.45	19563.3
846.5344	922.7309	20427.1	19568.15
846.6795	924.756	20360.4	19499.85
846.8246	926.7804	20355.75	19492.55
846.9698	928.8041	20239.25	19374
847.1149	930.8272	20268.65	19407.4
847.2601	932.8495	20166.55	19303.45
847.4052	934.8711	20175.05	19313.95
847.5504	936.892	20078.6	19217.05
847.6955	938.9123	20020.8	19159.3
847.8407	940.9318	20028.6	19168.45
847.9858	942.9506	19954.3	19093.05
848.131	944.9688	19886.3	19023.75
848.2761	946.9862	19850.6	18987.1
848.4213	949.003	19712.55	18847.25
848.5664	951.019	19669.65	18807.65
848.7115	953.0344	19608.25	18743.95
848.8567	955.0491	19575.05	18709.65
849.0018	957.063	19551.15	18687.7
849.147	959.0763	19597.8	18734.7
849.2921	961.0888	19505.8	18642.25
849.4373	963.1007	19526.8	18664.9
849.5824	965.1119	19528.8	18667.7
849.7275	967.1223	19449.65	18588.25
849.8727	969.1321	19446.55	18585.75
850.0178	971.1412	19429.75	18566.5
850.1629	973.1495	19346.95	18483.8
850.3081	975.1572	19375.85	18464.7
850.4532	977.1641	19333.85	18470.55
850.5983	979.1704	19260.5	18394.05
850.7435	981.1759	19180.45	18313.15
850.8886	983.1808	19193.25	18327.35
851.0337	985.1849	19138.7	18263.75
851.1788	987.1884	19075.45	18208.1
851.324	989.1911	19047.3	18177.65
851.4691	991.1932	19033.2	18165.15
851.6142	993.1945	18974.55	18109.7
851.7593	995.1951	18873.45	18006.8
851.9045	997.1951	18850.7	17979.95
852.0496	999.1943	18755.6	17890.75
852.1947	1001.1928	18735.9	17868.3
852.3398	1003.1906	18645.8	17782.65
852.4849	1005.1877	18660.7	17794.2
852.63	1007.1841	18600.95	17734.2
852.7751	1009.1798	18575.85	17708.55
852.9202	1011.1748	18489.05	17623.85
853.0653	1013.1691	18434.15	17567.4
853.2104	1015.1627	18386.65	17519.95
853.3555	1017.1556	18213.95	17348.25
853.5006	1019.1477	18195.95	17327.85
853.6457	1021.1392	18076.5	17210
853.7908	1023.1299	18034.75	17169.65
853.9359	1025.12	17949.1	17081.1
854.081	1027.1093	17877.7	17014.9
854.2261	1029.0979	17808.85	16946.7
854.3712	1031.0859	17753	16888.7
854.5163	1033.0731	17766.65	16900.65
854.6613	1035.0596	17720	16854.3
854.8064	1037.0454	17627.65	16760.1
854.9515	1039.0304	17585.65	16716.4
855.0965	1041.0148	17508	16638.5
855.2416	1042.9985	17412	16543.95
855.3867	1044.9814	17424.6	16557.45
855.5317	1046.9636	17357.1	16488.8
855.6768	1048.9452	17318.1	16451.95
855.8219	1050.926	17284.2	16417.25
855.9669	1052.9061	17269.15	16403.6
856.112	1054.8855	17241.75	16373.9
856.257	1056.8642	17182.15	16314.55
856.4021	1058.8421	17193.1	16319.7
856.5471	1060.8194	17114	16246.25
856.6921	1062.7959	17104.95	16236.75
856.8372	1064.7717	17066.25	16197.35
856.9822	1066.7469	17073.1	16203.75
857.1272	1068.7213	17009.4	16138.45
857.2723	1070.695	17002	16132.75
857.4173	1072.6679	16944.7	16076.15
857.5623	1074.6402	16901	16033.7
857.7073	1076.6117	16910.75	16036.05
857.8523	1078.5826	16919.4	16049.4
857.9973	1080.5527	16824.95	15952.9
858.1423	1082.5221	16753.75	15883.4
858.2873	1084.4908	16714.4	15844.9
858.4323	1086.4587	16674.6	15804.4
858.5773	1088.426	16637.05	15767.35
858.7223	1090.3925	16565.85	15689.3
858.8673	1092.3584	16561.3	15690
859.0123	1094.3235	16471.65	15604.65
859.1573	1096.2879	16458.9	15589.45
859.3022	1098.2515	16458.4	15588.7
859.4472	1100.2145	16486.35	15614.6
859.5922	1102.1767	16453.1	15581.25
859.7371	1104.1382	16456.8	15585.7
859.8821	1106.099	16474.3	15601.3
860.027	1108.0591	16438.7	15569.15
860.172	1110.0185	16416.8	15545.2
860.3169	1111.9771	16437.35	15566.75
860.4619	1113.9351	16420.25	15550.55
860.6068	1115.8923	16404.8	15531
860.7517	1117.8488	16413.2	15541.85
860.8967	1119.8045	16348.4	15476
861.0416	1121.7596	16247.25	15374.55
861.1865	1123.7139	16129.05	15260.25
861.3314	1125.6675	16049.2	15180.45
861.4763	1127.6204	16078.6	15208.4
861.6212	1129.5726	16005	15131.65
861.7661	1131.524	16004.55	15134.1
861.911	1133.4748	15945.1	15074.95
862.0559	1135.4248	15861.3	14987.1
862.2008	1137.3741	15786.7	14918.35
862.3457	1139.3226	15748.9	14876.05
862.4905	1141.2705	15751.5	14878.7
862.6354	1143.2176	15667.65	14790
862.7803	1145.164	15666.6	14794.5
862.9251	1147.1097	15654.7	14782.7
863.07	1149.0546	15583.1	14709.8
863.2148	1150.9989	15577.05	14703.9
863.3597	1152.9424	15555.45	14681.25
863.5045	1154.8852	15532.15	14658.95
863.6493	1156.8272	15498.7	14627.85
863.7942	1158.7686	15485.85	14606.8
863.939	1160.7092	15440.6	14567.15
864.0838	1162.6491	15382.5	14510.05
864.2286	1164.5883	15407.5	14536.15
864.3734	1166.5267	15372.65	14499.25
864.5182	1168.4644	15388	14515.65
864.663	1170.4014	15397.4	14520.45
864.8078	1172.3377	15419.15	14548.55
864.9526	1174.2732	15401.55	14529.45
865.0974	1176.2081	15453.85	14583.6
865.2421	1178.1421	15523.45	14645
865.3869	1180.0755	15617.85	14745.9
