Software Version:	3.9.2.0
Unit SN:	10000200
Spectrometer SN:	6960
Date:	3/6/2024 9:54:49 AM
Data Line Index:	25
Spectral Points:	2048
Integration time (ms):	125
Averages:	20
Delay (ms):	30
Sequence Number:	1
Processing:	dark subtract
Laser Power (mW):	300
Laser Current (mA):	825
Laser Diode Temp (C):	25.1
Laser Case Temp (C):	24.5
System Temp (C):	24.3
Spectrometer Temp (C):	22
CCD Temp (C):	-0.002
Secondary Temp (C):	20.008
Heatsink Temp (C):	18.222
CCDPCB Temp (C):	30.538
SecondaryPCB Temp (C):	26.336

Wavelength	RamanShift	Raw Counts	Dark Subtracted
787.061	30.1047	547.5	138.65
787.2016	32.3739	546.35	140.1
787.3422	34.6426	553.55	146.9
787.4828	36.9109	568.65	160.3
787.6235	39.1787	583.55	171.9
787.7642	41.4461	595.35	179.45
787.9049	43.7131	613.55	193.65
788.0456	45.9796	625.05	199.7
788.1863	48.2456	635.45	208.15
788.3271	50.5112	655.35	224.65
788.4679	52.7764	675.1	241.95
788.6087	55.0411	690.65	251.1
788.7496	57.3054	714.9	272.65
788.8904	59.5692	729.05	282.75
789.0313	61.8326	746.75	297.7
789.1722	64.0955	770.05	319
789.3132	66.3579	798.2	340.85
789.4541	68.6199	833.55	373.5
789.5951	70.8815	895	430.8
789.7361	73.1426	1036.45	568.5
789.8771	75.4032	1373.1	903.25
790.0181	77.6634	2201.95	1728.15
790.1592	79.9231	4244.75	3766.2
790.3003	82.1824	8718	8233.2
790.4414	84.4412	16684.7	16185.15
790.5825	86.6995	27856.95	27341.65
790.7237	88.9574	38216.55	37691.55
790.8648	91.2148	45797.35	45262.55
791.006	93.4717	48634.7	48093.25
791.1472	95.7282	49963.95	49421.25
791.2885	97.9842	50546.45	50002.3
791.4297	100.2398	50713.3	50164.5
791.571	102.4949	50524.65	49973.15
791.7123	104.7495	50795.8	50240.65
791.8536	107.0036	50380.35	49822.55
791.9949	109.2573	51087.4	50531.5
792.1363	111.5105	50497.6	49940.6
792.2777	113.7632	50916.15	50355.8
792.4191	116.0154	51071.25	50500.25
792.5605	118.2672	51483.15	50918.3
792.7019	120.5185	51508.15	50942.65
792.8434	122.7693	51519.45	50948.25
792.9849	125.0197	51068.85	50491.15
793.1264	127.2696	52173.55	51595.9
793.2679	129.519	52131.5	51548.95
793.4094	131.7679	52542.65	51958.6
793.551	134.0163	51302.05	50715.7
793.6926	136.2642	51888.25	51297.8
793.8342	138.5117	52709.25	52115.25
793.9758	140.7587	52406.5	51812
794.1175	143.0052	52505.95	51909.45
794.2591	145.2512	51845.95	51249.1
794.4008	147.4967	52710.1	52110.75
794.5425	149.7417	52472.25	51869.45
794.6842	151.9863	52528.2	51924.65
794.826	154.2304	51945.35	51334.9
794.9677	156.4739	52495.7	51878.85
795.1095	158.717	52927.6	52308.55
795.2513	160.9596	52648.9	52027.3
795.3931	163.2017	52078.9	51456.35
795.535	165.4433	52841.1	52217.7
795.6768	167.6844	52448.55	51821.5
795.8187	169.925	52832.85	52201.8
795.9606	172.1651	52564.75	51932.15
796.1025	174.4047	52666.45	52027.75
796.2445	176.6439	52731.95	52091.9
796.3864	178.8825	52678.85	52038.3
796.5284	181.1206	53133.25	52486.3
796.6704	183.3582	53111.35	52461.75
796.8124	185.5954	52745.4	52094.85
796.9544	187.832	52940.1	52283.8
797.0965	190.0681	52561.95	51904.4
797.2386	192.3037	53305.55	52641.45
797.3806	194.5388	54070.4	53403.25
797.5228	196.7734	52409.25	51742.4
797.6649	199.0075	53910.7	53244.8
797.807	201.2411	53459.4	52791.6
797.9492	203.4742	54266.1	53596.8
798.0914	205.7068	54123.45	53446.15
798.2336	207.9389	54111.7	53434.6
798.3758	210.1704	54044.6	53376.6
798.518	212.4015	54705.8	54047.6
798.6603	214.632	53876.2	53224.55
798.8025	216.862	54759.75	54108.35
798.9448	219.0915	54509.65	53853.25
799.0871	221.3205	54296.05	53641.9
799.2294	223.549	54966.9	54314.8
799.3718	225.777	54972.75	54319.65
799.5141	228.0044	55257.3	54591.95
799.6565	230.2314	55017.7	54350.7
799.7989	232.4578	54956.6	54287.85
799.9413	234.6837	55073.45	54396.25
800.0837	236.909	56362.95	55685.05
800.2262	239.1339	54608.95	53906.4
800.3687	241.3582	55408.95	54719.25
800.5111	243.582	55446.95	54729.35
800.6536	245.8053	55514.75	54810.65
800.7961	248.0281	55581.8	54882.3
800.9387	250.2503	55857.1	55152.7
801.0812	252.472	55324.9	54615.7
801.2238	254.6932	55722.15	55016.9
801.3664	256.9139	55552.6	54845.4
801.509	259.134	56744.1	56031.5
801.6516	261.3536	55335	54624.3
801.7942	263.5727	56231.9	55522.1
801.9369	265.7912	55791.1	55076.8
802.0795	268.0092	56008.5	55296.6
802.2222	270.2267	56181.7	55470.4
802.3649	272.4436	55674.4	54958.25
802.5076	274.6601	56213.6	55487.75
802.6504	276.8759	56491.8	55774.4
802.7931	279.0913	56237.9	55518.5
802.9359	281.3061	56320.95	55601.5
803.0787	283.5204	56414.8	55691.15
803.2215	285.7341	56344.5	55613.95
803.3643	287.9473	56972.1	56234.2
803.5071	290.16	56448.9	55714.65
803.6499	292.3721	56877.05	56151.55
803.7928	294.5837	56308.5	55577.5
803.9357	296.7947	55924.65	55196.75
804.0786	299.0052	56844.4	56114.8
804.2215	301.2152	56389.6	55659.4
804.3644	303.4246	56937.05	56208
804.5074	305.6334	56936.45	56206.95
804.6503	307.8418	56201.05	55466.95
804.7933	310.0495	56370.35	55636.45
804.9363	312.2568	56249.9	55514.35
805.0793	314.4635	56216.75	55481.1
805.2223	316.6696	56543.95	55805.55
805.3653	318.8752	56868.1	56119.5
805.5084	321.0802	55596.4	54852
805.6514	323.2847	56169.1	55421.35
805.7945	325.4887	56190.05	55443.95
805.9376	327.692	55927.7	55182.15
806.0807	329.8949	56265.95	55516.95
806.2238	332.0972	56037.6	55290.15
806.367	334.2989	56242.95	55488.2
806.5101	336.5001	56742.75	55991.4
806.6533	338.7007	55742.1	54989.5
806.7965	340.9008	56277.5	55521.8
806.9397	343.1003	56356.8	55597.9
807.0829	345.2992	56693.3	55936.7
807.2261	347.4976	56194.8	55435.15
807.3693	349.6955	56399.65	55636.35
807.5126	351.8927	56042.7	55278.05
807.6559	354.0895	56472.05	55693.85
807.7991	356.2856	56336.35	55568.1
807.9424	358.4812	56806.7	56039.2
808.0857	360.6763	56072.8	55305.2
808.2291	362.8707	56642.75	55871.85
808.3724	365.0646	56243.25	55472.15
808.5158	367.258	56314.6	55538.55
808.6591	369.4508	55865.35	55088.1
808.8025	371.643	56562.7	55784.8
808.9459	373.8346	56245.4	55466.3
809.0893	376.0257	56298.05	55515.85
809.2327	378.2162	56149.45	55366.45
809.3762	380.4062	55671.3	54886.85
809.5196	382.5956	56047.35	55268.7
809.6631	384.7844	56070.95	55293.85
809.8066	386.9726	56235.15	55456.7
809.9501	389.1603	56260.75	55486.55
810.0936	391.3474	55683.9	54874.9
810.2371	393.5339	56235.4	55456.05
810.3806	395.7199	55496.3	54721.9
810.5241	397.9052	55631.45	54855.5
810.6677	400.09	55835.35	55058.65
810.8113	402.2743	56185.7	55408.3
810.9548	404.4579	55751.65	54972.85
811.0984	406.641	55700.8	54921.1
811.2421	408.8235	56023.75	55241.25
811.3857	411.0054	56012.15	55228.7
811.5293	413.1868	56054.9	55266.85
811.673	415.3675	55916.5	55123.25
811.8166	417.5477	55955.5	55165.1
811.9603	419.7273	55876.3	55082.85
812.104	421.9064	55750.3	54950.05
812.2477	424.0848	55873.7	55079.3
812.3914	426.2627	56150.55	55353.85
812.5351	428.4399	55511.6	54712.5
812.6788	430.6166	55060.05	54257.65
812.8226	432.7928	55626.95	54824.85
812.9663	434.9683	55109.6	54306.35
813.1101	437.1432	55124.85	54323.35
813.2539	439.3176	55451.9	54652.55
813.3977	441.4914	54733.85	53933.4
813.5415	443.6645	54860.5	54058.35
813.6853	445.8371	54836.15	54033.75
813.8291	448.0091	54535.5	53730.95
813.973	450.1806	54414.05	53612.1
814.1168	452.3514	54404.1	53599.35
814.2607	454.5216	54164.3	53351.8
814.4046	456.6913	54349.4	53541.6
814.5485	458.8603	54489.9	53683.25
814.6924	461.0288	54134.95	53330.95
814.8363	463.1967	54456	53651.75
814.9802	465.3639	54435.35	53626.7
815.1241	467.5306	53693.75	52886.9
815.2681	469.6967	54046.25	53241.1
815.412	471.8622	54196.9	53392.2
815.556	474.0271	53957.35	53151.45
815.7	476.1914	54035.2	53223.95
815.844	478.3551	54056.85	53247.9
815.988	480.5182	54442	53632.2
816.132	482.6807	53892.3	53084.9
816.276	484.8426	53977.95	53172.65
816.4201	487.0039	54449.3	53640.95
816.5641	489.1647	54399.2	53587.6
816.7082	491.3248	53904.85	53091.15
816.8522	493.4843	54527.4	53717.7
816.9963	495.6432	54496.3	53684.15
817.1404	497.8015	53772.15	52952.45
817.2845	499.9592	54181.05	53361.35
817.4286	502.1163	54126.05	53306.1
817.5727	504.2728	54070.15	53252
817.7168	506.4287	54064.05	53250.75
817.861	508.5839	53711.1	52896.65
818.0051	510.7386	53957.9	53142.4
818.1493	512.8927	54035.65	53212.7
818.2935	515.0461	53861.75	53039.05
818.4377	517.199	54225.3	53402.35
818.5818	519.3512	53982.45	53160.4
818.726	521.5029	53838.45	53010.95
818.8703	523.6539	53985.25	53159.1
819.0145	525.8043	53554.95	52730.1
819.1587	527.9541	53845.2	53015.45
819.303	530.1033	53790.7	52962.6
819.4472	532.2519	53545.9	52718
819.5915	534.3999	53772.55	52943.15
819.7357	536.5472	53955.7	53125.65
819.88	538.694	53388.35	52562.35
820.0243	540.8401	53734.75	52906.3
820.1686	542.9856	53668.15	52834
820.3129	545.1305	53813.4	52977.55
820.4572	547.2748	53523.75	52686.1
820.6016	549.4185	53537.4	52698.45
820.7459	551.5615	53766.9	52930.55
820.8902	553.704	53680.7	52846.65
821.0346	555.8458	53415.4	52586.3
821.1789	557.987	53470.45	52639.35
821.3233	560.1276	53644.75	52811.25
821.4677	562.2675	53530.4	52693.95
821.6121	564.4069	53493.4	52661.35
821.7565	566.5456	53731.95	52899.1
821.9009	568.6837	53368.25	52535.75
822.0453	570.8212	53439.75	52606.15
822.1897	572.958	52899.25	52063.3
822.3342	575.0942	53286.25	52451.75
822.4786	577.2299	52839.5	52004.3
822.6231	579.3648	52762.75	51934.5
822.7675	581.4992	52544.25	51717.4
822.912	583.6329	52453.25	51625.25
823.0565	585.766	52431.8	51600.45
823.201	587.8985	52535.05	51702.55
823.3454	590.0304	51999.15	51148.4
823.4899	592.1616	52366.4	51524
823.6345	594.2922	52078.8	51235.6
823.779	596.4222	51843.8	51000.65
823.9235	598.5515	51872.9	51029.4
824.068	600.6802	51969.5	51127.25
824.2126	602.8083	51553.3	50710.7
824.3571	604.9358	51553.35	50710.45
824.5017	607.0626	51709.05	50866.05
824.6462	609.1888	51272.75	50423.45
824.7908	611.3144	51596.9	50747.7
824.9354	613.4393	51320.4	50470.9
825.08	615.5636	51219.45	50368.95
825.2246	617.6873	51396.2	50547.25
825.3692	619.8103	51157.15	50310.15
825.5138	621.9327	51358.45	50508.15
825.6584	624.0544	51406.7	50561.65
825.803	626.1756	51197.2	50350.7
825.9477	628.2961	51167.3	50317.25
826.0923	630.4159	50951.25	50102.4
826.237	632.5351	50923.15	50071.9
826.3816	634.6537	51217.65	50365.5
826.5263	636.7716	50763.35	49909.85
826.6709	638.8889	50895.65	50040.65
826.8156	641.0056	50827.1	49973.9
826.9603	643.1216	50842.55	49986.7
827.105	645.237	51064.2	50210.2
827.2497	647.3518	50676.1	49828.95
827.3944	649.4659	50726.65	49878.95
827.5391	651.5793	50755.5	49904.3
827.6838	653.6922	50764.8	49916.3
827.8285	655.8043	50464.35	49611.7
827.9733	657.9159	50880.95	50028.35
828.118	660.0268	50011.7	49158.2
828.2627	662.137	50351.6	49495
828.4075	664.2466	50436.1	49578.95
828.5522	666.3556	50300.85	49443.9
828.697	668.4639	50317.95	49460.2
828.8418	670.5716	50191.6	49338.2
828.9865	672.6786	50254.25	49397.3
829.1313	674.785	49919.2	49060.5
829.2761	676.8907	49867.95	49009.95
829.4209	678.9958	49932.9	49077.55
829.5657	681.1002	49965.8	49107.8
829.7105	683.204	49631	48767.25
829.8553	685.3072	49511.8	48650.15
830.0001	687.4097	49594.3	48735.4
830.1449	689.5115	49530.95	48669.4
830.2898	691.6127	49675.35	48815.25
830.4346	693.7132	49446.1	48586.8
830.5794	695.8131	49526.6	48644.9
830.7243	697.9123	49541.3	48678.45
830.8691	700.0109	49527.9	48665.7
831.014	702.1089	49158.55	48295.9
831.1588	704.2061	49287.85	48424.1
831.3037	706.3028	49313.1	48448.15
831.4486	708.3987	49271.85	48405.65
831.5935	710.4941	49186.15	48322.2
831.7383	712.5887	49209.3	48346
831.8832	714.6827	49095.15	48230.4
832.0281	716.7761	49184.4	48323.7
832.173	718.8688	49224.3	48360.3
832.3179	720.9608	48962.5	48093.2
832.4628	723.0522	49013.8	48142.45
832.6077	725.1429	48797.9	47928.25
832.7527	727.233	49186.7	48318.75
832.8976	729.3224	48669.05	47802.15
833.0425	731.4112	48769.4	47901.2
833.1874	733.4993	48729.55	47861.65
833.3324	735.5867	48646.2	47780.7
833.4773	737.6735	48459.9	47590.7
833.6222	739.7596	48267.1	47394.45
833.7672	741.845	48196.05	47327.3
833.9122	743.9298	48268.7	47396.6
834.0571	746.014	48052.55	47184.1
834.2021	748.0974	47862.6	46991
834.347	750.1802	47982.65	47110.85
834.492	752.2624	47552.7	46683.3
834.637	754.3439	47532.75	46658.05
834.782	756.4247	47570.9	46690.5
834.9269	758.5048	47266.4	46395.9
835.0719	760.5843	47300.3	46426.15
835.2169	762.6631	47255.35	46379.75
835.3619	764.7413	47125.55	46253.05
835.5069	766.8188	47211.25	46338.4
835.6519	768.8956	47160.6	46283.65
835.7969	770.9718	47167.45	46290.15
835.9419	773.0473	47020.8	46146.85
836.0869	775.1221	46874.55	46001.45
836.232	777.1962	46763.15	45891.95
836.377	779.2697	46581.15	45707.35
836.522	781.3426	46623.1	45728.3
836.667	783.4147	46529.75	45652.8
836.8121	785.4862	46496.5	45622.2
836.9571	787.557	46318.15	45442.15
837.1021	789.6271	46288.15	45409.7
837.2472	791.6966	46058.45	45181.7
837.3922	793.7654	45862.45	44983.75
837.5373	795.8335	45888.85	45009.35
837.6823	797.901	45746.8	44873.3
837.8274	799.9678	45595.9	44715.75
837.9724	802.0339	45508.55	44632.1
838.1175	804.0993	45471.75	44582.95
838.2626	806.1641	45341.85	44463.2
838.4076	808.2282	45238.5	44362.6
838.5527	810.2916	45163.7	44284.4
838.6978	812.3544	45219.55	44344
838.8428	814.4164	44997.65	44120.4
838.9879	816.4778	45107.9	44229.85
839.133	818.5385	44925.2	44042.35
839.2781	820.5986	44886.95	44006.35
839.4232	822.658	44950.9	44067.1
839.5682	824.7166	44864.95	43985.75
839.7133	826.7747	44891.6	44012.25
839.8584	828.832	44904.25	44023.05
840.0035	830.8886	44817.35	43935.8
840.1486	832.9446	44780.75	43897.35
840.2937	834.9999	44530.9	43651.45
840.4388	837.0545	44549.95	43664.5
840.5839	839.1085	44459.85	43577.05
840.729	841.1618	44312.75	43428.3
840.8741	843.2143	44156.8	43276.4
841.0192	845.2662	44014.3	43133.25
841.1643	847.3175	44052.65	43170.25
841.3095	849.368	43843.75	42960.75
841.4546	851.4179	43814.2	42933.1
841.5997	853.467	43615.05	42735.45
841.7448	855.5155	43673.75	42790.2
841.8899	857.5633	43482.45	42598.9
842.0351	859.6105	43354.25	42468.8
842.1802	861.6569	43357.45	42473.1
842.3253	863.7027	43244.85	42359.7
842.4704	865.7478	43233.6	42348.2
842.6156	867.7922	43175.2	42289.9
842.7607	869.8359	43153.75	42265.5
842.9058	871.8789	43004.45	42118.8
843.0509	873.9212	43030.15	42117.05
843.1961	875.9629	42814.4	41929.7
843.3412	878.0039	42897.45	42011.85
843.4863	880.0441	42790.3	41904.7
843.6315	882.0837	42753.4	41867.8
843.7766	884.1226	42792.2	41904.65
843.9218	886.1609	42738.7	41853.25
844.0669	888.1984	42689.9	41806.25
844.212	890.2352	42844.3	41957.1
844.3572	892.2714	42680.35	41790.3
844.5023	894.3069	42688	41802.7
844.6475	896.3416	42453	41563.1
844.7926	898.3757	42417.05	41527.2
844.9377	900.4091	42335.2	41448.25
845.0829	902.4418	42298.3	41404
845.228	904.4739	42140.45	41250.4
845.3732	906.5052	42176.2	41286.25
845.5183	908.5358	42005.65	41116.7
845.6635	910.5658	41990.95	41099.6
845.8086	912.595	41873.65	40983.9
845.9538	914.6236	41695.95	40810.5
846.0989	916.6515	41686.4	40798.8
846.2441	918.6786	41504.45	40615.05
846.3892	920.7051	41546.4	40655.8
846.5344	922.7309	41537.1	40647.7
846.6795	924.756	41372.8	40486.2
846.8246	926.7804	41354.75	40463
846.9698	928.8041	41050.3	40160.4
847.1149	930.8272	41095.75	40207.55
847.2601	932.8495	40892.6	40001.35
847.4052	934.8711	40842.65	39952.2
847.5504	936.892	40696.25	39806.4
847.6955	938.9123	40546.65	39653.55
847.8407	940.9318	40506.05	39613.5
847.9858	942.9506	40383.9	39494.8
848.131	944.9688	40245.9	39355.55
848.2761	946.9862	40090.3	39200.1
848.4213	949.003	39931.5	39039.9
848.5664	951.019	39853.65	38963.25
848.7115	953.0344	39680.05	38790.1
848.8567	955.0491	39612.8	38723.5
849.0018	957.063	39620.1	38729.35
849.147	959.0763	39731.85	38843.6
849.2921	961.0888	39525.45	38631.8
849.4373	963.1007	39514.2	38624.1
849.5824	965.1119	39482.65	38593.35
849.7275	967.1223	39410.7	38524.25
849.8727	969.1321	39350	38465.4
850.0178	971.1412	39327.65	38442.2
850.1629	973.1495	39159.45	38268.45
850.3081	975.1572	39157.55	38233.25
850.4532	977.1641	39096.85	38206.45
850.5983	979.1704	38909.75	38015.8
850.7435	981.1759	38862.9	37968.75
850.8886	983.1808	38782.5	37885.9
851.0337	985.1849	38697	37793.95
851.1788	987.1884	38671.95	37776.4
851.324	989.1911	38599.8	37705.75
851.4691	991.1932	38471.05	37581.3
851.6142	993.1945	38312.2	37421.35
851.7593	995.1951	38152.95	37260.75
851.9045	997.1951	38121.55	37223.15
852.0496	999.1943	37976.3	37084.35
852.1947	1001.1928	37834.75	36941.55
852.3398	1003.1906	37635.35	36742.25
852.4849	1005.1877	37585.9	36689.5
852.63	1007.1841	37498.05	36604.6
852.7751	1009.1798	37372.65	36479
852.9202	1011.1748	37183.65	36290.95
853.0653	1013.1691	37103.2	36208.9
853.2104	1015.1627	36932	36037.9
853.3555	1017.1556	36687.9	35795
853.5006	1019.1477	36599.6	35707.2
853.6457	1021.1392	36407.35	35519.65
853.7908	1023.1299	36321.15	35430.8
853.9359	1025.12	36153.85	35264.55
854.081	1027.1093	35986	35102.75
854.2261	1029.0979	35934.15	35054.95
854.3712	1031.0859	35826.05	34940.7
854.5163	1033.0731	35703.9	34812.65
854.6613	1035.0596	35626	34734.1
854.8064	1037.0454	35381.3	34490.15
854.9515	1039.0304	35309.35	34418.5
855.0965	1041.0148	35194.1	34300.75
855.2416	1042.9985	35050.2	34158.1
855.3867	1044.9814	35062	34170.9
855.5317	1046.9636	34873.9	33977.8
855.6768	1048.9452	34713.05	33822.4
855.8219	1050.926	34696.1	33805.95
855.9669	1052.9061	34593.8	33698.35
856.112	1054.8855	34497.9	33604.4
856.257	1056.8642	34527.85	33633.55
856.4021	1058.8421	34504.1	33606.7
856.5471	1060.8194	34363.3	33469.5
856.6921	1062.7959	34269.55	33376.45
856.8372	1064.7717	34233.05	33339.95
856.9822	1066.7469	34171.55	33276.95
857.1272	1068.7213	34099.3	33202.4
857.2723	1070.695	34066.7	33174.65
857.4173	1072.6679	33905.65	33010.75
857.5623	1074.6402	33913.55	33017.95
857.7073	1076.6117	33881.95	32982.65
857.8523	1078.5826	33816.65	32919.75
857.9973	1080.5527	33676.35	32780.6
858.1423	1082.5221	33581.95	32686.8
858.2873	1084.4908	33482.4	32588.55
858.4323	1086.4587	33399.75	32502.85
858.5773	1088.426	33340.05	32445.1
858.7223	1090.3925	33210.25	32308.7
858.8673	1092.3584	33220.6	32325.15
859.0123	1094.3235	33075.95	32182.8
859.1573	1096.2879	33002.35	32108.25
859.3022	1098.2515	32948.15	32052.45
859.4472	1100.2145	32971.6	32077
859.5922	1102.1767	32859	31964.3
859.7371	1104.1382	32835.15	31941.65
859.8821	1106.099	32785.35	31888
860.027	1108.0591	32728.45	31832.25
860.172	1110.0185	32649	31752.65
860.3169	1111.9771	32676.25	31780.25
860.4619	1113.9351	32493.3	31598.1
860.6068	1115.8923	32449.15	31550.2
860.7517	1117.8488	32332.15	31435.15
860.8967	1119.8045	32100.55	31205.7
861.0416	1121.7596	32106.15	31210.15
861.1865	1123.7139	31878.95	30984.6
861.3314	1125.6675	31814.45	30920.85
861.4763	1127.6204	31901.8	31007.05
861.6212	1129.5726	31748.05	30849.2
861.7661	1131.524	31737.6	30843.95
861.911	1133.4748	31637.6	30741.25
862.0559	1135.4248	31515.2	30618.55
862.2008	1137.3741	31438.2	30540.7
862.3457	1139.3226	31321.35	30423.8
862.4905	1141.2705	31326.8	30429.35
862.6354	1143.2176	31159.4	30257.6
862.7803	1145.164	31130.7	30231.55
862.9251	1147.1097	31056.85	30163.55
863.07	1149.0546	31017.05	30120.3
863.2148	1150.9989	30943.65	30047.05
863.3597	1152.9424	30959.25	30062.45
863.5045	1154.8852	30844.65	29945.85
863.6493	1156.8272	30838.3	29940.15
863.7942	1158.7686	30787.4	29884.3
863.939	1160.7092	30657.4	29759.65
864.0838	1162.6491	30538.05	29638.55
864.2286	1164.5883	30544.6	29649.35
864.3734	1166.5267	30508.25	29609.8
864.5182	1168.4644	30503.95	29609.15
864.663	1170.4014	30448.1	29546.6
864.8078	1172.3377	30533.2	29638.3
864.9526	1174.2732	30501.8	29606.95
865.0974	1176.2081	30600.2	29704.3
865.2421	1178.1421	30620.65	29721.05
865.3869	1180.0755	30618.6	29723.55
