Software Version:	3.9.2.0
Unit SN:	10000200
Spectrometer SN:	6960
Date:	3/6/2024 9:32:33 AM
Data Line Index:	25
Spectral Points:	2048
Integration time (ms):	125
Averages:	20
Delay (ms):	30
Sequence Number:	1
Processing:	dark subtract
Laser Power (mW):	300
Laser Current (mA):	824
Laser Diode Temp (C):	25.1
Laser Case Temp (C):	23.6
System Temp (C):	23.4
Spectrometer Temp (C):	21.1
CCD Temp (C):	-0.021
Secondary Temp (C):	20.004
Heatsink Temp (C):	17.713
CCDPCB Temp (C):	30.049
SecondaryPCB Temp (C):	25.38

Wavelength	RamanShift	Raw Counts	Dark Subtracted
787.061	30.1047	528.65	122.6
787.2016	32.3739	531.9	125.9
787.3422	34.6426	539.3	133.5
787.4828	36.9109	551.4	142.5
787.6235	39.1787	560.7	149.2
787.7642	41.4461	573.8	155.35
787.9049	43.7131	592.4	171.85
788.0456	45.9796	601	177.4
788.1863	48.2456	616.05	188.85
788.3271	50.5112	629.95	199.8
788.4679	52.7764	644.55	210.55
788.6087	55.0411	662.4	225.45
788.7496	57.3054	678.15	235.25
788.8904	59.5692	690.85	247.1
789.0313	61.8326	712.45	267.3
789.1722	64.0955	733.6	285.9
789.3132	66.3579	758.5	303.75
789.4541	68.6199	791.15	332.65
789.5951	70.8815	847.65	385.5
789.7361	73.1426	970	502.35
789.8771	75.4032	1269.85	801.35
790.0181	77.6634	2041.15	1568.2
790.1592	79.9231	3869.45	3394.2
790.3003	82.1824	7861.55	7381.35
790.4414	84.4412	14937.5	14447.25
790.5825	86.6995	24478.45	23980.7
790.7237	88.9574	33577.7	33069
790.8648	91.2148	40120.9	39609.8
791.006	93.4717	43350.9	42833.75
791.1472	95.7282	44783.25	44265.2
791.2885	97.9842	45403.85	44882.55
791.4297	100.2398	45816.25	45292.8
791.571	102.4949	45520.55	44995.8
791.7123	104.7495	46003.15	45469.95
791.8536	107.0036	45665.2	45132.85
791.9949	109.2573	46361.9	45829.8
792.1363	111.5105	45715.35	45180.5
792.2777	113.7632	46276.7	45741.65
792.4191	116.0154	46332	45785.45
792.5605	118.2672	46714.05	46174.5
792.7019	120.5185	46675.75	46133.85
792.8434	122.7693	46731.25	46183.05
792.9849	125.0197	46548.25	45996.75
793.1264	127.2696	47202.25	46647.95
793.2679	129.519	47363.15	46805.15
793.4094	131.7679	47769.4	47209.5
793.551	134.0163	46628.2	46068.35
793.6926	136.2642	47228.9	46663.8
793.8342	138.5117	47988.65	47420.75
793.9758	140.7587	47742.8	47174.75
794.1175	143.0052	47892.2	47321.2
794.2591	145.2512	47356.1	46784.75
794.4008	147.4967	48080.3	47506.1
794.5425	149.7417	47800.2	47222.6
794.6842	151.9863	47954.2	47373.45
794.826	154.2304	47267.45	46684.35
794.9677	156.4739	47898.15	47305.95
795.1095	158.717	48198.5	47608.45
795.2513	160.9596	48074.85	47477.9
795.3931	163.2017	47540.15	46942.8
795.535	165.4433	48275.45	47677
795.6768	167.6844	47943.4	47341.95
795.8187	169.925	48318.7	47711.4
795.9606	172.1651	48176.5	47568.65
796.1025	174.4047	47977.45	47362.85
796.2445	176.6439	48256	47640.9
796.3864	178.8825	48329.75	47712.6
796.5284	181.1206	48529.75	47910.1
796.6704	183.3582	48598.65	47977.15
796.8124	185.5954	48106.85	47483.5
796.9544	187.832	48463.65	47834.35
797.0965	190.0681	48240.05	47606.65
797.2386	192.3037	48898.95	48263
797.3806	194.5388	49530.55	48890.9
797.5228	196.7734	48198.95	47560.65
797.6649	199.0075	49284.7	48645.25
797.807	201.2411	49120.35	48478.8
797.9492	203.4742	49730.5	49086.35
798.0914	205.7068	49765.15	49118.6
798.2336	207.9389	49743.75	49097.6
798.3758	210.1704	49604.25	48963.85
798.518	212.4015	50267.9	49634.25
798.6603	214.632	49379.1	48752.45
798.8025	216.862	50214	49586
798.9448	219.0915	50261.25	49633.35
799.0871	221.3205	49871.2	49237.75
799.2294	223.549	50469	49840.75
799.3718	225.777	50509.4	49882.25
799.5141	228.0044	50563.3	49928.7
799.6565	230.2314	50584.4	49945.2
799.7989	232.4578	50527.7	49885.65
799.9413	234.6837	50567.05	49913.2
800.0837	236.909	51710.6	51057.75
800.2262	239.1339	50233.15	49557.5
800.3687	241.3582	50896.45	50234.55
800.5111	243.582	50855.15	50163.3
800.6536	245.8053	51085.4	50405.45
800.7961	248.0281	51014.15	50338.2
800.9387	250.2503	51344	50668.05
801.0812	252.472	51097	50417.55
801.2238	254.6932	51148.35	50469.8
801.3664	256.9139	51103.6	50422.7
801.509	259.134	52167.9	51482.3
801.6516	261.3536	50771.5	50090.6
801.7942	263.5727	51855.15	51171
801.9369	265.7912	51344.4	50662.75
802.0795	268.0092	51532.35	50846.4
802.2222	270.2267	51565.05	50877.6
802.3649	272.4436	51298.05	50613.2
802.5076	274.6601	51667.55	50968
802.6504	276.8759	51902.7	51208.25
802.7931	279.0913	51936.75	51241
802.9359	281.3061	51729.8	51033.65
803.0787	283.5204	52040.8	51344.15
803.2215	285.7341	51875.6	51173.25
803.3643	287.9473	52540.75	51829.6
803.5071	290.16	51947.75	51240
803.6499	292.3721	52606.3	51908.75
803.7928	294.5837	51705.1	51004.05
803.9357	296.7947	51481.5	50778.75
804.0786	299.0052	52100.65	51397.6
804.2215	301.2152	51645.7	50940.95
804.3644	303.4246	52362.75	51661.35
804.5074	305.6334	52265	51562.3
804.6503	307.8418	51552.4	50844.2
804.7933	310.0495	51922.9	51214.35
804.9363	312.2568	51758.75	51052.85
805.0793	314.4635	51649	50937.75
805.2223	316.6696	51774.7	51059.9
805.3653	318.8752	52220.35	51499.1
805.5084	321.0802	51093.1	50380.4
805.6514	323.2847	51460.9	50744.75
805.7945	325.4887	51600.05	50882.7
805.9376	327.692	51277.3	50558.75
806.0807	329.8949	51708.85	50988.6
806.2238	332.0972	51483.6	50761.2
806.367	334.2989	51749.2	51022.8
806.5101	336.5001	52258.15	51532.45
806.6533	338.7007	51440.85	50715
806.7965	340.9008	51723.75	50993
806.9397	343.1003	51727.7	50996.75
807.0829	345.2992	52065.3	51334.25
807.2261	347.4976	51543.5	50809.8
807.3693	349.6955	51695.1	50959.1
807.5126	351.8927	51430.6	50691.85
807.6559	354.0895	51776.1	51025.55
807.7991	356.2856	51638.05	50898.4
807.9424	358.4812	52043.15	51303.35
808.0857	360.6763	51580.95	50837.65
808.2291	362.8707	51670.55	50926.65
808.3724	365.0646	51579.7	50833.3
808.5158	367.258	51590.35	50841.45
808.6591	369.4508	51285.2	50534.4
808.8025	371.643	51676.65	50926
808.9459	373.8346	51586.55	50833.85
809.0893	376.0257	51504.5	50747.1
809.2327	378.2162	51345.75	50590.95
809.3762	380.4062	51049.4	50293.35
809.5196	382.5956	51167.35	50413.8
809.6631	384.7844	51244.7	50494.95
809.8066	386.9726	51277.8	50527.65
809.9501	389.1603	51428.6	50678.45
810.0936	391.3474	50868.4	50069.8
810.2371	393.5339	51381.75	50633.9
810.3806	395.7199	50730.5	49984.9
810.5241	397.9052	50803.2	50053.45
810.6677	400.09	50967.15	50216.05
810.8113	402.2743	51081.35	50330.4
810.9548	404.4579	50975.85	50220
811.0984	406.641	50804.55	50048
811.2421	408.8235	51093.25	50334.6
811.3857	411.0054	51004.7	50242.8
811.5293	413.1868	51017.1	50255.45
811.673	415.3675	51067.25	50298.7
811.8166	417.5477	51075.85	50310.05
811.9603	419.7273	50988.6	50218.6
812.104	421.9064	50779.45	50003.05
812.2477	424.0848	50772.65	49999.7
812.3914	426.2627	50854.6	50083.15
812.5351	428.4399	50395.95	49622.85
812.6788	430.6166	50193.95	49419
812.8226	432.7928	50366.75	49590.5
812.9663	434.9683	49998.65	49219.8
813.1101	437.1432	50058.15	49278.45
813.2539	439.3176	50100.35	49323.65
813.3977	441.4914	49684.2	48905.95
813.5415	443.6645	49795.35	49015.55
813.6853	445.8371	49662.95	48883.2
813.8291	448.0091	49365.9	48586.35
813.973	450.1806	49350.75	48571.9
814.1168	452.3514	49143.85	48360.55
814.2607	454.5216	49125.1	48332.65
814.4046	456.6913	49010.8	48225.9
814.5485	458.8603	49072.95	48288.25
814.6924	461.0288	48945.25	48162.65
814.8363	463.1967	48950.8	48168.65
814.9802	465.3639	49048.55	48264.9
815.1241	467.5306	48678.2	47890.85
815.2681	469.6967	48717.05	47930.85
815.412	471.8622	48587.8	47802
815.556	474.0271	48587.15	47801.25
815.7	476.1914	48556.9	47768.1
815.844	478.3551	48508.9	47721.65
815.988	480.5182	48778.5	47991.6
816.132	482.6807	48574.1	47785.8
816.276	484.8426	48641.7	47851.85
816.4201	487.0039	48836.4	48044.5
816.5641	489.1647	48798.35	48007.75
816.7082	491.3248	48639.15	47849.45
816.8522	493.4843	48812.45	48021.95
816.9963	495.6432	48839.05	48044.55
817.1404	497.8015	48496.1	47700.55
817.2845	499.9592	48638.8	47844.45
817.4286	502.1163	48487.1	47689.15
817.5727	504.2728	48377.15	47578.9
817.7168	506.4287	48461.95	47667.3
817.861	508.5839	48274.8	47478.35
818.0051	510.7386	48275.7	47478.45
818.1493	512.8927	48363.35	47556.15
818.2935	515.0461	48363.35	47564.25
818.4377	517.199	48314.85	47514.8
818.5818	519.3512	48336.65	47534.65
818.726	521.5029	48258.85	47452.6
818.8703	523.6539	48277.8	47475.15
819.0145	525.8043	48049.2	47246.35
819.1587	527.9541	48149.65	47344.25
819.303	530.1033	48025.9	47221.6
819.4472	532.2519	47901.5	47098.2
819.5915	534.3999	47922.8	47118.3
819.7357	536.5472	47916.45	47109.9
819.88	538.694	47777.55	46973.1
820.0243	540.8401	47866.35	47058.05
820.1686	542.9856	47894.1	47086.25
820.3129	545.1305	47745	46934.6
820.4572	547.2748	47773.4	46961.65
820.6016	549.4185	47763.5	46950.45
820.7459	551.5615	47750.6	46939.35
820.8902	553.704	47737.75	46927.9
821.0346	555.8458	47556.35	46745.05
821.1789	557.987	47605.15	46795.7
821.3233	560.1276	47634.3	46823.2
821.4677	562.2675	47599.8	46791.15
821.6121	564.4069	47578.75	46768.7
821.7565	566.5456	47576.55	46766.55
821.9009	568.6837	47438.35	46626.3
822.0453	570.8212	47345.85	46533.2
822.1897	572.958	47149.4	46333.95
822.3342	575.0942	47088.6	46275.05
822.4786	577.2299	46880.5	46067.35
822.6231	579.3648	46814.95	46000.7
822.7675	581.4992	46588.4	45773.95
822.912	583.6329	46439.05	45624.6
823.0565	585.766	46398.4	45586.05
823.201	587.8985	46314.9	45500.75
823.3454	590.0304	46195.3	45366.35
823.4899	592.1616	46165.9	45345.35
823.6345	594.2922	46066	45246.35
823.779	596.4222	45993.3	45172.25
823.9235	598.5515	45848.15	45024.35
824.068	600.6802	45747.95	44925.45
824.2126	602.8083	45515.1	44694.75
824.3571	604.9358	45536.3	44714.35
824.5017	607.0626	45406.9	44584.9
824.6462	609.1888	45283.65	44460.45
824.7908	611.3144	45232.85	44410.15
824.9354	613.4393	45202.55	44378.75
825.08	615.5636	45212.9	44389.05
825.2246	617.6873	45251.25	44427
825.3692	619.8103	45269.9	44442.95
825.5138	621.9327	45126.6	44299.75
825.6584	624.0544	45091.85	44268.1
825.803	626.1756	45074.7	44248.15
825.9477	628.2961	44942.15	44115.25
826.0923	630.4159	44781.25	43953.95
826.237	632.5351	44799.05	43972.1
826.3816	634.6537	44691.4	43863.05
826.5263	636.7716	44652.05	43823.4
826.6709	638.8889	44642.9	43812.7
826.8156	641.0056	44700.55	43873.3
826.9603	643.1216	44618.15	43786.05
827.105	645.237	44658.3	43827.65
827.2497	647.3518	44535.25	43707.3
827.3944	649.4659	44554.6	43725.9
827.5391	651.5793	44427.95	43596.85
827.6838	653.6922	44370.65	43540.8
827.8285	655.8043	44297.9	43467.05
827.9733	657.9159	44320.7	43487.4
828.118	660.0268	44098.65	43264.75
828.2627	662.137	44036.95	43202.85
828.4075	664.2466	44089.35	43254.75
828.5522	666.3556	43965.1	43130.85
828.697	668.4639	43825.75	42988.4
828.8418	670.5716	43859.6	43025.55
828.9865	672.6786	43897.35	43061.8
829.1313	674.785	43656.05	42820.35
829.2761	676.8907	43506.75	42670.25
829.4209	678.9958	43559.35	42723.85
829.5657	681.1002	43430.25	42591.25
829.7105	683.204	43348.8	42506.8
829.8553	685.3072	43290.45	42452.35
830.0001	687.4097	43204.15	42368.15
830.1449	689.5115	43199.75	42361.8
830.2898	691.6127	43222.35	42383.95
830.4346	693.7132	43067.25	42226.6
830.5794	695.8131	43115.55	42256.6
830.7243	697.9123	43103.65	42262.9
830.8691	700.0109	43047.95	42206.5
831.014	702.1089	42971.15	42133.5
831.1588	704.2061	42894.05	42052.8
831.3037	706.3028	42866.3	42021.9
831.4486	708.3987	42883	42042.8
831.5935	710.4941	42738.9	41896.7
831.7383	712.5887	42753.55	41911.9
831.8832	714.6827	42706.2	41857.85
832.0281	716.7761	42709.6	41867.65
832.173	718.8688	42678.95	41836.9
832.3179	720.9608	42579.4	41732.5
832.4628	723.0522	42604.15	41756.65
832.6077	725.1429	42484.75	41640.4
832.7527	727.233	42462.1	41616.15
832.8976	729.3224	42478.8	41633.45
833.0425	731.4112	42407.3	41560.1
833.1874	733.4993	42306.7	41460.7
833.3324	735.5867	42193.65	41347.4
833.4773	737.6735	42062.75	41214.6
833.6222	739.7596	41931.15	41083.8
833.7672	741.845	41864.8	41018.5
833.9122	743.9298	41790.75	40941.75
834.0571	746.014	41688.2	40842.65
834.2021	748.0974	41621.95	40771.35
834.347	750.1802	41525.3	40676.75
834.492	752.2624	41380.4	40532.15
834.637	754.3439	41219.65	40369.75
834.782	756.4247	41111.8	40251.1
834.9269	758.5048	41002.4	40152.2
835.0719	760.5843	40914.95	40063.75
835.2169	762.6631	40801	39949.7
835.3619	764.7413	40762.05	39913.95
835.5069	766.8188	40832.4	39979.6
835.6519	768.8956	40766.1	39912.05
835.7969	770.9718	40758.7	39909.35
835.9419	773.0473	40597.3	39746.8
836.0869	775.1221	40533.45	39683.2
836.232	777.1962	40340	39488.25
836.377	779.2697	40360.15	39506.2
836.522	781.3426	40333.6	39463.3
836.667	783.4147	40263.3	39411.05
836.8121	785.4862	40215.7	39365.05
836.9571	787.557	40071	39218.55
837.1021	789.6271	39959.25	39106
837.2472	791.6966	39774.6	38922.4
837.3922	793.7654	39602.45	38748.05
837.5373	795.8335	39606.15	38753.2
837.6823	797.901	39394.35	38540.45
837.8274	799.9678	39366.35	38509.25
837.9724	802.0339	39248.15	38396.45
838.1175	804.0993	39292.9	38429.7
838.2626	806.1641	39116	38261.3
838.4076	808.2282	38991.4	38136.35
838.5527	810.2916	38990.15	38132.35
838.6978	812.3544	38975.05	38120.35
838.8428	814.4164	38844.95	37991.35
838.9879	816.4778	38937.8	38080.25
839.133	818.5385	38755.95	37900.25
839.2781	820.5986	38728.7	37874.65
839.4232	822.658	38743	37881.75
839.5682	824.7166	38660.65	37803.9
839.7133	826.7747	38801.25	37944.35
839.8584	828.832	38758.35	37900.25
840.0035	830.8886	38571.05	37712.55
840.1486	832.9446	38637.9	37779.7
840.2937	834.9999	38508.05	37653.85
840.4388	837.0545	38425.35	37562.25
840.5839	839.1085	38327.35	37468.55
840.729	841.1618	38222.7	37360.9
840.8741	843.2143	38097.45	37239.65
841.0192	845.2662	37932.5	37075.15
841.1643	847.3175	37857.95	37001.05
841.3095	849.368	37753.2	36895.1
841.4546	851.4179	37768.1	36908.15
841.5997	853.467	37603.2	36743.85
841.7448	855.5155	37511.5	36654.3
841.8899	857.5633	37506.45	36649
842.0351	859.6105	37322.35	36461.6
842.1802	861.6569	37309.7	36449.95
842.3253	863.7027	37209.4	36347.8
842.4704	865.7478	37189.05	36328.35
842.6156	867.7922	37208.15	36344
842.7607	869.8359	37029.6	36168.35
842.9058	871.8789	37059.15	36197.45
843.0509	873.9212	37043.25	36148.95
843.1961	875.9629	36817.85	35956.85
843.3412	878.0039	36846.25	35984.2
843.4863	880.0441	36815.8	35955.1
843.6315	882.0837	36815	35953.35
843.7766	884.1226	36740.55	35876.55
843.9218	886.1609	36715.05	35855.05
844.0669	888.1984	36770.75	35910.25
844.212	890.2352	36844.75	35982.5
844.3572	892.2714	36767.85	35901.2
844.5023	894.3069	36758.7	35893.15
844.6475	896.3416	36495.85	35631.7
844.7926	898.3757	36452.15	35586.7
844.9377	900.4091	36406.75	35544.2
845.0829	902.4418	36334	35462.95
845.228	904.4739	36193.25	35326.3
845.3732	906.5052	36173.1	35308.15
845.5183	908.5358	36083.5	35219.05
845.6635	910.5658	36004.15	35137.3
845.8086	912.595	35942.35	35076.7
845.9538	914.6236	35812.7	34949.3
846.0989	916.6515	35745.85	34881.4
846.2441	918.6786	35638.85	34771.8
846.3892	920.7051	35586.05	34719.1
846.5344	922.7309	35638.45	34774.65
846.6795	924.756	35493.75	34626.7
846.8246	926.7804	35490.45	34623.55
846.9698	928.8041	35202.9	34333.4
847.1149	930.8272	35232.5	34366.6
847.2601	932.8495	35054	34184.15
847.4052	934.8711	35047.75	34181.55
847.5504	936.892	34865.45	33996.2
847.6955	938.9123	34816.6	33948.35
847.8407	940.9318	34775.6	33908.75
847.9858	942.9506	34674.1	33805.85
848.131	944.9688	34516.75	33647.05
848.2761	946.9862	34442.75	33576.05
848.4213	949.003	34259.45	33391.8
848.5664	951.019	34159.35	33292.95
848.7115	953.0344	34100.65	33232.1
848.8567	955.0491	34071	33199.65
849.0018	957.063	34028.8	33160.05
849.147	959.0763	34036.5	33168.9
849.2921	961.0888	33911.95	33041.8
849.4373	963.1007	33862.8	32994.45
849.5824	965.1119	33863.35	32995.8
849.7275	967.1223	33805.25	32937.15
849.8727	969.1321	33716.3	32850.55
850.0178	971.1412	33645.35	32777.5
850.1629	973.1495	33562.15	32692.75
850.3081	975.1572	33524.8	32608.85
850.4532	977.1641	33528.45	32660.15
850.5983	979.1704	33346.15	32474.95
850.7435	981.1759	33234.05	32364.35
850.8886	983.1808	33223.95	32350.9
851.0337	985.1849	33138.05	32262.6
851.1788	987.1884	33064.95	32191.6
851.324	989.1911	32947.45	32076.65
851.4691	991.1932	32916.65	32046.45
851.6142	993.1945	32798.3	31927.35
851.7593	995.1951	32632.7	31762.75
851.9045	997.1951	32583.15	31709.4
852.0496	999.1943	32477	31605.1
852.1947	1001.1928	32335.65	31464.85
852.3398	1003.1906	32215.3	31344.75
852.4849	1005.1877	32205.8	31336.4
852.63	1007.1841	32053.7	31182.7
852.7751	1009.1798	31975.95	31104.7
852.9202	1011.1748	31833.9	30962.5
853.0653	1013.1691	31729.1	30856.25
853.2104	1015.1627	31641.75	30771.15
853.3555	1017.1556	31392.15	30520.45
853.5006	1019.1477	31337	30465.05
853.6457	1021.1392	31150.35	30280.25
853.7908	1023.1299	31064.45	30192
853.9359	1025.12	30895.8	30021
854.081	1027.1093	30771.6	29902.15
854.2261	1029.0979	30732.65	29865
854.3712	1031.0859	30632.6	29763.5
854.5163	1033.0731	30552.85	29680.5
854.6613	1035.0596	30457.4	29587.85
854.8064	1037.0454	30281.2	29409.45
854.9515	1039.0304	30249.65	29376.6
855.0965	1041.0148	30107.05	29233.55
855.2416	1042.9985	29980.4	29104.35
855.3867	1044.9814	29915	29043.65
855.5317	1046.9636	29775.35	28901.35
855.6768	1048.9452	29669.15	28796.3
855.8219	1050.926	29678.5	28805.25
855.9669	1052.9061	29589.9	28717.45
856.112	1054.8855	29536.4	28664.8
856.257	1056.8642	29488.7	28616.85
856.4021	1058.8421	29465.3	28589.5
856.5471	1060.8194	29353.9	28480.8
856.6921	1062.7959	29264.55	28390.3
856.8372	1064.7717	29220.95	28345.65
856.9822	1066.7469	29184	28311.3
857.1272	1068.7213	29103.7	28225.1
857.2723	1070.695	29044.2	28170.25
857.4173	1072.6679	28929.1	28054
857.5623	1074.6402	28955.45	28084.9
857.7073	1076.6117	28964.9	28086.15
857.8523	1078.5826	28870.65	27995.15
857.9973	1080.5527	28793.15	27915.75
858.1423	1082.5221	28632.75	27757.95
858.2873	1084.4908	28576.5	27702.45
858.4323	1086.4587	28484.7	27607.5
858.5773	1088.426	28429.05	27552.45
858.7223	1090.3925	28324.75	27446.5
858.8673	1092.3584	28289.9	27414.85
859.0123	1094.3235	28174.4	27301.55
859.1573	1096.2879	28089.8	27213.05
859.3022	1098.2515	28077	27201.95
859.4472	1100.2145	28083.25	27208.3
859.5922	1102.1767	27983.5	27104.55
859.7371	1104.1382	27975.4	27100.25
859.8821	1106.099	27943.3	27065.6
860.027	1108.0591	27911.35	27036.8
860.172	1110.0185	27872.85	26995.85
860.3169	1111.9771	27880.6	27007
860.4619	1113.9351	27776.55	26900
860.6068	1115.8923	27765.45	26890.7
860.7517	1117.8488	27747.25	26869.95
860.8967	1119.8045	27601.6	26727.35
861.0416	1121.7596	27515.15	26637.35
861.1865	1123.7139	27319.05	26444.4
861.3314	1125.6675	27209.7	26334.45
861.4763	1127.6204	27189.65	26313.6
861.6212	1129.5726	27095.2	26217.35
861.7661	1131.524	27084.15	26209.55
861.911	1133.4748	27041.6	26163.95
862.0559	1135.4248	26844.85	25966.55
862.2008	1137.3741	26776.5	25899.45
862.3457	1139.3226	26674.6	25797.25
862.4905	1141.2705	26706.9	25831.65
862.6354	1143.2176	26544.55	25660.65
862.7803	1145.164	26533.8	25655.4
862.9251	1147.1097	26499.2	25620.4
863.07	1149.0546	26440.05	25561.9
863.2148	1150.9989	26419.7	25542.95
863.3597	1152.9424	26392.95	25514.8
863.5045	1154.8852	26284.35	25406.3
863.6493	1156.8272	26262.15	25385.9
863.7942	1158.7686	26298.3	25414.85
863.939	1160.7092	26197.1	25318.4
864.0838	1162.6491	26122	25243.85
864.2286	1164.5883	26089.6	25212.6
864.3734	1166.5267	26031.9	25152.85
864.5182	1168.4644	25994.2	25117.4
864.663	1170.4014	25954.05	25071.5
864.8078	1172.3377	26026.8	25151.95
864.9526	1174.2732	25997	25119.45
865.0974	1176.2081	26073.55	25195.7
865.2421	1178.1421	26086.6	25204.6
865.3869	1180.0755	26180.7	25304.55
