Software Version:	3.9.2.0
Unit SN:	10000200
Spectrometer SN:	6960
Date:	3/6/2024 9:58:54 AM
Data Line Index:	25
Spectral Points:	2048
Integration time (ms):	125
Averages:	20
Delay (ms):	30
Sequence Number:	1
Processing:	dark subtract
Laser Power (mW):	300
Laser Current (mA):	826
Laser Diode Temp (C):	25.1
Laser Case Temp (C):	24.6
System Temp (C):	24.4
Spectrometer Temp (C):	22
CCD Temp (C):	-0.003
Secondary Temp (C):	20.023
Heatsink Temp (C):	18.314
CCDPCB Temp (C):	31.094
SecondaryPCB Temp (C):	26.025

Wavelength	RamanShift	Raw Counts	Dark Subtracted
787.061	30.1047	649.2	240
787.2016	32.3739	658.8	252.8
787.3422	34.6426	668.45	261.25
787.4828	36.9109	682.05	271
787.6235	39.1787	710.35	297.55
787.7642	41.4461	733.5	313.3
787.9049	43.7131	755.05	331.55
788.0456	45.9796	779.05	354.5
788.1863	48.2456	798.45	370.65
788.3271	50.5112	833	402
788.4679	52.7764	852.95	417.45
788.6087	55.0411	882.55	444.65
788.7496	57.3054	914.35	469.85
788.8904	59.5692	941.4	495.85
789.0313	61.8326	975.5	527.85
789.1722	64.0955	1014.4	563.4
789.3132	66.3579	1066.5	609.45
789.4541	68.6199	1121.7	662.6
789.5951	70.8815	1218.15	754.85
789.7361	73.1426	1434.2	965.75
789.8771	75.4032	1989.8	1517
790.0181	77.6634	3388.7	2912.85
790.1592	79.9231	6840.3	6360.7
790.3003	82.1824	16237.4	15749
790.4414	84.4412	30936.4	30432.15
790.5825	86.6995	44016.35	43495.05
790.7237	88.9574	52233.55	51694.8
790.8648	91.2148	57239.6	56691.05
791.006	93.4717	58588.7	58031.4
791.1472	95.7282	59180.65	58619.9
791.2885	97.9842	59461.25	58896.25
791.4297	100.2398	59494.4	58926.15
791.571	102.4949	59416.65	58847.55
791.7123	104.7495	59486.65	58908.6
791.8536	107.0036	59306.5	58731.9
791.9949	109.2573	59605.45	59031.45
792.1363	111.5105	59364.65	58789.3
792.2777	113.7632	59509	58932.1
792.4191	116.0154	59589	59000.45
792.5605	118.2672	59805.1	59223.2
792.7019	120.5185	59824.75	59239.05
792.8434	122.7693	59809.2	59220.9
792.9849	125.0197	59541.75	58950.25
793.1264	127.2696	60083.15	59488.05
793.2679	129.519	60015.05	59417.7
793.4094	131.7679	60263	59661.65
793.551	134.0163	59674.5	59069.95
793.6926	136.2642	59932	59322.85
793.8342	138.5117	60311.8	59700.1
793.9758	140.7587	60153.3	59543.6
794.1175	143.0052	60168.2	59553.55
794.2591	145.2512	59884.3	59269.4
794.4008	147.4967	60287.75	59669.5
794.5425	149.7417	60168.4	59547.45
794.6842	151.9863	60167.7	59543.55
794.826	154.2304	59931.25	59303.4
794.9677	156.4739	60155.4	59520.35
795.1095	158.717	60367.1	59729.85
795.2513	160.9596	60209.2	59570.95
795.3931	163.2017	59910.35	59270.3
795.535	165.4433	60250	59606.85
795.6768	167.6844	60033.85	59387.75
795.8187	169.925	60243.8	59595.8
795.9606	172.1651	60094.7	59445
796.1025	174.4047	60141.25	59487.95
796.2445	176.6439	60145.45	59491.1
796.3864	178.8825	60094.7	59436.5
796.5284	181.1206	60354.35	59691.3
796.6704	183.3582	60316.6	59650.45
796.8124	185.5954	60172.75	59504.2
796.9544	187.832	60227.35	59555.85
797.0965	190.0681	60037.55	59362.3
797.2386	192.3037	60415.1	59733.3
797.3806	194.5388	60811.25	60127.95
797.5228	196.7734	59931.1	59247.8
797.6649	199.0075	60731.3	60046.3
797.807	201.2411	60416.7	59731.2
797.9492	203.4742	60895.6	60204.8
798.0914	205.7068	60767.15	60075.7
798.2336	207.9389	60742.15	60051.35
798.3758	210.1704	60730.25	60046.85
798.518	212.4015	61044.2	60366.35
798.6603	214.632	60639.85	59962.4
798.8025	216.862	61063.95	60391
798.9448	219.0915	60892.7	60220
799.0871	221.3205	60840.5	60165.7
799.2294	223.549	61166.15	60492.45
799.3718	225.777	61152.25	60477.45
799.5141	228.0044	61313.85	60635.55
799.6565	230.2314	61174.8	60494.8
799.7989	232.4578	61148.1	60464
799.9413	234.6837	61220.2	60529
800.0837	236.909	61838.55	61144
800.2262	239.1339	61009.2	60289.2
800.3687	241.3582	61353.05	60648.75
800.5111	243.582	61382.2	60648.75
800.6536	245.8053	61387.25	60665.75
800.7961	248.0281	61416.95	60699.1
800.9387	250.2503	61549.9	60827.75
801.0812	252.472	61279	60552.55
801.2238	254.6932	61489.15	60766.7
801.3664	256.9139	61355.7	60629
801.509	259.134	61903.75	61178.1
801.6516	261.3536	61293	60565.8
801.7942	263.5727	61636.6	60909.2
801.9369	265.7912	61454.25	60729.1
802.0795	268.0092	61535.45	60809
802.2222	270.2267	61580.45	60849.5
802.3649	272.4436	61350.95	60620.6
802.5076	274.6601	61643.7	60904.65
802.6504	276.8759	61729.4	60991
802.7931	279.0913	61595.45	60860.55
802.9359	281.3061	61634.8	60898.25
803.0787	283.5204	61667.7	60926.5
803.2215	285.7341	61650.6	60906.2
803.3643	287.9473	61927.6	61169.95
803.5071	290.16	61705.75	60957.15
803.6499	292.3721	61848.1	61103.85
803.7928	294.5837	61585.1	60838.8
803.9357	296.7947	61457.8	60714.55
804.0786	299.0052	61875.75	61130.6
804.2215	301.2152	61679.8	60930.05
804.3644	303.4246	61888.6	61140.8
804.5074	305.6334	61886.95	61140.35
804.6503	307.8418	61579.05	60830.25
804.7933	310.0495	61605	60852.15
804.9363	312.2568	61535.95	60785.4
805.0793	314.4635	61527.75	60773.6
805.2223	316.6696	61688.8	60930.2
805.3653	318.8752	61836.75	61071.5
805.5084	321.0802	61284.1	60526.7
805.6514	323.2847	61523.95	60762.9
805.7945	325.4887	61531.4	60770.1
805.9376	327.692	61408.1	60643.45
806.0807	329.8949	61546.1	60779.85
806.2238	332.0972	61436.85	60669.8
806.367	334.2989	61544.6	60777.45
806.5101	336.5001	61735.15	60966
806.6533	338.7007	61306.05	60535.3
806.7965	340.9008	61555.75	60785.65
806.9397	343.1003	61575.4	60801.4
807.0829	345.2992	61734.1	60960.25
807.2261	347.4976	61486.65	60709.35
807.3693	349.6955	61595.25	60813.85
807.5126	351.8927	61455.8	60676.35
807.6559	354.0895	61630.15	60838.95
807.7991	356.2856	61586.85	60803.75
807.9424	358.4812	61746.15	60965.7
808.0857	360.6763	61410.65	60625.75
808.2291	362.8707	61700.15	60914.6
808.3724	365.0646	61536.9	60747.05
808.5158	367.258	61534.4	60742.8
808.6591	369.4508	61360.15	60564.9
808.8025	371.643	61689.35	60896.7
808.9459	373.8346	61516.05	60720.45
809.0893	376.0257	61513.95	60717.05
809.2327	378.2162	61448.6	60652
809.3762	380.4062	61249.75	60453.75
809.5196	382.5956	61418.95	60619.45
809.6631	384.7844	61397.3	60605.3
809.8066	386.9726	61502.35	60713.2
809.9501	389.1603	61528.55	60741
810.0936	391.3474	61281.35	60458.75
810.2371	393.5339	61525.75	60732.65
810.3806	395.7199	61172.5	60382
810.5241	397.9052	61235	60445.9
810.6677	400.09	61294.95	60501.75
810.8113	402.2743	61475.8	60683.6
810.9548	404.4579	61270.55	60478.75
811.0984	406.641	61254.05	60459.35
811.2421	408.8235	61356.4	60560.45
811.3857	411.0054	61409.45	60610.15
811.5293	413.1868	61439.4	60636.9
811.673	415.3675	61339.35	60531.15
811.8166	417.5477	61334.95	60529.6
811.9603	419.7273	61353.05	60543.1
812.104	421.9064	61262.2	60446.25
812.2477	424.0848	61314.7	60507.1
812.3914	426.2627	61506.45	60695.7
812.5351	428.4399	61183.45	60373.35
812.6788	430.6166	60957.8	60141.85
812.8226	432.7928	61221.7	60405.1
812.9663	434.9683	61006.4	60189.5
813.1101	437.1432	60987.6	60171.7
813.2539	439.3176	61174.9	60359.95
813.3977	441.4914	60807.55	59994.6
813.5415	443.6645	60882.75	60065.85
813.6853	445.8371	60873.25	60056.6
813.8291	448.0091	60739.4	59924.15
813.973	450.1806	60656.45	59840.65
814.1168	452.3514	60672.1	59852.5
814.2607	454.5216	60506.95	59679.85
814.4046	456.6913	60649.55	59830.05
814.5485	458.8603	60703.2	59886.5
814.6924	461.0288	60478.15	59659.85
814.8363	463.1967	60683.85	59866.8
814.9802	465.3639	60677.5	59855.65
815.1241	467.5306	60216.35	59394.7
815.2681	469.6967	60469.8	59651.75
815.412	471.8622	60580.65	59763.25
815.556	474.0271	60410.9	59590
815.7	476.1914	60455.45	59630
815.844	478.3551	60482.95	59658.2
815.988	480.5182	60699.85	59878.85
816.132	482.6807	60394.6	59575.2
816.276	484.8426	60458.35	59639.2
816.4201	487.0039	60728	59908.35
816.5641	489.1647	60695	59868.95
816.7082	491.3248	60390.9	59563.7
816.8522	493.4843	60713.2	59885.5
816.9963	495.6432	60719.55	59895.35
817.1404	497.8015	60328.35	59497.95
817.2845	499.9592	60565.15	59733.7
817.4286	502.1163	60571.55	59737.55
817.5727	504.2728	60525.45	59694.75
817.7168	506.4287	60496.25	59672.45
817.861	508.5839	60270.2	59443.35
818.0051	510.7386	60436.05	59605.4
818.1493	512.8927	60494.25	59658.1
818.2935	515.0461	60431.35	59597.4
818.4377	517.199	60568.4	59732.85
818.5818	519.3512	60419.5	59583.8
818.726	521.5029	60384.5	59544.1
818.8703	523.6539	60465.2	59627.9
819.0145	525.8043	60171.7	59333.75
819.1587	527.9541	60404.5	59565.15
819.303	530.1033	60387.7	59545.95
819.4472	532.2519	60260.45	59420.35
819.5915	534.3999	60386.6	59545
819.7357	536.5472	60492.3	59652.05
819.88	538.694	60124.75	59287.45
820.0243	540.8401	60356.3	59514.4
820.1686	542.9856	60368.4	59520.95
820.3129	545.1305	60450.1	59600.1
820.4572	547.2748	60266.3	59414.85
820.6016	549.4185	60249.35	59401.05
820.7459	551.5615	60415.05	59565.25
820.8902	553.704	60357.25	59508.15
821.0346	555.8458	60169.8	59324.9
821.1789	557.987	60225.8	59379.85
821.3233	560.1276	60291.65	59445.45
821.4677	562.2675	60223.9	59376.15
821.6121	564.4069	60244.2	59395.25
821.7565	566.5456	60361.65	59515.15
821.9009	568.6837	60110.4	59263.3
822.0453	570.8212	60201.8	59357.3
822.1897	572.958	59886.9	59037.85
822.3342	575.0942	60084.55	59238.15
822.4786	577.2299	59893.45	59047
822.6231	579.3648	59873.2	59032.3
822.7675	581.4992	59740.35	58903.7
822.912	583.6329	59693.8	58856.75
823.0565	585.766	59701.7	58860.05
823.201	587.8985	59791.65	58947.7
823.3454	590.0304	59442.75	58583.9
823.4899	592.1616	59629.95	58776.7
823.6345	594.2922	59520.05	58663.25
823.779	596.4222	59413.25	58557.2
823.9235	598.5515	59414.55	58556.7
824.068	600.6802	59456.2	58599.95
824.2126	602.8083	59208.9	58359.55
824.3571	604.9358	59248.9	58395.4
824.5017	607.0626	59364.45	58510.2
824.6462	609.1888	59125.1	58267.15
824.7908	611.3144	59257.6	58398.2
824.9354	613.4393	59109.65	58249.35
825.08	615.5636	59016.55	58155.3
825.2246	617.6873	59136.5	58280.8
825.3692	619.8103	59010.35	58151.7
825.5138	621.9327	59108.75	58245.7
825.6584	624.0544	59171.55	58314.5
825.803	626.1756	59057.85	58201.15
825.9477	628.2961	59034.9	58174.35
826.0923	630.4159	58921.15	58061.3
826.237	632.5351	58911	58050.15
826.3816	634.6537	59150.55	58286.2
826.5263	636.7716	58859.65	57996.55
826.6709	638.8889	58912.45	58048.9
826.8156	641.0056	58874.8	58009.15
826.9603	643.1216	58926.75	58060.15
827.105	645.237	59001.05	58134.95
827.2497	647.3518	58801.9	57939.95
827.3944	649.4659	58878	58019
827.5391	651.5793	58816.85	57956.85
827.6838	653.6922	58819.4	57958.05
827.8285	655.8043	58661.05	57798.2
827.9733	657.9159	58915.25	58051.35
828.118	660.0268	58456.05	57587.5
828.2627	662.137	58619.3	57752.75
828.4075	664.2466	58674.65	57803.85
828.5522	666.3556	58577.3	57709.35
828.697	668.4639	58623.2	57753.15
828.8418	670.5716	58587.75	57722.85
828.9865	672.6786	58608.9	57741.95
829.1313	674.785	58438.5	57568.55
829.2761	676.8907	58405.55	57536.7
829.4209	678.9958	58417.7	57553.85
829.5657	681.1002	58495.35	57628.05
829.7105	683.204	58336.45	57457.5
829.8553	685.3072	58250.3	57379.75
830.0001	687.4097	58249.9	57378.85
830.1449	689.5115	58263.45	57391.75
830.2898	691.6127	58318.55	57449.7
830.4346	693.7132	58183.1	57314.7
830.5794	695.8131	58267.95	57372.6
830.7243	697.9123	58223.25	57350.25
830.8691	700.0109	58248	57374.1
831.014	702.1089	58051.25	57177.7
831.1588	704.2061	58079.8	57207.45
831.3037	706.3028	58100.35	57224.75
831.4486	708.3987	58122.55	57250.05
831.5935	710.4941	58049.1	57177.05
831.7383	712.5887	58110.15	57238.8
831.8832	714.6827	58059.75	57181.4
832.0281	716.7761	58068.65	57194.5
832.173	718.8688	58064.15	57188.55
832.3179	720.9608	57951.5	57073.3
832.4628	723.0522	57985.7	57102.45
832.6077	725.1429	57882.2	57007.2
832.7527	727.233	58066.15	57187.65
832.8976	729.3224	57825.45	56949.1
833.0425	731.4112	57808.95	56927.15
833.1874	733.4993	57784.25	56904.1
833.3324	735.5867	57747.65	56869.7
833.4773	737.6735	57687.5	56806.35
833.6222	739.7596	57631.5	56753.65
833.7672	741.845	57573.35	56695.05
833.9122	743.9298	57606.95	56727.15
834.0571	746.014	57516	56640.15
834.2021	748.0974	57469.8	56587.9
834.347	750.1802	57517.7	56634.55
834.492	752.2624	57308.3	56425.45
834.637	754.3439	57285.05	56400.45
834.782	756.4247	57238.55	56344.95
834.9269	758.5048	57157.65	56276
835.0719	760.5843	57180.3	56301.5
835.2169	762.6631	57173.85	56289.6
835.3619	764.7413	57144.75	56264.05
835.5069	766.8188	57145.15	56263.25
835.6519	768.8956	57098.6	56217.05
835.7969	770.9718	57129.85	56247.1
835.9419	773.0473	57025.85	56145.25
836.0869	775.1221	56950	56068.2
836.232	777.1962	56928.65	56042.75
836.377	779.2697	56779.3	55894.05
836.522	781.3426	56766.1	55861.1
836.667	783.4147	56729.3	55845.4
836.8121	785.4862	56735.6	55851.3
836.9571	787.557	56644.2	55759.45
837.1021	789.6271	56667.65	55778.3
837.2472	791.6966	56565.2	55681
837.3922	793.7654	56388.8	55501.7
837.5373	795.8335	56396.9	55513.65
837.6823	797.901	56345.7	55462.65
837.8274	799.9678	56314.7	55424.55
837.9724	802.0339	56237.7	55351.35
838.1175	804.0993	56240.5	55345.45
838.2626	806.1641	56137.15	55247.45
838.4076	808.2282	56083.45	55197.15
838.5527	810.2916	56079.65	55191.9
838.6978	812.3544	56091.1	55208.7
838.8428	814.4164	55939	55056.15
838.9879	816.4778	55942.2	55053.15
839.133	818.5385	55899.95	55012.8
839.2781	820.5986	55933.95	55044.7
839.4232	822.658	55890.55	55000.8
839.5682	824.7166	55818.65	54930.3
839.7133	826.7747	55780.25	54890.3
839.8584	828.832	55810.1	54919.15
840.0035	830.8886	55823.35	54932.75
840.1486	832.9446	55764.3	54872.2
840.2937	834.9999	55513.1	54624.6
840.4388	837.0545	55589.5	54693.15
840.5839	839.1085	55663.75	54774
840.729	841.1618	55566.1	54672.85
840.8741	843.2143	55331.9	54440.95
841.0192	845.2662	55316.95	54425.85
841.1643	847.3175	55342.6	54450.3
841.3095	849.368	55061.35	54169.9
841.4546	851.4179	55286.15	54396.45
841.5997	853.467	55025.6	54132.5
841.7448	855.5155	55104.35	54212.4
841.8899	857.5633	54911	54020.65
842.0351	859.6105	54784.55	53892.2
842.1802	861.6569	54916.5	54023.75
842.3253	863.7027	54705.9	53810.15
842.4704	865.7478	54774	53880.05
842.6156	867.7922	54685.1	53792.3
842.7607	869.8359	54757.5	53863.9
842.9058	871.8789	54488.3	53594
843.0509	873.9212	54601.3	53675.8
843.1961	875.9629	54513.2	53617.15
843.3412	878.0039	54484.3	53590.6
843.4863	880.0441	54412.45	53518.35
843.6315	882.0837	54386.8	53495.5
843.7766	884.1226	54357.85	53463.85
843.9218	886.1609	54365	53472.75
844.0669	888.1984	54290.5	53396.8
844.212	890.2352	54500.8	53607.95
844.3572	892.2714	54230.9	53335.7
844.5023	894.3069	54347.65	53451.35
844.6475	896.3416	54131.85	53235.85
844.7926	898.3757	54117.75	53221.55
844.9377	900.4091	53840.85	52943.35
845.0829	902.4418	54101.6	53204.1
845.228	904.4739	53853.5	52953.85
845.3732	906.5052	53876.85	52980.55
845.5183	908.5358	53727.95	52830.2
845.6635	910.5658	53654.35	52753.2
845.8086	912.595	53666	52765.95
845.9538	914.6236	53363.4	52468.75
846.0989	916.6515	53666.75	52769.75
846.2441	918.6786	53254.45	52354.9
846.3892	920.7051	53342.85	52444.2
846.5344	922.7309	53271.95	52372.85
846.6795	924.756	53248.5	52352.65
846.8246	926.7804	53152.45	52254.6
846.9698	928.8041	52769.7	51872.8
847.1149	930.8272	52970.25	52074.05
847.2601	932.8495	52842.75	51942.7
847.4052	934.8711	52679.1	51781.6
847.5504	936.892	52525.7	51627.85
847.6955	938.9123	52558.8	51660.05
847.8407	940.9318	52432.15	51533.4
847.9858	942.9506	52340	51441.4
848.131	944.9688	52285.6	51385.6
848.2761	946.9862	52009.3	51111.95
848.4213	949.003	52031.35	51135.55
848.5664	951.019	51777.45	50880.15
848.7115	953.0344	51752.6	50855.2
848.8567	955.0491	51660.5	50760.1
849.0018	957.063	51721.55	50822.4
849.147	959.0763	51773.05	50874.15
849.2921	961.0888	51531.5	50631.7
849.4373	963.1007	51671.55	50774.65
849.5824	965.1119	51632.05	50735.6
849.7275	967.1223	51473.55	50579.85
849.8727	969.1321	51601.4	50710.35
850.0178	971.1412	51394.8	50498.75
850.1629	973.1495	51225	50329.6
850.3081	975.1572	51270.5	50336.35
850.4532	977.1641	51198.5	50299.1
850.5983	979.1704	51087.4	50186.55
850.7435	981.1759	51050.35	50148.85
850.8886	983.1808	50945	50046.35
851.0337	985.1849	50865.55	49955.2
851.1788	987.1884	50857.6	49952.3
851.324	989.1911	50913.8	50012.1
851.4691	991.1932	50631.7	49731.55
851.6142	993.1945	50613.65	49717.05
851.7593	995.1951	50535.2	49634.5
851.9045	997.1951	50424.45	49517.15
852.0496	999.1943	50249.25	49347.45
852.1947	1001.1928	50184.2	49283.6
852.3398	1003.1906	50174.85	49276.4
852.4849	1005.1877	49964.35	49065.95
852.63	1007.1841	49827.85	48929.05
852.7751	1009.1798	49767.35	48868.15
852.9202	1011.1748	49670.5	48771.95
853.0653	1013.1691	49589	48688.15
853.2104	1015.1627	49312.85	48412.65
853.3555	1017.1556	49243.4	48342.1
853.5006	1019.1477	49235.2	48337.3
853.6457	1021.1392	49018.4	48121.75
853.7908	1023.1299	48851.6	47955.45
853.9359	1025.12	48815	47919
854.081	1027.1093	48651.4	47761.2
854.2261	1029.0979	48605.3	47718.45
854.3712	1031.0859	48537.85	47648.45
854.5163	1033.0731	48382.75	47486.3
854.6613	1035.0596	48283.95	47384.95
854.8064	1037.0454	48157.7	47258.7
854.9515	1039.0304	48059.1	47157.5
855.0965	1041.0148	47915.1	47014.75
855.2416	1042.9985	47874.5	46971.75
855.3867	1044.9814	47853.3	46953.55
855.5317	1046.9636	47702	46799.65
855.6768	1048.9452	47586.6	46685.65
855.8219	1050.926	47493.15	46594.1
855.9669	1052.9061	47452.65	46555.9
856.112	1054.8855	47403.7	46503.6
856.257	1056.8642	47313.25	46410.8
856.4021	1058.8421	47328.25	46424.15
856.5471	1060.8194	47233	46332.95
856.6921	1062.7959	47131.55	46234.05
856.8372	1064.7717	47138.25	46236.95
856.9822	1066.7469	47119.6	46216.05
857.1272	1068.7213	47076.55	46173.95
857.2723	1070.695	46988.4	46088.9
857.4173	1072.6679	46817.8	45914.15
857.5623	1074.6402	46791.6	45892.5
857.7073	1076.6117	46736.95	45828.75
857.8523	1078.5826	46722.6	45819.3
857.9973	1080.5527	46629.8	45723.35
858.1423	1082.5221	46522.6	45621.05
858.2873	1084.4908	46515.75	45611.5
858.4323	1086.4587	46402.1	45498.75
858.5773	1088.426	46393.35	45488.75
858.7223	1090.3925	46249.35	45345.8
858.8673	1092.3584	46243.5	45343.15
859.0123	1094.3235	46099.9	45198.5
859.1573	1096.2879	46036.85	45134.55
859.3022	1098.2515	46043.35	45142.3
859.4472	1100.2145	46005.75	45105.4
859.5922	1102.1767	45902.05	44997.1
859.7371	1104.1382	45886.1	44982.85
859.8821	1106.099	45829.65	44925.8
860.027	1108.0591	45811.9	44910.95
860.172	1110.0185	45618.8	44715.1
860.3169	1111.9771	45705.55	44804.95
860.4619	1113.9351	45543.15	44641.1
860.6068	1115.8923	45401.6	44501.75
860.7517	1117.8488	45277.7	44370.7
860.8967	1119.8045	45133.75	44231.2
861.0416	1121.7596	45182.1	44282.45
861.1865	1123.7139	45027.05	44125.55
861.3314	1125.6675	44937.9	44038.2
861.4763	1127.6204	44947.05	44046.45
861.6212	1129.5726	44742.9	43840.6
861.7661	1131.524	44811.4	43909.5
861.911	1133.4748	44736.1	43834.65
862.0559	1135.4248	44544.55	43643.1
862.2008	1137.3741	44519.4	43617.75
862.3457	1139.3226	44439.5	43536.05
862.4905	1141.2705	44396.45	43494.45
862.6354	1143.2176	44294.75	43386.55
862.7803	1145.164	44080.1	43175.25
862.9251	1147.1097	44148.3	43245.8
863.07	1149.0546	44080.45	43178.7
863.2148	1150.9989	44063.45	43160.65
863.3597	1152.9424	43948.5	43041.85
863.5045	1154.8852	44008.95	43106.55
863.6493	1156.8272	43850.1	42949.65
863.7942	1158.7686	43940.95	43031.35
863.939	1160.7092	43672	42766.75
864.0838	1162.6491	43619.8	42715.75
864.2286	1164.5883	43661.4	42759.4
864.3734	1166.5267	43505.85	42603
864.5182	1168.4644	43568.45	42668.5
864.663	1170.4014	43500.25	42594.6
864.8078	1172.3377	43580.7	42681.5
864.9526	1174.2732	43623.6	42723.7
865.0974	1176.2081	43575.4	42673.9
865.2421	1178.1421	43541.55	42637.6
865.3869	1180.0755	43626.3	42726.9
865.5317	1182.0082	43521.5	42619.6
