Software Version:	3.9.2.0
Unit SN:	10000200
Spectrometer SN:	6960
Date:	3/6/2024 9:46:32 AM
Data Line Index:	25
Spectral Points:	2048
Integration time (ms):	125
Averages:	20
Delay (ms):	30
Sequence Number:	1
Processing:	dark subtract
Laser Power (mW):	300
Laser Current (mA):	825
Laser Diode Temp (C):	25
Laser Case Temp (C):	24.2
System Temp (C):	24
Spectrometer Temp (C):	21.6
CCD Temp (C):	-0.017
Secondary Temp (C):	20.013
Heatsink Temp (C):	18.131
CCDPCB Temp (C):	30.504
SecondaryPCB Temp (C):	25.747

Wavelength	RamanShift	Raw Counts	Dark Subtracted
787.061	30.1047	453.75	46.1
787.2016	32.3739	455.7	49.25
787.3422	34.6426	458.25	50.2
787.4828	36.9109	459.4	51.8
787.6235	39.1787	469.55	58.2
787.7642	41.4461	478.85	62.3
787.9049	43.7131	484.15	64.4
788.0456	45.9796	490.35	66.6
788.1863	48.2456	500.6	72.95
788.3271	50.5112	508.95	78.35
788.4679	52.7764	512.35	79.45
788.6087	55.0411	520.6	82.75
788.7496	57.3054	532	90.05
788.8904	59.5692	540.5	97
789.0313	61.8326	547.35	101.3
789.1722	64.0955	557.65	107.15
789.3132	66.3579	572.75	119
789.4541	68.6199	589.15	132.2
789.5951	70.8815	614.9	152.55
789.7361	73.1426	668.3	202.7
789.8771	75.4032	793.9	324.5
790.0181	77.6634	1110.1	637.15
790.1592	79.9231	1876.1	1399.8
790.3003	82.1824	3467.9	2986.55
790.4414	84.4412	6292.45	5798.95
790.5825	86.6995	10095.3	9587.75
790.7237	88.9574	13836	13321.1
790.8648	91.2148	16588.3	16066.95
791.006	93.4717	18119.7	17592.65
791.1472	95.7282	18792.45	18264.95
791.2885	97.9842	19131.75	18598.75
791.4297	100.2398	19247.75	18712.7
791.571	102.4949	19332.4	18793.6
791.7123	104.7495	19335.6	18795.55
791.8536	107.0036	19296.1	18754.15
791.9949	109.2573	19302.5	18760.85
792.1363	111.5105	19313.5	18768.9
792.2777	113.7632	19311	18764.65
792.4191	116.0154	19363.2	18806.95
792.5605	118.2672	19406.35	18854.1
792.7019	120.5185	19425.4	18871.1
792.8434	122.7693	19448.8	18894.7
792.9849	125.0197	19472.4	18910.95
793.1264	127.2696	19471.45	18906.9
793.2679	129.519	19556.95	18989.55
793.4094	131.7679	19616.2	19045.45
793.551	134.0163	19679.1	19106.35
793.6926	136.2642	19700.8	19125.9
793.8342	138.5117	19696.6	19116.7
793.9758	140.7587	19686.55	19107.65
794.1175	143.0052	19740.5	19156.7
794.2591	145.2512	19704.85	19123.5
794.4008	147.4967	19697.35	19113.4
794.5425	149.7417	19699.05	19110.6
794.6842	151.9863	19662.25	19069.1
794.826	154.2304	19697.05	19102.8
794.9677	156.4739	19703.7	19102.7
795.1095	158.717	19736.55	19136.3
795.2513	160.9596	19747.65	19140.9
795.3931	163.2017	19748.6	19139.6
795.535	165.4433	19765.75	19154.45
795.6768	167.6844	19764.5	19151.25
795.8187	169.925	19787.4	19169
795.9606	172.1651	19734.8	19117.9
796.1025	174.4047	19746.45	19123.25
796.2445	176.6439	19727.8	19105.1
796.3864	178.8825	19704.5	19078.8
796.5284	181.1206	19773.35	19142.15
796.6704	183.3582	19798.55	19163.6
796.8124	185.5954	19808.4	19172.35
796.9544	187.832	19797.65	19156.5
797.0965	190.0681	19868.95	19226.75
797.2386	192.3037	19893.35	19243.9
797.3806	194.5388	19921.5	19274.75
797.5228	196.7734	19981.95	19329.8
797.6649	199.0075	20032.6	19382.3
797.807	201.2411	20128.55	19478.1
797.9492	203.4742	20154.9	19501.85
798.0914	205.7068	20214	19554.85
798.2336	207.9389	20240.7	19577.55
798.3758	210.1704	20330	19675.25
798.518	212.4015	20263.7	19618.75
798.6603	214.632	20312.4	19673.45
798.8025	216.862	20369.1	19731.95
798.9448	219.0915	20358.6	19717.9
799.0871	221.3205	20412.95	19769.1
799.2294	223.549	20441.85	19801.2
799.3718	225.777	20493.85	19854.65
799.5141	228.0044	20507.9	19862.35
799.6565	230.2314	20575.75	19929.2
799.7989	232.4578	20537.9	19885.85
799.9413	234.6837	20595.6	19934
800.0837	236.909	20612.2	19950.5
800.2262	239.1339	20675.35	19990.8
800.3687	241.3582	20675.25	20003.1
800.5111	243.582	20693.2	19989.7
800.6536	245.8053	20700.05	20010.5
800.7961	248.0281	20693.6	20010.4
800.9387	250.2503	20710.7	20023.8
801.0812	252.472	20757.2	20067.75
801.2238	254.6932	20769.05	20079.05
801.3664	256.9139	20719.05	20026.5
801.509	259.134	20793.4	20096.35
801.6516	261.3536	20809.25	20116.15
801.7942	263.5727	20878.9	20182.8
801.9369	265.7912	20817.9	20123.25
802.0795	268.0092	20893.8	20199.15
802.2222	270.2267	20883.4	20187.65
802.3649	272.4436	20959	20260.65
802.5076	274.6601	20930.7	20219.7
802.6504	276.8759	20928.5	20224.9
802.7931	279.0913	20979.7	20274
802.9359	281.3061	20997	20289.35
803.0787	283.5204	21035.1	20325.8
803.2215	285.7341	21060	20346.65
803.3643	287.9473	21082.05	20358.45
803.5071	290.16	21109.9	20393.95
803.6499	292.3721	21094.55	20386.3
803.7928	294.5837	21060.3	20345.9
803.9357	296.7947	21007.25	20295.2
804.0786	299.0052	21040.3	20328
804.2215	301.2152	20984.2	20267.95
804.3644	303.4246	21033.6	20319.25
804.5074	305.6334	20960.4	20246
804.6503	307.8418	20993.15	20276.45
804.7933	310.0495	20982.1	20264.25
804.9363	312.2568	20933.95	20215.75
805.0793	314.4635	20837.3	20114.45
805.2223	316.6696	20792	20065.85
805.3653	318.8752	20759.85	20026.3
805.5084	321.0802	20713.05	19986.1
805.6514	323.2847	20731.95	20002.15
805.7945	325.4887	20691.75	19964.35
805.9376	327.692	20689.1	19958.45
806.0807	329.8949	20731.25	20001.55
806.2238	332.0972	20760.55	20025.9
806.367	334.2989	20780.7	20045.9
806.5101	336.5001	20762.25	20026.5
806.6533	338.7007	20765.95	20029.45
806.7965	340.9008	20763.45	20025.3
806.9397	343.1003	20717.45	19975.25
807.0829	345.2992	20719.3	19976.6
807.2261	347.4976	20701.4	19958.8
807.3693	349.6955	20667.3	19919.8
807.5126	351.8927	20739.85	19989.95
807.6559	354.0895	20656.25	19900.6
807.7991	356.2856	20660.25	19909.4
807.9424	358.4812	20637.2	19887.65
808.0857	360.6763	20650.25	19898.2
808.2291	362.8707	20611.65	19856.6
808.3724	365.0646	20660.6	19903.3
808.5158	367.258	20627.5	19869.5
808.6591	369.4508	20559.3	19794.75
808.8025	371.643	20636.8	19873.1
808.9459	373.8346	20553	19788.25
809.0893	376.0257	20549.7	19782.75
809.2327	378.2162	20504.95	19739.6
809.3762	380.4062	20533.75	19767.55
809.5196	382.5956	20501.35	19737.15
809.6631	384.7844	20479.65	19717.05
809.8066	386.9726	20386.1	19628.15
809.9501	389.1603	20322.05	19563.75
810.0936	391.3474	20337.2	19541.6
810.2371	393.5339	20321.65	19560.3
810.3806	395.7199	20291.6	19531.75
810.5241	397.9052	20268.1	19510.25
810.6677	400.09	20287.4	19529.3
810.8113	402.2743	20294.25	19533.75
810.9548	404.4579	20310.35	19545.7
811.0984	406.641	20347.25	19581.55
811.2421	408.8235	20368.8	19602.95
811.3857	411.0054	20434	19665.45
811.5293	413.1868	20486.5	19712.5
811.673	415.3675	20515.1	19740.25
811.8166	417.5477	20512.55	19733.95
811.9603	419.7273	20427.2	19646.75
812.104	421.9064	20290.9	19502.75
812.2477	424.0848	20233.55	19452.9
812.3914	426.2627	20147.95	19367.8
812.5351	428.4399	20102.8	19321
812.6788	430.6166	20035.05	19250.25
812.8226	432.7928	19973.35	19186.4
812.9663	434.9683	19947.65	19160.6
813.1101	437.1432	19894.55	19105.2
813.2539	439.3176	19795.55	19010.15
813.3977	441.4914	19771.85	18986.95
813.5415	443.6645	19744.4	18956.95
813.6853	445.8371	19655.35	18867.55
813.8291	448.0091	19547.4	18761.5
813.973	450.1806	19527.05	18737.25
814.1168	452.3514	19465.6	18674.4
814.2607	454.5216	19500.7	18700.95
814.4046	456.6913	19387.5	18592.5
814.5485	458.8603	19397.6	18606.4
814.6924	461.0288	19428	18637.9
814.8363	463.1967	19347	18553.85
814.9802	465.3639	19364.4	18571.05
815.1241	467.5306	19328.3	18536.35
815.2681	469.6967	19267.3	18472.75
815.412	471.8622	19223.35	18428.4
815.556	474.0271	19203.25	18407.6
815.7	476.1914	19174.55	18375.15
815.844	478.3551	19182.8	18384.95
815.988	480.5182	19190.95	18394.85
816.132	482.6807	19192.05	18395.3
816.276	484.8426	19237.75	18442.6
816.4201	487.0039	19241.75	18445.9
816.5641	489.1647	19288.15	18487.6
816.7082	491.3248	19340	18540.35
816.8522	493.4843	19299	18499.75
816.9963	495.6432	19282.95	18484.9
817.1404	497.8015	19233.45	18429.15
817.2845	499.9592	19222	18417.45
817.4286	502.1163	19191.55	18386.35
817.5727	504.2728	19128.1	18321.3
817.7168	506.4287	19136.95	18335.9
817.861	508.5839	19100.35	18294.4
818.0051	510.7386	19076.7	18271
818.1493	512.8927	19062.75	18252.9
818.2935	515.0461	19071.35	18261.9
818.4377	517.199	19052.35	18243.2
818.5818	519.3512	19045.15	18235.45
818.726	521.5029	19096.05	18281.35
818.8703	523.6539	19090.5	18278.1
819.0145	525.8043	19108.85	18294.4
819.1587	527.9541	19010.4	18191.8
819.303	530.1033	18968.3	18152.35
819.4472	532.2519	18913.45	18098.6
819.5915	534.3999	18912.5	18095.75
819.7357	536.5472	18869.85	18054.65
819.88	538.694	18895.6	18080.95
820.0243	540.8401	18892.7	18077.95
820.1686	542.9856	18925.3	18103.85
820.3129	545.1305	18868.55	18049.25
820.4572	547.2748	18901.4	18081.9
820.6016	549.4185	18883.6	18061.55
820.7459	551.5615	18836.2	18016.7
820.8902	553.704	18838.3	18016.95
821.0346	555.8458	18827.2	18008.65
821.1789	557.987	18848.25	18031
821.3233	560.1276	18799.1	17979.4
821.4677	562.2675	18815.5	17997.4
821.6121	564.4069	18823.15	18005.75
821.7565	566.5456	18803.4	17985.3
821.9009	568.6837	18790.7	17971.7
822.0453	570.8212	18722.85	17902.7
822.1897	572.958	18671.05	17851.2
822.3342	575.0942	18612.4	17793.4
822.4786	577.2299	18547.3	17725.7
822.6231	579.3648	18446.1	17626.25
822.7675	581.4992	18352.35	17531.6
822.912	583.6329	18313.25	17493.4
823.0565	585.766	18296.65	17477.95
823.201	587.8985	18236.45	17414.75
823.3454	590.0304	18282.75	17446.45
823.4899	592.1616	18260.1	17432.35
823.6345	594.2922	18225.45	17400
823.779	596.4222	18154.75	17323.95
823.9235	598.5515	18093	17264.55
824.068	600.6802	18026.05	17197.85
824.2126	602.8083	17953.55	17124.9
824.3571	604.9358	17971.85	17141.15
824.5017	607.0626	17875.15	17044.65
824.6462	609.1888	17866.9	17035.95
824.7908	611.3144	17893.9	17059.8
824.9354	613.4393	17826.4	16995.5
825.08	615.5636	17805.85	16973.15
825.2246	617.6873	17872.4	17039.5
825.3692	619.8103	17863.05	17027.6
825.5138	621.9327	17803.7	16967.15
825.6584	624.0544	17777.3	16945.25
825.803	626.1756	17738.1	16906.5
825.9477	628.2961	17700.6	16865.55
826.0923	630.4159	17671.8	16834.95
826.237	632.5351	17685.75	16846.85
826.3816	634.6537	17659.65	16822.45
826.5263	636.7716	17607.95	16768.1
826.6709	638.8889	17622.8	16783.9
826.8156	641.0056	17647.3	16809
826.9603	643.1216	17589.95	16752.6
827.105	645.237	17626.5	16786.7
827.2497	647.3518	17566.25	16729.5
827.3944	649.4659	17520.5	16683.9
827.5391	651.5793	17472.6	16632.35
827.6838	653.6922	17458.95	16621.25
827.8285	655.8043	17413.25	16573.5
827.9733	657.9159	17441.3	16602.5
828.118	660.0268	17380.85	16537.3
828.2627	662.137	17359.25	16518.7
828.4075	664.2466	17340.65	16496.75
828.5522	666.3556	17350.7	16507
828.697	668.4639	17296	16450.35
828.8418	670.5716	17298.1	16459.15
828.9865	672.6786	17271.55	16427.85
829.1313	674.785	17221.35	16374.95
829.2761	676.8907	17153.7	16308.05
829.4209	678.9958	17166.45	16325.05
829.5657	681.1002	17103.65	16257.8
829.7105	683.204	17082.8	16232.7
829.8553	685.3072	17068.4	16220.3
830.0001	687.4097	17035.55	16189.75
830.1449	689.5115	17029	16179.45
830.2898	691.6127	17007.55	16163.8
830.4346	693.7132	16962.1	16116.1
830.5794	695.8131	16999.85	16130.35
830.7243	697.9123	17005.6	16158.15
830.8691	700.0109	16976.1	16126.75
831.014	702.1089	16953.5	16107.4
831.1588	704.2061	16921.25	16073.1
831.3037	706.3028	16924.4	16075.95
831.4486	708.3987	16887.75	16038.4
831.5935	710.4941	16873.1	16024.2
831.7383	712.5887	16855.65	16004.75
831.8832	714.6827	16900.15	16046.95
832.0281	716.7761	16865.05	16015.95
832.173	718.8688	16858.45	16006.15
832.3179	720.9608	16821.3	15965.05
832.4628	723.0522	16809.85	15954
832.6077	725.1429	16800.9	15947.55
832.7527	727.233	16784.3	15930
832.8976	729.3224	16836.5	15983.95
833.0425	731.4112	16802.4	15946.9
833.1874	733.4993	16801.7	15944.85
833.3324	735.5867	16760.45	15905
833.4773	737.6735	16660.7	15805.65
833.6222	739.7596	16631.15	15774.4
833.7672	741.845	16588.35	15733.55
833.9122	743.9298	16538.45	15681.65
834.0571	746.014	16516.95	15661.15
834.2021	748.0974	16524.3	15665.2
834.347	750.1802	16467.35	15609.9
834.492	752.2624	16422.7	15566.05
834.637	754.3439	16378.05	15521.35
834.782	756.4247	16300.8	15433
834.9269	758.5048	16247.8	15389.95
835.0719	760.5843	16263.25	15402.15
835.2169	762.6631	16164.75	15308.3
835.3619	764.7413	16186.75	15331.05
835.5069	766.8188	16229.65	15370.7
835.6519	768.8956	16187.2	15324.9
835.7969	770.9718	16243	15385.6
835.9419	773.0473	16155.55	15296.35
836.0869	775.1221	16108.1	15251.85
836.232	777.1962	16071.3	15209.8
836.377	779.2697	16064.1	15204.1
836.522	781.3426	16102.7	15222.9
836.667	783.4147	16099.7	15240.45
836.8121	785.4862	16053.65	15196.6
836.9571	787.557	15989.55	15128.25
837.1021	789.6271	15915.15	15050.8
837.2472	791.6966	15828.85	14967.7
837.3922	793.7654	15721.85	14861
837.5373	795.8335	15695.65	14835.75
837.6823	797.901	15640.65	14778.65
837.8274	799.9678	15619.3	14754.5
837.9724	802.0339	15602.15	14742.3
838.1175	804.0993	15586.65	14714.6
838.2626	806.1641	15549.1	14685.4
838.4076	808.2282	15486.05	14624.8
838.5527	810.2916	15478.7	14615
838.6978	812.3544	15455.05	14594.4
838.8428	814.4164	15401	14536.6
838.9879	816.4778	15426.95	14561.3
839.133	818.5385	15386.55	14520.25
839.2781	820.5986	15415.55	14554.1
839.4232	822.658	15415.3	14549.65
839.5682	824.7166	15358.9	14495.8
839.7133	826.7747	15486.25	14621.8
839.8584	828.832	15485.65	14620.45
840.0035	830.8886	15420.1	14550.35
840.1486	832.9446	15424.55	14556.1
840.2937	834.9999	15355.9	14492.25
840.4388	837.0545	15337.9	14468.35
840.5839	839.1085	15286.9	14421.3
840.729	841.1618	15231.2	14359.6
840.8741	843.2143	15163.25	14298.8
841.0192	845.2662	15112.3	14245.6
841.1643	847.3175	15079.85	14214.15
841.3095	849.368	15061.6	14195.3
841.4546	851.4179	15053.3	14185
841.5997	853.467	14981	14113.75
841.7448	855.5155	14958.9	14090.35
841.8899	857.5633	14933.95	14066.5
842.0351	859.6105	14901.35	14033.85
842.1802	861.6569	14866.7	13999.2
842.3253	863.7027	14861.3	13991.3
842.4704	865.7478	14816.6	13945.55
842.6156	867.7922	14824.3	13957.45
842.7607	869.8359	14782.85	13914.4
842.9058	871.8789	14768.45	13897.25
843.0509	873.9212	14769.7	13866.85
843.1961	875.9629	14706.75	13837.6
843.3412	878.0039	14730.5	13858.45
843.4863	880.0441	14709.65	13840.9
843.6315	882.0837	14727.3	13855.25
843.7766	884.1226	14711.4	13841.05
843.9218	886.1609	14705.1	13836.3
844.0669	888.1984	14725.35	13854.85
844.212	890.2352	14743.15	13873.9
844.3572	892.2714	14740.55	13865.1
844.5023	894.3069	14729.5	13859.7
844.6475	896.3416	14638.3	13767.5
844.7926	898.3757	14598.9	13726.2
844.9377	900.4091	14580.35	13708.75
845.0829	902.4418	14551.1	13673.8
845.228	904.4739	14497.45	13624.1
845.3732	906.5052	14489.95	13618.75
845.5183	908.5358	14470.5	13598.45
845.6635	910.5658	14459.45	13584.15
845.8086	912.595	14414.3	13540.25
845.9538	914.6236	14336.35	13460.7
846.0989	916.6515	14330.35	13456.6
846.2441	918.6786	14294.7	13418.6
846.3892	920.7051	14276.8	13400.75
846.5344	922.7309	14287.25	13409.55
846.6795	924.756	14216.25	13344.85
846.8246	926.7804	14204.05	13328.9
846.9698	928.8041	14105.65	13229.25
847.1149	930.8272	14130.85	13259.15
847.2601	932.8495	14058.35	13182.7
847.4052	934.8711	14099.65	13224.9
847.5504	936.892	14009.7	13134.85
847.6955	938.9123	13969.6	13093.45
847.8407	940.9318	13936.8	13061.1
847.9858	942.9506	13924.55	13048.5
848.131	944.9688	13843.85	12969.45
848.2761	946.9862	13809.75	12935.95
848.4213	949.003	13778.9	12902.1
848.5664	951.019	13744	12868.8
848.7115	953.0344	13687.75	12812.4
848.8567	955.0491	13665.5	12787.85
849.0018	957.063	13681.35	12806.9
849.147	959.0763	13688.5	12812.05
849.2921	961.0888	13608.9	12730.1
849.4373	963.1007	13623.45	12747.9
849.5824	965.1119	13593.75	12718.55
849.7275	967.1223	13564.35	12691
849.8727	969.1321	13550.55	12675.65
850.0178	971.1412	13503.8	12629.6
850.1629	973.1495	13454.85	12579.75
850.3081	975.1572	13512.35	12589.95
850.4532	977.1641	13488.55	12611
850.5983	979.1704	13437.1	12558.45
850.7435	981.1759	13389.65	12508.45
850.8886	983.1808	13371.9	12495.5
851.0337	985.1849	13318.75	12429.9
851.1788	987.1884	13290.15	12409.25
851.324	989.1911	13270.6	12392.55
851.4691	991.1932	13260.25	12380.1
851.6142	993.1945	13192.2	12314.45
851.7593	995.1951	13159.4	12281.65
851.9045	997.1951	13152.9	12270.2
852.0496	999.1943	13078.05	12201.6
852.1947	1001.1928	13039.3	12160.95
852.3398	1003.1906	12993.2	12117.05
852.4849	1005.1877	12966.25	12084
852.63	1007.1841	12964.05	12088.1
852.7751	1009.1798	12915.45	12037.75
852.9202	1011.1748	12851.25	11972.15
853.0653	1013.1691	12816	11938.3
853.2104	1015.1627	12765.2	11885.75
853.3555	1017.1556	12662.45	11782.85
853.5006	1019.1477	12633.8	11753.3
853.6457	1021.1392	12562.5	11683
853.7908	1023.1299	12526.9	11648.2
853.9359	1025.12	12446.3	11567.3
854.081	1027.1093	12444.1	11567.95
854.2261	1029.0979	12416.95	11543.65
854.3712	1031.0859	12372.2	11499.3
854.5163	1033.0731	12362.15	11486.25
854.6613	1035.0596	12310.55	11431.45
854.8064	1037.0454	12241.4	11361.8
854.9515	1039.0304	12265.3	11387.65
855.0965	1041.0148	12203.65	11322.65
855.2416	1042.9985	12149.8	11269.35
855.3867	1044.9814	12127.2	11248.45
855.5317	1046.9636	12053.35	11171.1
855.6768	1048.9452	12018.5	11139.65
855.8219	1050.926	12020.35	11141.25
855.9669	1052.9061	11997.7	11116.75
856.112	1054.8855	11976.7	11098.3
856.257	1056.8642	11949.65	11069.55
856.4021	1058.8421	11932.95	11049.85
856.5471	1060.8194	11892.25	11010.55
856.6921	1062.7959	11868.45	10985.85
856.8372	1064.7717	11827.9	10945.7
856.9822	1066.7469	11833.05	10951.3
857.1272	1068.7213	11802.3	10918.4
857.2723	1070.695	11800.05	10919.15
857.4173	1072.6679	11731.05	10849.15
857.5623	1074.6402	11738.2	10857.15
857.7073	1076.6117	11713.3	10824.95
857.8523	1078.5826	11718.25	10838.95
857.9973	1080.5527	11631.55	10746.5
858.1423	1082.5221	11616.45	10734.15
858.2873	1084.4908	11577.1	10695.45
858.4323	1086.4587	11555.9	10673.25
858.5773	1088.426	11529.55	10647.65
858.7223	1090.3925	11484.3	10599.2
858.8673	1092.3584	11450.55	10570.2
859.0123	1094.3235	11422.05	10540.4
859.1573	1096.2879	11405.6	10521.9
859.3022	1098.2515	11403.5	10522.25
859.4472	1100.2145	11408.45	10526
859.5922	1102.1767	11396.65	10513.5
859.7371	1104.1382	11396.95	10515
859.8821	1106.099	11383.8	10501.6
860.027	1108.0591	11386.1	10502.25
860.172	1110.0185	11366.55	10482.8
860.3169	1111.9771	11370	10489.8
860.4619	1113.9351	11344.55	10463.15
860.6068	1115.8923	11363.3	10480.5
860.7517	1117.8488	11366.05	10480.7
860.8967	1119.8045	11272.7	10389.75
861.0416	1121.7596	11221.15	10339.45
861.1865	1123.7139	11139.65	10258.4
861.3314	1125.6675	11081.4	10198.3
861.4763	1127.6204	11081.05	10199.45
861.6212	1129.5726	11048.4	10163.75
861.7661	1131.524	11032.95	10151.2
861.911	1133.4748	10999.6	10116
862.0559	1135.4248	10972.9	10087.95
862.2008	1137.3741	10912.85	10029.7
862.3457	1139.3226	10873.55	9989.45
862.4905	1141.2705	10851.5	9966.6
862.6354	1143.2176	10801.2	9912.35
862.7803	1145.164	10800.2	9912.55
862.9251	1147.1097	10797.15	9915.45
863.07	1149.0546	10739.9	9854.4
863.2148	1150.9989	10753.25	9869.7
863.3597	1152.9424	10753.75	9868.65
863.5045	1154.8852	10701.85	9819.15
863.6493	1156.8272	10670.4	9789.1
863.7942	1158.7686	10669.55	9778.6
863.939	1160.7092	10618.85	9734.2
864.0838	1162.6491	10599.8	9712.3
864.2286	1164.5883	10593.55	9709.25
864.3734	1166.5267	10580.4	9692.55
864.5182	1168.4644	10601.35	9717.5
864.663	1170.4014	10589.9	9699.5
864.8078	1172.3377	10603.2	9720.5
864.9526	1174.2732	10603.7	9719.75
865.0974	1176.2081	10683.35	9801.1
865.2421	1178.1421	10692.55	9805.5
865.3869	1180.0755	10752	9868.85
865.5317	1182.0082	10736.6	9852.65
865.6764	1183.9401	10702.55	9817.2
