Software Version:	3.9.2.0
Unit SN:	10000200
Spectrometer SN:	6960
Date:	3/6/2024 9:26:08 AM
Data Line Index:	25
Spectral Points:	2048
Integration time (ms):	125
Averages:	20
Delay (ms):	30
Sequence Number:	1
Processing:	dark subtract
Laser Power (mW):	305
Laser Current (mA):	818
Laser Diode Temp (C):	25.1
Laser Case Temp (C):	22.9
System Temp (C):	22.7
Spectrometer Temp (C):	20.7
CCD Temp (C):	-0.046
Secondary Temp (C):	20.001
Heatsink Temp (C):	17.498
CCDPCB Temp (C):	29.537
SecondaryPCB Temp (C):	25.124

Wavelength	RamanShift	Raw Counts	Dark Subtracted
787.061	30.1047	632.25	225.1
787.2016	32.3739	645.15	240.35
787.3422	34.6426	659.25	252.7
787.4828	36.9109	676.8	266.9
787.6235	39.1787	689	277.4
787.7642	41.4461	711.75	294.2
787.9049	43.7131	733.8	313.05
788.0456	45.9796	755.5	332.85
788.1863	48.2456	779.15	350.95
788.3271	50.5112	804.5	374
788.4679	52.7764	826.15	392.1
788.6087	55.0411	845.3	407.3
788.7496	57.3054	884.85	441.35
788.8904	59.5692	903.05	456.95
789.0313	61.8326	938.4	492
789.1722	64.0955	974.85	527.05
789.3132	66.3579	1020.1	566.05
789.4541	68.6199	1073.7	615.9
789.5951	70.8815	1174.5	713.8
789.7361	73.1426	1375.75	910.8
789.8771	75.4032	1902	1431.7
790.0181	77.6634	3202.25	2729.6
790.1592	79.9231	6401.05	5927.2
790.3003	82.1824	13491.4	13012.8
790.4414	84.4412	27018.25	26532.85
790.5825	86.6995	49455.35	48964.2
790.7237	88.9574	61431.8	60934.8
790.8648	91.2148	65476.4	64975.8
791.006	93.4717	65535	65031
791.1472	95.7282	65535	65028.2
791.2885	97.9842	65535	65028.5
791.4297	100.2398	65535	65027.35
791.571	102.4949	65535	65020.7
791.7123	104.7495	65535	65015.7
791.8536	107.0036	65535	65016.35
791.9949	109.2573	65535	65020.7
792.1363	111.5105	65535	65017.1
792.2777	113.7632	65535	65015.6
792.4191	116.0154	65535	65001.7
792.5605	118.2672	65535	65008.55
792.7019	120.5185	65535	65007.15
792.8434	122.7693	65535	65004.1
792.9849	125.0197	65535	64998.45
793.1264	127.2696	65535	64994.1
793.2679	129.519	65535	64993.4
793.4094	131.7679	65535	64991.6
793.551	134.0163	65535	64988.75
793.6926	136.2642	65535	64986.75
793.8342	138.5117	65535	64981.95
793.9758	140.7587	65535	64981.4
794.1175	143.0052	65535	64980.65
794.2591	145.2512	65535	64977.85
794.4008	147.4967	65535	64975.4
794.5425	149.7417	65535	64972.05
794.6842	151.9863	65535	64967.95
794.826	154.2304	65535	64964.9
794.9677	156.4739	65535	64959.2
795.1095	158.717	65535	64958.55
795.2513	160.9596	65535	64951.85
795.3931	163.2017	65535	64953.15
795.535	165.4433	65535	64950.7
795.6768	167.6844	65535	64946.85
795.8187	169.925	65535	64943.75
795.9606	172.1651	65535	64941.05
796.1025	174.4047	65535	64937.15
796.2445	176.6439	65535	64936.15
796.3864	178.8825	65535	64934.75
796.5284	181.1206	65535	64930.6
796.6704	183.3582	65535	64923.6
796.8124	185.5954	65535	64921.45
796.9544	187.832	65535	64919.65
797.0965	190.0681	65535	64915.2
797.2386	192.3037	65535	64913.45
797.3806	194.5388	65535	64908.8
797.5228	196.7734	65535	64910.1
797.6649	199.0075	65535	64908.45
797.807	201.2411	65535	64908.85
797.9492	203.4742	65535	64904.8
798.0914	205.7068	65535	64899.2
798.2336	207.9389	65535	64898.7
798.3758	210.1704	65535	64907.5
798.518	212.4015	65535	64921
798.6603	214.632	65535	64923.4
798.8025	216.862	65535	64922.95
798.9448	219.0915	65535	64918.8
799.0871	221.3205	65535	64917.25
799.2294	223.549	65535	64923.85
799.3718	225.777	65535	64922.4
799.5141	228.0044	65535	64912.25
799.6565	230.2314	65535	64910.65
799.7989	232.4578	65535	64906.05
799.9413	234.6837	65535	64898.8
800.0837	236.909	65535	64898.6
800.2262	239.1339	65535	64871.8
800.3687	241.3582	65535	64887.45
800.5111	243.582	65535	64856.85
800.6536	245.8053	65535	64869.1
800.7961	248.0281	65535	64874.2
800.9387	250.2503	65535	64870.05
801.0812	252.472	65535	64870.45
801.2238	254.6932	65535	64870.4
801.3664	256.9139	65535	64869.2
801.509	259.134	65535	64864.15
801.6516	261.3536	65535	64867.55
801.7942	263.5727	65535	64863.35
801.9369	265.7912	65535	64864.05
802.0795	268.0092	65535	64866.2
802.2222	270.2267	65535	64861.7
802.3649	272.4436	65535	64859.45
802.5076	274.6601	65535	64850.4
802.6504	276.8759	65535	64856.15
802.7931	279.0913	65535	64854.95
802.9359	281.3061	65535	64851.95
803.0787	283.5204	65535	64848.25
803.2215	285.7341	65535	64846.3
803.3643	287.9473	65535	64837.55
803.5071	290.16	65535	64844.9
803.6499	292.3721	65535	64851.85
803.7928	294.5837	65535	64851.1
803.9357	296.7947	65535	64848.7
804.0786	299.0052	65535	64847.35
804.2215	301.2152	65535	64842.8
804.3644	303.4246	65535	64847.55
804.5074	305.6334	65535	64845.85
804.6503	307.8418	65535	64839.55
804.7933	310.0495	65535	64838.35
804.9363	312.2568	65535	64840.55
805.0793	314.4635	65535	64837.45
805.2223	316.6696	65535	64837
805.3653	318.8752	65535	64825.9
805.5084	321.0802	65535	64832.55
805.6514	323.2847	65535	64830.35
805.7945	325.4887	65535	64831
805.9376	327.692	65535	64829.95
806.0807	329.8949	65535	64826.8
806.2238	332.0972	65535	64826.9
806.367	334.2989	65535	64818.55
806.5101	336.5001	65535	64822.6
806.6533	338.7007	65535	64822.75
806.7965	340.9008	65535	64820.85
806.9397	343.1003	65535	64818.3
807.0829	345.2992	65535	64817.15
807.2261	347.4976	65535	64815.7
807.3693	349.6955	65535	64813
807.5126	351.8927	65535	64812.25
807.6559	354.0895	65535	64798.1
807.7991	356.2856	65535	64809.75
807.9424	358.4812	65535	64808.05
808.0857	360.6763	65535	64804.8
808.2291	362.8707	65535	64802.65
808.3724	365.0646	65535	64802.35
808.5158	367.258	65535	64799.4
808.6591	369.4508	65535	64795.9
808.8025	371.643	65535	64797.2
808.9459	373.8346	65535	64794.5
809.0893	376.0257	65535	64789.4
809.2327	378.2162	65535	64792.1
809.3762	380.4062	65535	64791.5
809.5196	382.5956	65535	64796.5
809.6631	384.7844	65535	64803
809.8066	386.9726	65535	64801.55
809.9501	389.1603	65535	64801.85
810.0936	391.3474	65535	64755.45
810.2371	393.5339	65535	64798.05
810.3806	395.7199	65535	64801.15
810.5241	397.9052	65535	64799.85
810.6677	400.09	65535	64795.6
810.8113	402.2743	65535	64794.85
810.9548	404.4579	65535	64792.5
811.0984	406.641	65535	64789.9
811.2421	408.8235	65535	64790.9
811.3857	411.0054	65535	64787.7
811.5293	413.1868	65535	64782.8
811.673	415.3675	65535	64780.3
811.8166	417.5477	65535	64778
811.9603	419.7273	65535	64776.9
812.104	421.9064	65535	64769.1
812.2477	424.0848	65535	64776.9
812.3914	426.2627	65535	64776.25
812.5351	428.4399	65535	64775.25
812.6788	430.6166	65535	64770.65
812.8226	432.7928	65535	64769.4
812.9663	434.9683	65535	64768.55
813.1101	437.1432	65535	64770.5
813.2539	439.3176	65535	64770.1
813.3977	441.4914	65535	64768.75
813.5415	443.6645	65535	64764.7
813.6853	445.8371	65535	64767.65
813.8291	448.0091	65535	64769.15
813.973	450.1806	65535	64765.6
814.1168	452.3514	65535	64762.5
814.2607	454.5216	65535	64755.25
814.4046	456.6913	65535	64758.7
814.5485	458.8603	65535	64763.25
814.6924	461.0288	65535	64764.8
814.8363	463.1967	65535	64764.25
814.9802	465.3639	65535	64759.4
815.1241	467.5306	65535	64759.9
815.2681	469.6967	65535	64761.5
815.412	471.8622	65535	64759.3
815.556	474.0271	65535	64761.55
815.7	476.1914	65535	64758.05
815.844	478.3551	65535	64757.6
815.988	480.5182	65535	64756.95
816.132	482.6807	65535	64754.45
816.276	484.8426	65535	64757.25
816.4201	487.0039	65535	64757.5
816.5641	489.1647	65535	64755
816.7082	491.3248	65535	64753.55
816.8522	493.4843	65535	64753.8
816.9963	495.6432	65535	64752.2
817.1404	497.8015	65535	64750
817.2845	499.9592	65535	64750.9
817.4286	502.1163	65535	64749.6
817.5727	504.2728	65535	64749.4
817.7168	506.4287	65535	64750.5
817.861	508.5839	65535	64748.55
818.0051	510.7386	65535	64748.3
818.1493	512.8927	65535	64738.3
818.2935	515.0461	65535	64747.05
818.4377	517.199	65535	64746.8
818.5818	519.3512	65535	64744.15
818.726	521.5029	65535	64737.9
818.8703	523.6539	65535	64740.4
819.0145	525.8043	65535	64742.25
819.1587	527.9541	65535	64739.05
819.303	530.1033	65535	64740.5
819.4472	532.2519	65535	64742.65
819.5915	534.3999	65535	64737.75
819.7357	536.5472	65535	64737.35
819.88	538.694	65535	64740
820.0243	540.8401	65535	64738.4
820.1686	542.9856	65535	64735.65
820.3129	545.1305	65535	64736.4
820.4572	547.2748	65535	64735.45
820.6016	549.4185	65535	64733.45
820.7459	551.5615	65535	64736.2
820.8902	553.704	65535	64735.1
821.0346	555.8458	65535	64735.2
821.1789	557.987	65535	64735.9
821.3233	560.1276	65535	64733.8
821.4677	562.2675	65535	64735
821.6121	564.4069	65535	64733.55
821.7565	566.5456	65535	64734.15
821.9009	568.6837	65535	64733.5
822.0453	570.8212	65535	64734.3
822.1897	572.958	65535	64731.3
822.3342	575.0942	65535	64732.85
822.4786	577.2299	65535	64729.7
822.6231	579.3648	65535	64732.7
822.7675	581.4992	65535	64728.95
822.912	583.6329	65535	64730.8
823.0565	585.766	65535	64731.15
823.201	587.8985	65535	64728.9
823.3454	590.0304	65535	64703.85
823.4899	592.1616	65535	64722.3
823.6345	594.2922	65535	64725.75
823.779	596.4222	65535	64724.45
823.9235	598.5515	65535	64724.1
824.068	600.6802	65535	64726.4
824.2126	602.8083	65535	64725.15
824.3571	604.9358	65535	64722.75
824.5017	607.0626	65535	64722.9
824.6462	609.1888	65535	64719.15
824.7908	611.3144	65535	64721.55
824.9354	613.4393	65535	64721.3
825.08	615.5636	65535	64721.3
825.2246	617.6873	65535	64721.5
825.3692	619.8103	65535	64718.9
825.5138	621.9327	65535	64717.35
825.6584	624.0544	65535	64720
825.803	626.1756	65535	64718.65
825.9477	628.2961	65535	64717.95
826.0923	630.4159	65535	64717.85
826.237	632.5351	65535	64717.05
826.3816	634.6537	65535	64717.95
826.5263	636.7716	65535	64715.65
826.6709	638.8889	65535	64714.2
826.8156	641.0056	65535	64714.1
826.9603	643.1216	65535	64712.75
827.105	645.237	65535	64714.95
827.2497	647.3518	65535	64713.25
827.3944	649.4659	65535	64715.55
827.5391	651.5793	65535	64714.85
827.6838	653.6922	65535	64713.8
827.8285	655.8043	65535	64711.35
827.9733	657.9159	65535	64710.6
828.118	660.0268	65535	64711.15
828.2627	662.137	65535	64712.2
828.4075	664.2466	65535	64706.8
828.5522	666.3556	65535	64712.6
828.697	668.4639	65535	64707.35
828.8418	670.5716	65535	64711.75
828.9865	672.6786	65535	64704.6
829.1313	674.785	65535	64707.6
829.2761	676.8907	65535	64706.9
829.4209	678.9958	65535	64710.25
829.5657	681.1002	65535	64707.5
829.7105	683.204	65535	64702.95
829.8553	685.3072	65535	64706.15
830.0001	687.4097	65535	64706.9
830.1449	689.5115	65535	64704.15
830.2898	691.6127	65535	64705.85
830.4346	693.7132	65535	64705.1
830.5794	695.8131	65535	64684.75
830.7243	697.9123	65535	64702.95
830.8691	700.0109	65535	64703.3
831.014	702.1089	65535	64704.65
831.1588	704.2061	65535	64705.7
831.3037	706.3028	65535	64701.7
831.4486	708.3987	65535	64701.8
831.5935	710.4941	65535	64701.3
831.7383	712.5887	65535	64699.9
831.8832	714.6827	65535	64697.6
832.0281	716.7761	65535	64701.3
832.173	718.8688	65535	64698.25
832.3179	720.9608	65535	64696.7
832.4628	723.0522	65535	64697.65
832.6077	725.1429	65535	64699
832.7527	727.233	65535	64698.9
832.8976	729.3224	65535	64698.55
833.0425	731.4112	65535	64698.1
833.1874	733.4993	65535	64696.05
833.3324	735.5867	65535	64696.4
833.4773	737.6735	65535	64696.65
833.6222	739.7596	65535	64694.65
833.7672	741.845	65535	64696.7
833.9122	743.9298	65535	64695.55
834.0571	746.014	65535	64695.6
834.2021	748.0974	65535	64694.4
834.347	750.1802	65535	64695.45
834.492	752.2624	65535	64694.45
834.637	754.3439	65535	64693.35
834.782	756.4247	65535	64685.8
834.9269	758.5048	65535	64693.7
835.0719	760.5843	65535	64693.35
835.2169	762.6631	65535	64691.65
835.3619	764.7413	65535	64693.7
835.5069	766.8188	65535	64693.2
835.6519	768.8956	65535	64689.05
835.7969	770.9718	65535	64692.7
835.9419	773.0473	65535	64692.7
836.0869	775.1221	65535	64691.7
836.232	777.1962	65535	64691.25
836.377	779.2697	65535	64690.4
836.522	781.3426	65535	64680.8
836.667	783.4147	65535	64688.25
836.8121	785.4862	65535	64690.45
836.9571	787.557	65535	64690
837.1021	789.6271	65535	64691.9
837.2472	791.6966	65535	64690.45
837.3922	793.7654	65535	64689.3
837.5373	795.8335	65535	64688.2
837.6823	797.901	65535	64689.7
837.8274	799.9678	65535	64687.4
837.9724	802.0339	65535	64690.35
838.1175	804.0993	65535	64680.7
838.2626	806.1641	65534.25	64687.75
838.4076	808.2282	65530.85	64685.2
838.5527	810.2916	65528.85	64678.9
838.6978	812.3544	65535	64689.55
838.8428	814.4164	65529.95	64683.15
838.9879	816.4778	65527.4	64679.6
839.133	818.5385	65530.75	64682.2
839.2781	820.5986	65531.85	64684.35
839.4232	822.658	65533.8	64683.2
839.5682	824.7166	65535	64688.45
839.7133	826.7747	65508.3	64659.95
839.8584	828.832	65513.95	64665.7
840.0035	830.8886	65529.85	64678.75
840.1486	832.9446	65533.7	64683.45
840.2937	834.9999	65446.15	64597.4
840.4388	837.0545	65499.8	64645.65
840.5839	839.1085	65528.45	64678.1
840.729	841.1618	65513.2	64657.7
840.8741	843.2143	65405.85	64553.1
841.0192	845.2662	65399.95	64550.25
841.1643	847.3175	65471.35	64619.95
841.3095	849.368	65242.4	64389.8
841.4546	851.4179	65476.85	64624.55
841.5997	853.467	65371.7	64520.1
841.7448	855.5155	65463.75	64611.3
841.8899	857.5633	65315.35	64463.45
842.0351	859.6105	65278.55	64426.95
842.1802	861.6569	65394.4	64543.15
842.3253	863.7027	65138.8	64285
842.4704	865.7478	65254.75	64401.45
842.6156	867.7922	65204.35	64352.45
842.7607	869.8359	65323	64469.45
842.9058	871.8789	65006.2	64151.7
843.0509	873.9212	65147.75	64262.25
843.1961	875.9629	65236.45	64383.55
843.3412	878.0039	65124.95	64267.2
843.4863	880.0441	64983.95	64129.25
843.6315	882.0837	65051.25	64196.05
843.7766	884.1226	65050.1	64194.45
843.9218	886.1609	65075.4	64221.2
844.0669	888.1984	64941.1	64087
844.212	890.2352	65182.4	64330.25
844.3572	892.2714	64931.6	64070.95
844.5023	894.3069	65085.6	64229.1
844.6475	896.3416	64903.7	64048.45
844.7926	898.3757	64875.8	64020
844.9377	900.4091	64427.75	63571.5
845.0829	902.4418	65056.55	64195.9
845.228	904.4739	64755.8	63895.05
845.3732	906.5052	64782	63924.6
845.5183	908.5358	64661	63805.95
845.6635	910.5658	64582.4	63722.35
845.8086	912.595	64631.7	63775.9
845.9538	914.6236	64130.65	63275.45
846.0989	916.6515	64848.9	63992.9
846.2441	918.6786	64140.7	63281.55
846.3892	920.7051	64360.1	63500.55
846.5344	922.7309	64222	63361.3
846.6795	924.756	64340.75	63483.05
846.8246	926.7804	64108	63245.8
846.9698	928.8041	63477.45	62615
847.1149	930.8272	64028.4	63170.8
847.2601	932.8495	64094.7	63233.45
847.4052	934.8711	63663.45	62801.65
847.5504	936.892	63301.3	62441.3
847.6955	938.9123	63733.8	62872.65
847.8407	940.9318	63465.45	62606.65
847.9858	942.9506	63408.65	62548.9
848.131	944.9688	63501.45	62640.8
848.2761	946.9862	62581.3	61722.3
848.4213	949.003	63062.15	62203.55
848.5664	951.019	62120.55	61258.45
848.7115	953.0344	62321.3	61459.2
848.8567	955.0491	62127.65	61265.2
849.0018	957.063	62495.6	61633.95
849.147	959.0763	62581.55	61720.65
849.2921	961.0888	61697.1	60833.6
849.4373	963.1007	62292.7	61429.8
849.5824	965.1119	62278.45	61416.05
849.7275	967.1223	61647.3	60785.15
849.8727	969.1321	62355.2	61494.6
850.0178	971.1412	61420.9	60560.15
850.1629	973.1495	61111.5	60249.85
850.3081	975.1572	61575.7	60667.85
850.4532	977.1641	61110.5	60249.15
850.5983	979.1704	61087.25	60222.35
850.7435	981.1759	61164.65	60297.9
850.8886	983.1808	60592.65	59729.85
851.0337	985.1849	60558.5	59689
851.1788	987.1884	60611.1	59744.8
851.324	989.1911	61009.3	60141.2
851.4691	991.1932	59655	58788.4
851.6142	993.1945	59902	59038.15
851.7593	995.1951	60316.45	59452.25
851.9045	997.1951	59641.65	58772.3
852.0496	999.1943	59473.9	58612.7
852.1947	1001.1928	59257.45	58393.4
852.3398	1003.1906	59455.8	58593.15
852.4849	1005.1877	58671.9	57804.75
852.63	1007.1841	58455.7	57589.35
852.7751	1009.1798	58570.95	57707.5
852.9202	1011.1748	58585.9	57718.5
853.0653	1013.1691	58483.2	57618.2
853.2104	1015.1627	57123.7	56257.85
853.3555	1017.1556	57719.3	56855.35
853.5006	1019.1477	57995.2	57129.75
853.6457	1021.1392	57327.95	56464
853.7908	1023.1299	56453.2	55587.1
853.9359	1025.12	56964.15	56096.85
854.081	1027.1093	56431.55	55567.75
854.2261	1029.0979	56377.5	55514.5
854.3712	1031.0859	56279.75	55416.4
854.5163	1033.0731	55632.5	54767.95
854.6613	1035.0596	55817.5	54952.2
854.8064	1037.0454	55843.35	54976.1
854.9515	1039.0304	55416.4	54549.4
855.0965	1041.0148	54794	53927.65
855.2416	1042.9985	54998.55	54132.75
855.3867	1044.9814	55267.4	54399.85
855.5317	1046.9636	54612.5	53742.75
855.6768	1048.9452	54606.25	53739.85
855.8219	1050.926	54474.05	53610.1
855.9669	1052.9061	54475.1	53610.45
856.112	1054.8855	54552.95	53686.85
856.257	1056.8642	54035.7	53167.35
856.4021	1058.8421	53911.6	53038.3
856.5471	1060.8194	53824.2	52955.65
856.6921	1062.7959	53625.9	52757.6
856.8372	1064.7717	53824.8	52956.1
856.9822	1066.7469	53569.55	52697.7
857.1272	1068.7213	53660.1	52789.35
857.2723	1070.695	53460.7	52591.65
857.4173	1072.6679	53041.35	52170.6
857.5623	1074.6402	53316.15	52447.55
857.7073	1076.6117	53087.75	52214.55
857.8523	1078.5826	53041.1	52171.35
857.9973	1080.5527	52916.95	52046.8
858.1423	1082.5221	52617.15	51748.6
858.2873	1084.4908	52565.25	51697.35
858.4323	1086.4587	52350.5	51481.2
858.5773	1088.426	52233.9	51363.55
858.7223	1090.3925	52107.85	51234.4
858.8673	1092.3584	51972.45	51104.15
859.0123	1094.3235	51745.15	50876.8
859.1573	1096.2879	51686.7	50815.75
859.3022	1098.2515	51646.9	50778.15
859.4472	1100.2145	51605.55	50737.55
859.5922	1102.1767	51445.2	50572.3
859.7371	1104.1382	51483	50614.45
859.8821	1106.099	51312.2	50441.1
860.027	1108.0591	51219.8	50350.8
860.172	1110.0185	50897.75	50026.15
860.3169	1111.9771	51169.6	50300.45
860.4619	1113.9351	51049.7	50177.9
860.6068	1115.8923	50937.75	50066.5
860.7517	1117.8488	50913.3	50040.5
860.8967	1119.8045	50568.5	49696.85
861.0416	1121.7596	50518.15	49647.6
861.1865	1123.7139	50155	49284.4
861.3314	1125.6675	50076.2	49205.85
861.4763	1127.6204	49955.55	49083.7
861.6212	1129.5726	49826.9	48954.65
861.7661	1131.524	49828.2	48958.6
861.911	1133.4748	49702.55	48831.4
862.0559	1135.4248	49453.25	48581.35
862.2008	1137.3741	49310	48438.3
862.3457	1139.3226	49205.45	48331.95
862.4905	1141.2705	49219.45	48346.6
862.6354	1143.2176	48919.5	48042.35
862.7803	1145.164	48869.2	47997.35
862.9251	1147.1097	48886.65	48014.3
863.07	1149.0546	48797.3	47924.55
863.2148	1150.9989	48711.9	47840.3
863.3597	1152.9424	48592.05	47718.8
863.5045	1154.8852	48546.6	47674.85
863.6493	1156.8272	48489.25	47618.45
863.7942	1158.7686	48549.95	47671.5
863.939	1160.7092	48237.35	47364.85
864.0838	1162.6491	48046.05	47172.35
864.2286	1164.5883	48055.5	47183.9
864.3734	1166.5267	47914.95	47042.95
864.5182	1168.4644	48038.8	47165.6
864.663	1170.4014	47900.8	47024.25
864.8078	1172.3377	47963.85	47094.9
864.9526	1174.2732	47989.6	47118.95
865.0974	1176.2081	48018.9	47145.95
865.2421	1178.1421	48007.35	47130.85
865.3869	1180.0755	48117.5	47245.9
865.5317	1182.0082	47995	47121.95
865.6764	1183.9401	47949.25	47075.05
865.8212	1185.8713	47696.25	46824.05
865.9659	1187.8017	47501.6	46629.8
866.1106	1189.7315	47361.85	46488.8
866.2554	1191.6605	46993.75	46122.55
866.4001	1193.5888	46733.95	45862.65
866.5448	1195.5163	46601.65	45728.75
866.6895	1197.4432	46473	45598.8
866.8342	1199.3693	46384.55	45510.9
866.9789	1201.2947	46170.45	45293.35
867.1236	1203.2193	46025.6	45153.2
867.2683	1205.1432	45905.95	45030.1
867.413	1207.0664	45740.9	44867.25
867.5576	1208.9889	45599.35	44722.05
867.7023	1210.9106	45461.65	44585.65
867.847	1212.8316	45272.8	44400.7
867.9916	1214.7519	45230.6	44345.75
868.1363	1216.6715	45103.75	44230
868.2809	1218.5903	45047.75	44174.15
868.4255	1220.5084	44975	44101.8
868.5701	1222.4257	44968.55	44094.15
868.7148	1224.3424	44763.05	43889.95
