Software Version:	3.9.2.0
Unit SN:	10000200
Spectrometer SN:	6960
Date:	3/6/2024 9:27:57 AM
Data Line Index:	25
Spectral Points:	2048
Integration time (ms):	125
Averages:	20
Delay (ms):	30
Sequence Number:	1
Processing:	dark subtract
Laser Power (mW):	305
Laser Current (mA):	818
Laser Diode Temp (C):	25.1
Laser Case Temp (C):	23.2
System Temp (C):	22.9
Spectrometer Temp (C):	20.8
CCD Temp (C):	-0.039
Secondary Temp (C):	20.008
Heatsink Temp (C):	17.655
CCDPCB Temp (C):	29.537
SecondaryPCB Temp (C):	25.191

Wavelength	RamanShift	Raw Counts	Dark Subtracted
787.061	30.1047	540.45	131.65
787.2016	32.3739	545.85	139.6
787.3422	34.6426	556.25	147.15
787.4828	36.9109	563.85	155.55
787.6235	39.1787	575.85	163.2
787.7642	41.4461	592.9	174.55
787.9049	43.7131	610.2	188.9
788.0456	45.9796	614.95	191.55
788.1863	48.2456	636.2	209.45
788.3271	50.5112	650.35	220.9
788.4679	52.7764	666.45	232.35
788.6087	55.0411	679.6	242.25
788.7496	57.3054	698.45	256
788.8904	59.5692	713.6	268.75
789.0313	61.8326	744.1	299.4
789.1722	64.0955	760.25	310.85
789.3132	66.3579	786.15	333.2
789.4541	68.6199	822.35	365.5
789.5951	70.8815	881.2	418.25
789.7361	73.1426	1014.75	549.1
789.8771	75.4032	1349.5	880.95
790.0181	77.6634	2161.75	1691.05
790.1592	79.9231	4141	3667.55
790.3003	82.1824	8449.85	7971.9
790.4414	84.4412	16126.45	15640
790.5825	86.6995	26510.8	26015.4
790.7237	88.9574	36375.7	35873.9
790.8648	91.2148	43850.8	43346.5
791.006	93.4717	46981.05	46473
791.1472	95.7282	48451.85	47939.3
791.2885	97.9842	49045.05	48532.2
791.4297	100.2398	49446.75	48932.2
791.571	102.4949	49136.75	48618.5
791.7123	104.7495	49687.35	49165.45
791.8536	107.0036	49292.95	48770.4
791.9949	109.2573	50115	49589.5
792.1363	111.5105	49444.3	48918.8
792.2777	113.7632	50062.1	49533.9
792.4191	116.0154	50197.7	49660.35
792.5605	118.2672	50671.4	50138.4
792.7019	120.5185	50713.3	50179.7
792.8434	122.7693	50751.6	50213.9
792.9849	125.0197	50239.25	49698
793.1264	127.2696	51461.1	50916.35
793.2679	129.519	51409.25	50861.05
793.4094	131.7679	51861.2	51313.1
793.551	134.0163	50463.35	49912.8
793.6926	136.2642	51138.5	50581.75
793.8342	138.5117	52187.9	51628.25
793.9758	140.7587	51847.5	51288.75
794.1175	143.0052	52033.35	51470.2
794.2591	145.2512	51277.65	50714.1
794.4008	147.4967	52330.65	51764.65
794.5425	149.7417	51990.9	51420.9
794.6842	151.9863	52097.8	51524.2
794.826	154.2304	51352.1	50775.95
794.9677	156.4739	52134.95	51553.3
795.1095	158.717	52570.15	51988.75
795.2513	160.9596	52266.05	51677.55
795.3931	163.2017	51624.1	51036.4
795.535	165.4433	52520.6	51929.65
795.6768	167.6844	52145.85	51554.95
795.8187	169.925	52622.25	52025.25
795.9606	172.1651	52354.2	51755.25
796.1025	174.4047	52363.1	51757.85
796.2445	176.6439	52520.5	51915.15
796.3864	178.8825	52551.3	51940.6
796.5284	181.1206	52992.05	52379.65
796.6704	183.3582	53027.8	52409.7
796.8124	185.5954	52586.5	51970.35
796.9544	187.832	52863.7	52241.85
797.0965	190.0681	52470.5	51843.5
797.2386	192.3037	53388	52759
797.3806	194.5388	54262.45	53631.25
797.5228	196.7734	52227.65	51596.95
797.6649	199.0075	54055.85	53424.45
797.807	201.2411	53459.9	52825.45
797.9492	203.4742	54536.55	53899.3
798.0914	205.7068	54320.95	53676.3
798.2336	207.9389	54251.35	53611.2
798.3758	210.1704	54144.75	53512.25
798.518	212.4015	54986.5	54363.25
798.6603	214.632	53851.25	53231.3
798.8025	216.862	54938.2	54321.15
798.9448	219.0915	54662.55	54044.3
799.0871	221.3205	54377.9	53757.15
799.2294	223.549	55265.25	54648.2
799.3718	225.777	55179.25	54558.9
799.5141	228.0044	55536.9	54904.75
799.6565	230.2314	55165.1	54534.65
799.7989	232.4578	55112.9	54477.7
799.9413	234.6837	55269.1	54622.85
800.0837	236.909	56927.35	56280.8
800.2262	239.1339	54678.15	54010.8
800.3687	241.3582	55633.85	54980.6
800.5111	243.582	55727.15	55041.75
800.6536	245.8053	55800.35	55127
800.7961	248.0281	55859.35	55193.2
800.9387	250.2503	56289.8	55617.95
801.0812	252.472	55592.45	54921.3
801.2238	254.6932	55988	55317.7
801.3664	256.9139	55775.75	55099.65
801.509	259.134	57342.85	56667.6
801.6516	261.3536	55521.25	54847.75
801.7942	263.5727	56640.4	55966.2
801.9369	265.7912	56053.9	55379.15
802.0795	268.0092	56299.9	55624.3
802.2222	270.2267	56506.85	55831.15
802.3649	272.4436	55821.9	55143
802.5076	274.6601	56534.5	55844.95
802.6504	276.8759	56979.85	56291.45
802.7931	279.0913	56629.45	55943.95
802.9359	281.3061	56739.15	56051.3
803.0787	283.5204	56881.6	56190.4
803.2215	285.7341	56766.25	56074.75
803.3643	287.9473	57619.4	56916.95
803.5071	290.16	56884.35	56187.7
803.6499	292.3721	57292.8	56601.85
803.7928	294.5837	56526.15	55832.55
803.9357	296.7947	56105.45	55411.15
804.0786	299.0052	57229.15	56535.2
804.2215	301.2152	56672.85	55976.15
804.3644	303.4246	57405.1	56707.85
804.5074	305.6334	57382.95	56686.05
804.6503	307.8418	56432.75	55731.9
804.7933	310.0495	56752.95	56053.55
804.9363	312.2568	56616.4	55915.8
805.0793	314.4635	56634.65	55931.5
805.2223	316.6696	57023.5	56318.9
805.3653	318.8752	57517.2	56803.05
805.5084	321.0802	55820.8	55115
805.6514	323.2847	56496.15	55785.35
805.7945	325.4887	56539.2	55828.95
805.9376	327.692	56116.65	55406.5
806.0807	329.8949	56630	55916.65
806.2238	332.0972	56342.95	55628
806.367	334.2989	56711.75	55993.45
806.5101	336.5001	57416.35	56698.55
806.6533	338.7007	56113.5	55394.55
806.7965	340.9008	56725.45	56006.1
806.9397	343.1003	56831.4	56108.3
807.0829	345.2992	57313.15	56589.7
807.2261	347.4976	56611.4	55886.85
807.3693	349.6955	56852.6	56122.6
807.5126	351.8927	56398.6	55668.3
807.6559	354.0895	57017.45	56273.6
807.7991	356.2856	56812.85	56081.15
807.9424	358.4812	57330.25	56596.4
808.0857	360.6763	56462.75	55728.75
808.2291	362.8707	57129.45	56392.4
808.3724	365.0646	56573.45	55834.65
808.5158	367.258	56652.1	55909.45
808.6591	369.4508	56177.1	55431.85
808.8025	371.643	56974.5	56228.4
808.9459	373.8346	56647.8	55898.5
809.0893	376.0257	56646.2	55897.65
809.2327	378.2162	56409.55	55660.6
809.3762	380.4062	55859.8	55112.5
809.5196	382.5956	56329.1	55582.9
809.6631	384.7844	56360.85	55615.65
809.8066	386.9726	56634.85	55889.7
809.9501	389.1603	56689.05	55946.65
810.0936	391.3474	55886.8	55094.45
810.2371	393.5339	56614.75	55870.85
810.3806	395.7199	55652.05	54911.9
810.5241	397.9052	55756.75	55016.25
810.6677	400.09	56022.6	55280.5
810.8113	402.2743	56435.35	55691.9
810.9548	404.4579	55947.2	55201.7
811.0984	406.641	55801.25	55052.7
811.2421	408.8235	56205.1	55455.45
811.3857	411.0054	56124.05	55373.5
811.5293	413.1868	56154.85	55398.65
811.673	415.3675	56076.45	55316.05
811.8166	417.5477	56077.25	55316.1
811.9603	419.7273	55920.3	55158.85
812.104	421.9064	55738.2	54969.35
812.2477	424.0848	55945.25	55182.6
812.3914	426.2627	56322.25	55557.3
812.5351	428.4399	55427.2	54661.75
812.6788	430.6166	54927.65	54158.25
812.8226	432.7928	55643.45	54873.8
812.9663	434.9683	54977.35	54206.05
813.1101	437.1432	55071.8	54300.7
813.2539	439.3176	55520.9	54750.75
813.3977	441.4914	54647.55	53877.7
813.5415	443.6645	54711.1	53938.15
813.6853	445.8371	54747.45	53976.25
813.8291	448.0091	54291.8	53517.6
813.973	450.1806	54144.45	53370
814.1168	452.3514	54174.7	53396
814.2607	454.5216	53881.4	53096.5
814.4046	456.6913	54147.65	53369.25
814.5485	458.8603	54299.3	53524
814.6924	461.0288	53721.3	52942.5
814.8363	463.1967	54135.5	53357.7
814.9802	465.3639	54135.35	53355.15
815.1241	467.5306	53214.4	52433.2
815.2681	469.6967	53620.9	52840.4
815.412	471.8622	53730.45	52951.8
815.556	474.0271	53440.9	52660.7
815.7	476.1914	53560.95	52778.05
815.844	478.3551	53563.25	52780.95
815.988	480.5182	53974.7	53190.25
816.132	482.6807	53305.75	52523.85
816.276	484.8426	53429.45	52646.75
816.4201	487.0039	53976.05	53190.65
816.5641	489.1647	53907.95	53120.65
816.7082	491.3248	53208.8	52423.45
816.8522	493.4843	53958.25	53173.35
816.9963	495.6432	53916.05	53130.25
817.1404	497.8015	53089.4	52299.9
817.2845	499.9592	53484.15	52694.5
817.4286	502.1163	53483.4	52695.1
817.5727	504.2728	53391.25	52596.1
817.7168	506.4287	53472.4	52684.55
817.861	508.5839	52951.25	52159.55
818.0051	510.7386	53183.25	52392.4
818.1493	512.8927	53395.85	52594.75
818.2935	515.0461	53217.5	52425.3
818.4377	517.199	53557.5	52763.3
818.5818	519.3512	53353.55	52560.7
818.726	521.5029	53069.7	52269.95
818.8703	523.6539	53218.2	52423.8
819.0145	525.8043	52676.5	51879.25
819.1587	527.9541	53084.9	52284.25
819.303	530.1033	52964.45	52162.55
819.4472	532.2519	52717.5	51919.25
819.5915	534.3999	52790.15	51989.45
819.7357	536.5472	53079.2	52278.85
819.88	538.694	52424.6	51623.85
820.0243	540.8401	52784.75	51983.35
820.1686	542.9856	52662.8	51859.05
820.3129	545.1305	52765.5	51963.7
820.4572	547.2748	52547.1	51742.95
820.6016	549.4185	52564.15	51757.45
820.7459	551.5615	52719.65	51913.5
820.8902	553.704	52623.5	51817.45
821.0346	555.8458	52349.9	51543.95
821.1789	557.987	52458.9	51651.45
821.3233	560.1276	52511.9	51704.8
821.4677	562.2675	52404.75	51599.25
821.6121	564.4069	52364.1	51557.55
821.7565	566.5456	52557.1	51753.25
821.9009	568.6837	52104.95	51297
822.0453	570.8212	52240.55	51434.9
822.1897	572.958	51741.95	50931
822.3342	575.0942	51977.15	51170.7
822.4786	577.2299	51595.6	50787.55
822.6231	579.3648	51562.25	50755.4
822.7675	581.4992	51267.8	50460.75
822.912	583.6329	51111.8	50304.95
823.0565	585.766	51071.35	50261.6
823.201	587.8985	51143.2	50334.25
823.3454	590.0304	50665.95	49831.5
823.4899	592.1616	50927.15	50114.45
823.6345	594.2922	50735	49922.85
823.779	596.4222	50569.35	49756.8
823.9235	598.5515	50561	49746.5
824.068	600.6802	50443.85	49630.45
824.2126	602.8083	50122.95	49306.6
824.3571	604.9358	50033.45	49214.45
824.5017	607.0626	50128.2	49308.15
824.6462	609.1888	49868.85	49051.05
824.7908	611.3144	49963.4	49145.45
824.9354	613.4393	49705.25	48889.7
825.08	615.5636	49679.6	48862.15
825.2246	617.6873	49750.6	48933.45
825.3692	619.8103	49707.55	48887.6
825.5138	621.9327	49662.4	48840
825.6584	624.0544	49805.2	48986.9
825.803	626.1756	49560.15	48738.95
825.9477	628.2961	49538.7	48714.85
826.0923	630.4159	49307.05	48484.3
826.237	632.5351	49300.55	48478
826.3816	634.6537	49445.45	48621.5
826.5263	636.7716	49148.5	48323.45
826.6709	638.8889	49229.85	48405.85
826.8156	641.0056	49173.9	48349.6
826.9603	643.1216	49187.25	48362.2
827.105	645.237	49328.65	48499.9
827.2497	647.3518	49008.35	48182.75
827.3944	649.4659	49013	48188.9
827.5391	651.5793	48925.85	48099.4
827.6838	653.6922	48853.85	48029.65
827.8285	655.8043	48670.4	47846.65
827.9733	657.9159	48860.4	48034.05
828.118	660.0268	48355.9	47524.95
828.2627	662.137	48398.5	47569.4
828.4075	664.2466	48468.7	47640.05
828.5522	666.3556	48400.9	47572.55
828.697	668.4639	48317.8	47484.9
828.8418	670.5716	48331.4	47501.95
828.9865	672.6786	48306.5	47476.35
829.1313	674.785	48053.95	47222
829.2761	676.8907	47911.95	47079
829.4209	678.9958	47981.45	47152
829.5657	681.1002	47823.05	46989.9
829.7105	683.204	47652.8	46815.35
829.8553	685.3072	47653.8	46821.8
830.0001	687.4097	47558.2	46726.5
830.1449	689.5115	47533.25	46697.6
830.2898	691.6127	47550.2	46715.5
830.4346	693.7132	47356.25	46523.75
830.5794	695.8131	47487.3	46633.6
830.7243	697.9123	47454.45	46619.95
830.8691	700.0109	47430.6	46593
831.014	702.1089	47234.1	46399.35
831.1588	704.2061	47256.2	46420.95
831.3037	706.3028	47218.95	46380.6
831.4486	708.3987	47186.1	46351.2
831.5935	710.4941	47055.8	46219.65
831.7383	712.5887	47050.15	46212.25
831.8832	714.6827	47058.7	46217.35
832.0281	716.7761	46980.75	46144.95
832.173	718.8688	46915.85	46078.1
832.3179	720.9608	46818.7	45976.85
832.4628	723.0522	46868.45	46023.5
832.6077	725.1429	46661.1	45820.85
832.7527	727.233	46742.2	45899.65
832.8976	729.3224	46649.75	45810.05
833.0425	731.4112	46556.15	45713.3
833.1874	733.4993	46435.75	45591.25
833.3324	735.5867	46325.8	45484.15
833.4773	737.6735	46193.8	45352.4
833.6222	739.7596	46105.75	45260.55
833.7672	741.845	45972.55	45130.8
833.9122	743.9298	45868.45	45022.2
834.0571	746.014	45754.55	44912.1
834.2021	748.0974	45804.05	44959.5
834.347	750.1802	45613.65	44768.15
834.492	752.2624	45459.4	44614.35
834.637	754.3439	45379.55	44534.55
834.782	756.4247	45192.05	44339.5
834.9269	758.5048	45066.5	44221.15
835.0719	760.5843	44976.95	44132.25
835.2169	762.6631	44858.6	44014
835.3619	764.7413	44760.9	43918.8
835.5069	766.8188	44779.85	43932
835.6519	768.8956	44602.55	43753
835.7969	770.9718	44715.35	43869.95
835.9419	773.0473	44434.05	43588.5
836.0869	775.1221	44415.5	43567.7
836.232	777.1962	44250.05	43402.6
836.377	779.2697	44249.05	43401
836.522	781.3426	44214.65	43355.6
836.667	783.4147	44120.95	43274.6
836.8121	785.4862	44117.7	43270.1
836.9571	787.557	43974.2	43125.9
837.1021	789.6271	43817.4	42968.95
837.2472	791.6966	43626.4	42778.6
837.3922	793.7654	43469.55	42619.55
837.5373	795.8335	43398.05	42548.55
837.6823	797.901	43290.2	42439.7
837.8274	799.9678	43221.6	42371.2
837.9724	802.0339	43145.55	42297.05
838.1175	804.0993	43061.85	42199.5
838.2626	806.1641	42904.75	42054.6
838.4076	808.2282	42801.05	41952.75
838.5527	810.2916	42793	41940.4
838.6978	812.3544	42709.75	41860.7
838.8428	814.4164	42621.25	41771.05
838.9879	816.4778	42695.45	41844.05
839.133	818.5385	42480.05	41630
839.2781	820.5986	42503.45	41649.7
839.4232	822.658	42550.65	41696.5
839.5682	824.7166	42396.1	41544.45
839.7133	826.7747	42501.4	41649.95
839.8584	828.832	42452.85	41599.05
840.0035	830.8886	42214.3	41359.7
840.1486	832.9446	42228.05	41374.4
840.2937	834.9999	42093.75	41241.55
840.4388	837.0545	42081.25	41222.95
840.5839	839.1085	41983.75	41127.95
840.729	841.1618	41810.5	40952.85
840.8741	843.2143	41701.7	40848.4
841.0192	845.2662	41528.95	40676.7
841.1643	847.3175	41541.45	40688.2
841.3095	849.368	41375.3	40518.95
841.4546	851.4179	41357.95	40503.95
841.5997	853.467	41106.65	40251.8
841.7448	855.5155	41116.8	40260.95
841.8899	857.5633	41045.85	40190.2
842.0351	859.6105	40921	40065.2
842.1802	861.6569	40831.7	39976.45
842.3253	863.7027	40763.1	39906.8
842.4704	865.7478	40767.15	39912.15
842.6156	867.7922	40712	39854.5
842.7607	869.8359	40602.3	39742.35
842.9058	871.8789	40573.85	39716.6
843.0509	873.9212	40511.1	39622.1
843.1961	875.9629	40349.3	39493.5
843.3412	878.0039	40340.15	39481.5
843.4863	880.0441	40251.1	39395.05
843.6315	882.0837	40299.6	39441.15
843.7766	884.1226	40272.45	39411.1
843.9218	886.1609	40249.45	39390.05
844.0669	888.1984	40204.95	39345.9
844.212	890.2352	40275.85	39418.7
844.3572	892.2714	40164.05	39302.7
844.5023	894.3069	40137.7	39278.2
844.6475	896.3416	39959.9	39100.3
844.7926	898.3757	39954.8	39095.35
844.9377	900.4091	39789.4	38928.9
845.0829	902.4418	39735.75	38868.95
845.228	904.4739	39636.3	38773.85
845.3732	906.5052	39591.5	38732
845.5183	908.5358	39495.95	38634.6
845.6635	910.5658	39457.1	38594.55
845.8086	912.595	39318.9	38457.15
845.9538	914.6236	39236.25	38375.5
846.0989	916.6515	39167	38306.85
846.2441	918.6786	39010.6	38147.2
846.3892	920.7051	38937.1	38072.7
846.5344	922.7309	39013.1	38151.25
846.6795	924.756	38771.6	37909.2
846.8246	926.7804	38789.2	37924.1
846.9698	928.8041	38506.05	37642.35
847.1149	930.8272	38541.3	37678.35
847.2601	932.8495	38334	37467.25
847.4052	934.8711	38346.2	37482.8
847.5504	936.892	38192	37331.35
847.6955	938.9123	38062.7	37200.5
847.8407	940.9318	38017.2	37154.1
847.9858	942.9506	37905.7	37040.05
848.131	944.9688	37784.55	36921
848.2761	946.9862	37679.7	36816.5
848.4213	949.003	37515.95	36650
848.5664	951.019	37400.2	36538.1
848.7115	953.0344	37275.15	36408.25
848.8567	955.0491	37199.6	36332.9
849.0018	957.063	37164.65	36300.4
849.147	959.0763	37250.6	36387.85
849.2921	961.0888	37065.65	36199.9
849.4373	963.1007	37007.2	36143
849.5824	965.1119	36955.75	36092
849.7275	967.1223	36941.15	36077.05
849.8727	969.1321	36869.85	36006.7
850.0178	971.1412	36836.6	35973.15
850.1629	973.1495	36618.3	35754.25
850.3081	975.1572	36580.35	35668.8
850.4532	977.1641	36568.3	35703.85
850.5983	979.1704	36445.4	35579.1
850.7435	981.1759	36370.45	35503.35
850.8886	983.1808	36339.35	35471.35
851.0337	985.1849	36251.05	35379.2
851.1788	987.1884	36103.5	35237.1
851.324	989.1911	36104.65	35233.95
851.4691	991.1932	36008.55	35140.75
851.6142	993.1945	35814.25	34948.25
851.7593	995.1951	35646.4	34779.45
851.9045	997.1951	35602.8	34730.95
852.0496	999.1943	35480.05	34614.85
852.1947	1001.1928	35317.15	34449.8
852.3398	1003.1906	35157.65	34289.45
852.4849	1005.1877	35128.3	34259.4
852.63	1007.1841	35007.95	34141.6
852.7751	1009.1798	34874.45	34005.5
852.9202	1011.1748	34767.3	33900.95
853.0653	1013.1691	34655.15	33787.85
853.2104	1015.1627	34499.9	33631.65
853.3555	1017.1556	34293.55	33424.55
853.5006	1019.1477	34172	33303.45
853.6457	1021.1392	33983.35	33117.5
853.7908	1023.1299	33875.4	33007.05
853.9359	1025.12	33742	32870.5
854.081	1027.1093	33602.3	32738.05
854.2261	1029.0979	33488.75	32623
854.3712	1031.0859	33415.35	32549.5
854.5163	1033.0731	33366.7	32500.2
854.6613	1035.0596	33223.5	32354.75
854.8064	1037.0454	33054	32186.15
854.9515	1039.0304	33051.35	32182.8
855.0965	1041.0148	32840.6	31971.1
855.2416	1042.9985	32731.65	31860.9
855.3867	1044.9814	32714.95	31846.2
855.5317	1046.9636	32540.05	31667.6
855.6768	1048.9452	32400.2	31532.95
855.8219	1050.926	32375.1	31507.75
855.9669	1052.9061	32305.85	31438.2
856.112	1054.8855	32196.4	31327.2
856.257	1056.8642	32151.7	31282.95
856.4021	1058.8421	32150.1	31275.7
856.5471	1060.8194	32038.1	31163.8
856.6921	1062.7959	31951.8	31083.9
856.8372	1064.7717	31916.9	31045.55
856.9822	1066.7469	31861.45	30988.85
857.1272	1068.7213	31790.35	30915.65
857.2723	1070.695	31700.15	30828.3
857.4173	1072.6679	31576.35	30706.35
857.5623	1074.6402	31545.7	30673.75
857.7073	1076.6117	31546.75	30670.85
857.8523	1078.5826	31495.8	30625.4
857.9973	1080.5527	31353.75	30477.85
858.1423	1082.5221	31264.95	30395.6
858.2873	1084.4908	31204.75	30333.55
858.4323	1086.4587	31104.45	30232.3
858.5773	1088.426	31046.55	30172.55
858.7223	1090.3925	30910.95	30033.75
858.8673	1092.3584	30917.35	30046
859.0123	1094.3235	30737.6	29866.3
859.1573	1096.2879	30671.35	29799.15
859.3022	1098.2515	30635.35	29762.1
859.4472	1100.2145	30610.75	29737.2
859.5922	1102.1767	30541.6	29667.25
859.7371	1104.1382	30492.8	29621.7
859.8821	1106.099	30472.7	29596
860.027	1108.0591	30357.1	29485.65
860.172	1110.0185	30336.15	29460.6
860.3169	1111.9771	30395.65	29522.65
860.4619	1113.9351	30215.1	29342.6
860.6068	1115.8923	30226.2	29353.75
860.7517	1117.8488	30197.8	29323.1
860.8967	1119.8045	30069.3	29197.15
861.0416	1121.7596	29948.75	29075.05
861.1865	1123.7139	29741.1	28868.05
861.3314	1125.6675	29614.65	28742.9
861.4763	1127.6204	29633.4	28760.5
861.6212	1129.5726	29521.5	28646.6
861.7661	1131.524	29566.1	28692.75
861.911	1133.4748	29467.5	28594.15
862.0559	1135.4248	29310.05	28436.5
862.2008	1137.3741	29245.65	28372.65
862.3457	1139.3226	29144.35	28269.45
862.4905	1141.2705	29140.05	28266.55
862.6354	1143.2176	28949.75	28069.05
862.7803	1145.164	28980.95	28105.8
862.9251	1147.1097	28939.55	28067
863.07	1149.0546	28874.9	28000.8
863.2148	1150.9989	28809.9	27935.35
863.3597	1152.9424	28783.25	27909
863.5045	1154.8852	28713.35	27837.7
863.6493	1156.8272	28690.3	27816.4
863.7942	1158.7686	28648.5	27765.4
863.939	1160.7092	28518.3	27644.2
864.0838	1162.6491	28430.7	27554.55
864.2286	1164.5883	28378.3	27505.4
864.3734	1166.5267	28362.6	27486.45
864.5182	1168.4644	28391.65	27515.45
864.663	1170.4014	28350.6	27472.2
864.8078	1172.3377	28363.25	27491.2
864.9526	1174.2732	28357.5	27481.95
865.0974	1176.2081	28384.9	27509.9
865.2421	1178.1421	28441.4	27561.7
865.3869	1180.0755	28491.75	27617.75
865.5317	1182.0082	28417	27543.45
