Software Version:	3.9.2.0
Unit SN:	10000200
Spectrometer SN:	6960
Date:	3/6/2024 9:36:37 AM
Data Line Index:	25
Spectral Points:	2048
Integration time (ms):	125
Averages:	20
Delay (ms):	30
Sequence Number:	1
Processing:	dark subtract
Laser Power (mW):	300
Laser Current (mA):	824
Laser Diode Temp (C):	25.1
Laser Case Temp (C):	23.9
System Temp (C):	23.7
Spectrometer Temp (C):	21.3
CCD Temp (C):	-0.031
Secondary Temp (C):	20.006
Heatsink Temp (C):	17.324
CCDPCB Temp (C):	30.527
SecondaryPCB Temp (C):	25.525

Wavelength	RamanShift	Raw Counts	Dark Subtracted
787.061	30.1047	520.95	112.6
787.2016	32.3739	522.85	116.95
787.3422	34.6426	532.05	125.45
787.4828	36.9109	539.85	132.7
787.6235	39.1787	555	143
787.7642	41.4461	563.9	148.6
787.9049	43.7131	576.1	156.2
788.0456	45.9796	589.6	167.6
788.1863	48.2456	605.45	179.1
788.3271	50.5112	615.6	185.4
788.4679	52.7764	633.1	199.45
788.6087	55.0411	645.3	207.45
788.7496	57.3054	662.65	219.8
788.8904	59.5692	678.6	234.55
789.0313	61.8326	696.4	251.45
789.1722	64.0955	715.25	267.7
789.3132	66.3579	741.65	287.75
789.4541	68.6199	772.45	315.7
789.5951	70.8815	825.85	363.7
789.7361	73.1426	933.2	467.2
789.8771	75.4032	1218.5	748.2
790.0181	77.6634	1932.2	1460.3
790.1592	79.9231	3618.45	3145.25
790.3003	82.1824	7325.3	6847.6
790.4414	84.4412	13926.6	13441.9
790.5825	86.6995	23304.4	22815.8
790.7237	88.9574	31603.65	31110.8
790.8648	91.2148	37409	36913.2
791.006	93.4717	39808.15	39308.2
791.1472	95.7282	40924.05	40420.6
791.2885	97.9842	41500.95	40994.9
791.4297	100.2398	41649.45	41141.1
791.571	102.4949	41753.4	41242.8
791.7123	104.7495	41870.55	41354.95
791.8536	107.0036	41790.9	41277.5
791.9949	109.2573	42079.75	41565.05
792.1363	111.5105	41952.25	41434.1
792.2777	113.7632	42052.65	41534.65
792.4191	116.0154	42223.25	41693.9
792.5605	118.2672	42417.3	41894.1
792.7019	120.5185	42434.4	41910.75
792.8434	122.7693	42497	41969.6
792.9849	125.0197	42344.35	41808.5
793.1264	127.2696	42772.8	42233.1
793.2679	129.519	42789.35	42250.95
793.4094	131.7679	43011.55	42470.6
793.551	134.0163	42697.25	42153.6
793.6926	136.2642	42982.75	42434.95
793.8342	138.5117	43236.9	42686.45
793.9758	140.7587	43127.85	42578.65
794.1175	143.0052	43196.05	42642.15
794.2591	145.2512	43006.65	42450.4
794.4008	147.4967	43276.4	42719.9
794.5425	149.7417	43227	42664.75
794.6842	151.9863	43243.55	42679.1
794.826	154.2304	43171.05	42603.95
794.9677	156.4739	43242.3	42668.1
795.1095	158.717	43454.7	42883.35
795.2513	160.9596	43399.5	42821.8
795.3931	163.2017	43274.25	42692.45
795.535	165.4433	43561.95	42979.25
795.6768	167.6844	43422.15	42835.55
795.8187	169.925	43611.8	43022.75
795.9606	172.1651	43444.7	42852.25
796.1025	174.4047	43528.35	42931.75
796.2445	176.6439	43568.6	42972.75
796.3864	178.8825	43553.55	42953.1
796.5284	181.1206	43774.75	43173.2
796.6704	183.3582	43774.35	43165.95
796.8124	185.5954	43708.4	43099.3
796.9544	187.832	43808.75	43196
797.0965	190.0681	43719.25	43104.35
797.2386	192.3037	44026.7	43407.5
797.3806	194.5388	44252.25	43629.45
797.5228	196.7734	43759.3	43134.4
797.6649	199.0075	44358.25	43735.45
797.807	201.2411	44311.65	43684.6
797.9492	203.4742	44614.5	43986.85
798.0914	205.7068	44671.25	44036.65
798.2336	207.9389	44672.2	44040.35
798.3758	210.1704	44693.75	44072.45
798.518	212.4015	44853.75	44238.25
798.6603	214.632	44722.8	44110.85
798.8025	216.862	44981.55	44371.2
798.9448	219.0915	44861.9	44249.6
799.0871	221.3205	44872.8	44257.1
799.2294	223.549	45126.45	44514.05
799.3718	225.777	45193.45	44579.7
799.5141	228.0044	45301.7	44680.6
799.6565	230.2314	45303.75	44679.95
799.7989	232.4578	45223.3	44596.35
799.9413	234.6837	45322.25	44685.8
800.0837	236.909	45754.55	45117.15
800.2262	239.1339	45280.3	44619.55
800.3687	241.3582	45487	44841.15
800.5111	243.582	45550.3	44874
800.6536	245.8053	45568.4	44903.85
800.7961	248.0281	45567.75	44909.1
800.9387	250.2503	45716.85	45056.35
801.0812	252.472	45551.2	44888.45
801.2238	254.6932	45708.75	45046.4
801.3664	256.9139	45641.5	44975.9
801.509	259.134	46030.35	45361.3
801.6516	261.3536	45706.15	45041.1
801.7942	263.5727	45930	45261.2
801.9369	265.7912	45815.8	45148.45
802.0795	268.0092	45952.1	45282.85
802.2222	270.2267	46080.5	45408.45
802.3649	272.4436	46000.2	45327.05
802.5076	274.6601	46146.05	45464.4
802.6504	276.8759	46213.2	45533.8
802.7931	279.0913	46148.1	45468.95
802.9359	281.3061	46228.3	45547.6
803.0787	283.5204	46290.05	45607.8
803.2215	285.7341	46326.3	45642.85
803.3643	287.9473	46505.15	45808.15
803.5071	290.16	46381.7	45690.75
803.6499	292.3721	46396.15	45714.4
803.7928	294.5837	46276.1	45591.55
803.9357	296.7947	46172.25	45486.2
804.0786	299.0052	46376.65	45689.85
804.2215	301.2152	46288.65	45598.25
804.3644	303.4246	46402.8	45716.1
804.5074	305.6334	46366.3	45678.85
804.6503	307.8418	46192.8	45498.65
804.7933	310.0495	46198.7	45506.65
804.9363	312.2568	46220.4	45526.2
805.0793	314.4635	46130.3	45434.3
805.2223	316.6696	46219.15	45524.4
805.3653	318.8752	46200.1	45494.05
805.5084	321.0802	45874.45	45174.8
805.6514	323.2847	46050.1	45349.25
805.7945	325.4887	45974.9	45273.3
805.9376	327.692	45894.8	45188.9
806.0807	329.8949	46126	45420.85
806.2238	332.0972	46068.95	45360.5
806.367	334.2989	46204.85	45494.15
806.5101	336.5001	46263.8	45554.25
806.6533	338.7007	46024.45	45314.25
806.7965	340.9008	46191.4	45479.95
806.9397	343.1003	46170.4	45455.2
807.0829	345.2992	46217.8	45501.4
807.2261	347.4976	46098.5	45379.4
807.3693	349.6955	46108.7	45388.7
807.5126	351.8927	46035	45313.25
807.6559	354.0895	46121.05	45390.55
807.7991	356.2856	46097.4	45373.3
807.9424	358.4812	46175.05	45449.3
808.0857	360.6763	46042.15	45314.2
808.2291	362.8707	46190.9	45462.45
808.3724	365.0646	46061.6	45327.9
808.5158	367.258	46058.8	45325.2
808.6591	369.4508	45879	45142.1
808.8025	371.643	46097.5	45361.35
808.9459	373.8346	45996.15	45255.2
809.0893	376.0257	46008.55	45268
809.2327	378.2162	45969.1	45226.8
809.3762	380.4062	45812.15	45072.4
809.5196	382.5956	45901.85	45164.4
809.6631	384.7844	45897.7	45164.05
809.8066	386.9726	45895.25	45159.7
809.9501	389.1603	45879.05	45146.85
810.0936	391.3474	45723.45	44941.2
810.2371	393.5339	45830	45094.55
810.3806	395.7199	45529.1	44795.1
810.5241	397.9052	45561.05	44826.85
810.6677	400.09	45660.7	44923.75
810.8113	402.2743	45790.75	45054.35
810.9548	404.4579	45637.15	44900.25
811.0984	406.641	45694.5	44953.65
811.2421	408.8235	45777.6	45033.9
811.3857	411.0054	45831	45085.5
811.5293	413.1868	45905.1	45157.8
811.673	415.3675	45812.25	45059.2
811.8166	417.5477	45813.75	45062.25
811.9603	419.7273	45756.6	45002
812.104	421.9064	45635.95	44876.1
812.2477	424.0848	45601.6	44845.45
812.3914	426.2627	45634.2	44876.8
812.5351	428.4399	45411.35	44652.7
812.6788	430.6166	45217.8	44455.1
812.8226	432.7928	45313.1	44549.4
812.9663	434.9683	45146.6	44384.9
813.1101	437.1432	45087.7	44321.25
813.2539	439.3176	45156.55	44392.75
813.3977	441.4914	44834	44069.25
813.5415	443.6645	44869.25	44102.35
813.6853	445.8371	44807.5	44039.1
813.8291	448.0091	44647.3	43879.3
813.973	450.1806	44577.35	43811.3
814.1168	452.3514	44516.95	43745.85
814.2607	454.5216	44422.45	43646.45
814.4046	456.6913	44426.4	43654.9
814.5485	458.8603	44498.1	43726.75
814.6924	461.0288	44326.05	43555.7
814.8363	463.1967	44419.7	43648.25
814.9802	465.3639	44444.2	43672.85
815.1241	467.5306	44115.55	43342.1
815.2681	469.6967	44222.7	43449.25
815.412	471.8622	44268.75	43495.4
815.556	474.0271	44133.6	43359.2
815.7	476.1914	44169.8	43394.35
815.844	478.3551	44180.85	43403.7
815.988	480.5182	44341.6	43565.75
816.132	482.6807	44099	43321.85
816.276	484.8426	44100.75	43326.05
816.4201	487.0039	44323.15	43544.25
816.5641	489.1647	44280	43499.6
816.7082	491.3248	44156.6	43377.7
816.8522	493.4843	44339.85	43560.45
816.9963	495.6432	44330.4	43549.6
817.1404	497.8015	44040	43255.6
817.2845	499.9592	44177.6	43396.6
817.4286	502.1163	44133.8	43349.75
817.5727	504.2728	44009.2	43225.25
817.7168	506.4287	44063.7	43281.6
817.861	508.5839	43899.95	43114.9
818.0051	510.7386	43937.3	43150.35
818.1493	512.8927	43999.4	43206.35
818.2935	515.0461	43952.5	43164.8
818.4377	517.199	44062.5	43274.9
818.5818	519.3512	43934	43146.3
818.726	521.5029	43971.85	43177.8
818.8703	523.6539	43973.45	43181
819.0145	525.8043	43848.6	43059.45
819.1587	527.9541	43921.6	43129.45
819.303	530.1033	43766.4	42974.55
819.4472	532.2519	43699.2	42907.85
819.5915	534.3999	43751.25	42955.25
819.7357	536.5472	43774.6	42979.55
819.88	538.694	43542.25	42750.3
820.0243	540.8401	43674.5	42879.65
820.1686	542.9856	43632.8	42838.3
820.3129	545.1305	43697.85	42900.6
820.4572	547.2748	43615.85	42816.75
820.6016	549.4185	43601.4	42802.95
820.7459	551.5615	43647.05	42849.6
820.8902	553.704	43616.05	42817.45
821.0346	555.8458	43489.45	42692.5
821.1789	557.987	43499.6	42700.75
821.3233	560.1276	43556.45	42755.85
821.4677	562.2675	43524.95	42726.1
821.6121	564.4069	43508.05	42708.65
821.7565	566.5456	43611.1	42813.15
821.9009	568.6837	43395.9	42597.25
822.0453	570.8212	43391.7	42591.35
822.1897	572.958	43148.95	42348.25
822.3342	575.0942	43178.95	42380.45
822.4786	577.2299	43049.3	42247.75
822.6231	579.3648	42993.25	42191.6
822.7675	581.4992	42828.85	42027.95
822.912	583.6329	42766.95	41963.2
823.0565	585.766	42696.7	41893.35
823.201	587.8985	42726.9	41922.7
823.3454	590.0304	42511.85	41694.65
823.4899	592.1616	42669.15	41860.3
823.6345	594.2922	42566.45	41759.05
823.779	596.4222	42357.75	41549.9
823.9235	598.5515	42359.65	41552.5
824.068	600.6802	42324.5	41515.4
824.2126	602.8083	42068.75	41260.1
824.3571	604.9358	42020	41209.2
824.5017	607.0626	42067.15	41256.75
824.6462	609.1888	41869.5	41058.3
824.7908	611.3144	41987.7	41177.55
824.9354	613.4393	41879.65	41067
825.08	615.5636	41808.55	40997.6
825.2246	617.6873	41924.9	41114.9
825.3692	619.8103	41823.15	41009.2
825.5138	621.9327	41895.05	41079.3
825.6584	624.0544	41901.75	41089.75
825.803	626.1756	41729.8	40915.4
825.9477	628.2961	41682.9	40867.55
826.0923	630.4159	41530.7	40717.3
826.237	632.5351	41471.55	40657.25
826.3816	634.6537	41691.4	40875.05
826.5263	636.7716	41407.2	40589.85
826.6709	638.8889	41472.75	40654.5
826.8156	641.0056	41457.7	40641.15
826.9603	643.1216	41470.45	40651.55
827.105	645.237	41566.85	40746.15
827.2497	647.3518	41312.6	40495.5
827.3944	649.4659	41366.4	40549.55
827.5391	651.5793	41276	40456.9
827.6838	653.6922	41272.5	40454.7
827.8285	655.8043	41058.8	40238.3
827.9733	657.9159	41265.25	40444.2
828.118	660.0268	40898.15	40075
828.2627	662.137	41068.25	40245.9
828.4075	664.2466	41042	40219.05
828.5522	666.3556	40942.5	40119.85
828.697	668.4639	40887.45	40062.15
828.8418	670.5716	40852.85	40029.85
828.9865	672.6786	40913.2	40088.2
829.1313	674.785	40693.55	39865.8
829.2761	676.8907	40630.3	39805.4
829.4209	678.9958	40667.1	39844.35
829.5657	681.1002	40640.95	39816.25
829.7105	683.204	40461.15	39631
829.8553	685.3072	40393.6	39566.35
830.0001	687.4097	40400.65	39575
830.1449	689.5115	40383.35	39553.15
830.2898	691.6127	40431.2	39605.05
830.4346	693.7132	40279.7	39454.15
830.5794	695.8131	40287	39438.35
830.7243	697.9123	40311.35	39481.05
830.8691	700.0109	40303.95	39474.55
831.014	702.1089	40162.8	39333.2
831.1588	704.2061	40189.75	39360.85
831.3037	706.3028	40156.2	39326.3
831.4486	708.3987	40162.15	39332.35
831.5935	710.4941	40102	39271.55
831.7383	712.5887	40145.6	39313.45
831.8832	714.6827	40070.25	39236.25
832.0281	716.7761	40110.2	39279.8
832.173	718.8688	40068.95	39235.7
832.3179	720.9608	39921.3	39085.3
832.4628	723.0522	39958.5	39123.45
832.6077	725.1429	39766.55	38933.6
832.7527	727.233	40044.9	39210.75
832.8976	729.3224	39695.9	38862.25
833.0425	731.4112	39849.45	39012.2
833.1874	733.4993	39819.1	38981.8
833.3324	735.5867	39708.1	38872.45
833.4773	737.6735	39561.15	38724.3
833.6222	739.7596	39376	38540
833.7672	741.845	39301.85	38464.8
833.9122	743.9298	39389.55	38552
834.0571	746.014	39203.6	38369.55
834.2021	748.0974	39051.65	38213.9
834.347	750.1802	39223.85	38387.2
834.492	752.2624	38866.9	38030.45
834.637	754.3439	38812.05	37973.05
834.782	756.4247	38793.55	37945.1
834.9269	758.5048	38596.95	37758
835.0719	760.5843	38603.25	37765
835.2169	762.6631	38575.5	37736.1
835.3619	764.7413	38480.25	37642.65
835.5069	766.8188	38546.1	37704.8
835.6519	768.8956	38535.2	37693.4
835.7969	770.9718	38600.4	37760.7
835.9419	773.0473	38379.75	37538.4
836.0869	775.1221	38257.7	37418.1
836.232	777.1962	38171.25	37331.1
836.377	779.2697	38034.7	37189.9
836.522	781.3426	38185.65	37325
836.667	783.4147	38165.15	37321.4
836.8121	785.4862	38149.45	37308.6
836.9571	787.557	37874.1	37031.9
837.1021	789.6271	37929.2	37086.65
837.2472	791.6966	37658.8	36817.25
837.3922	793.7654	37395.45	36552.75
837.5373	795.8335	37407.65	36564.15
837.6823	797.901	37309.2	36468.25
837.8274	799.9678	37225.8	36381.8
837.9724	802.0339	37138.4	36297.3
838.1175	804.0993	37119.7	36266.85
838.2626	806.1641	36973.35	36128.55
838.4076	808.2282	36868.25	36025.25
838.5527	810.2916	36828.65	35981.25
838.6978	812.3544	36915.35	36074.8
838.8428	814.4164	36639.3	35797.15
838.9879	816.4778	36732.85	35886.55
839.133	818.5385	36655.4	35811.15
839.2781	820.5986	36664.85	35819.25
839.4232	822.658	36715.6	35867.65
839.5682	824.7166	36666.35	35822.4
839.7133	826.7747	36627.7	35784.6
839.8584	828.832	36716.4	35869.45
840.0035	830.8886	36761.2	35912.7
840.1486	832.9446	36717.1	35866.95
840.2937	834.9999	36326.4	35482.45
840.4388	837.0545	36403.05	35554.15
840.5839	839.1085	36371.7	35524.05
840.729	841.1618	36219.55	35367.65
840.8741	843.2143	35953.6	35104.35
841.0192	845.2662	35832.9	34985.7
841.1643	847.3175	35887.6	35042
841.3095	849.368	35663.3	34814
841.4546	851.4179	35785.75	34938.3
841.5997	853.467	35531.4	34683.9
841.7448	855.5155	35559.1	34710.25
841.8899	857.5633	35503.45	34654.9
842.0351	859.6105	35403.3	34555.45
842.1802	861.6569	35429.35	34580.3
842.3253	863.7027	35256.25	34405.45
842.4704	865.7478	35265.95	34416.4
842.6156	867.7922	35182.9	34334
842.7607	869.8359	35216.6	34364.9
842.9058	871.8789	34978.1	34127.35
843.0509	873.9212	35103.95	34222.45
843.1961	875.9629	34982	34133
843.3412	878.0039	34986.7	34134.15
843.4863	880.0441	34878.9	34028.15
843.6315	882.0837	34916.55	34063.85
843.7766	884.1226	34912.35	34058.05
843.9218	886.1609	34895.25	34046.15
844.0669	888.1984	34903	34051.7
844.212	890.2352	35068.2	34216.75
844.3572	892.2714	34844.1	33986.35
844.5023	894.3069	34891.35	34037.5
844.6475	896.3416	34700.95	33848.45
844.7926	898.3757	34662	33810.9
844.9377	900.4091	34488.3	33636.3
845.0829	902.4418	34595.7	33738.85
845.228	904.4739	34449.95	33593.6
845.3732	906.5052	34475.9	33622.7
845.5183	908.5358	34401.7	33549.15
845.6635	910.5658	34274.9	33419.25
845.8086	912.595	34196.75	33343.75
845.9538	914.6236	33992.85	33137.8
846.0989	916.6515	34152.15	33299.15
846.2441	918.6786	33836.5	32981.25
846.3892	920.7051	33880.2	33024.6
846.5344	922.7309	33832.4	32976.25
846.6795	924.756	33777.2	32923.2
846.8246	926.7804	33719.45	32862.6
846.9698	928.8041	33464.25	32608.15
847.1149	930.8272	33560.05	32703.55
847.2601	932.8495	33454.45	32597.15
847.4052	934.8711	33358.5	32501.35
847.5504	936.892	33261.9	32404
847.6955	938.9123	33212.5	32355.6
847.8407	940.9318	33128.1	32272.05
847.9858	942.9506	33098.85	32241.65
848.131	944.9688	33016.4	32159.25
848.2761	946.9862	32856.8	31998.75
848.4213	949.003	32738.05	31879.35
848.5664	951.019	32542.8	31685.25
848.7115	953.0344	32497.65	31639.45
848.8567	955.0491	32438.45	31581.15
849.0018	957.063	32477.65	31619.95
849.147	959.0763	32505.85	31649.6
849.2921	961.0888	32311.85	31454.2
849.4373	963.1007	32353.9	31496.35
849.5824	965.1119	32267.9	31411.05
849.7275	967.1223	32214	31353.35
849.8727	969.1321	32197.6	31340.25
850.0178	971.1412	32104.2	31247.15
850.1629	973.1495	32045.05	31186.55
850.3081	975.1572	32023.3	31117
850.4532	977.1641	32012.1	31152.2
850.5983	979.1704	31888.85	31028.95
850.7435	981.1759	31809.05	30945.55
850.8886	983.1808	31772	30910.95
851.0337	985.1849	31654.2	30788.55
851.1788	987.1884	31597.25	30732.6
851.324	989.1911	31612.55	30748.65
851.4691	991.1932	31494.7	30634.25
851.6142	993.1945	31369.05	30509.5
851.7593	995.1951	31268.05	30406.95
851.9045	997.1951	31198.75	30331.85
852.0496	999.1943	31069.6	30209.25
852.1947	1001.1928	30973.65	30111.65
852.3398	1003.1906	30916.95	30055.45
852.4849	1005.1877	30899.45	30035.8
852.63	1007.1841	30751.4	29889.25
852.7751	1009.1798	30668.3	29808.6
852.9202	1011.1748	30565.6	29705.35
853.0653	1013.1691	30495.1	29632.4
853.2104	1015.1627	30328.95	29468.65
853.3555	1017.1556	30130.3	29270.1
853.5006	1019.1477	30079	29215
853.6457	1021.1392	29886.3	29024.35
853.7908	1023.1299	29760.55	28897.7
853.9359	1025.12	29683.45	28820.6
854.081	1027.1093	29557.35	28699.05
854.2261	1029.0979	29526.65	28666.9
854.3712	1031.0859	29427.2	28566
854.5163	1033.0731	29352.4	28490.55
854.6613	1035.0596	29302.6	28441.2
854.8064	1037.0454	29141.05	28277.7
854.9515	1039.0304	29085.65	28221.05
855.0965	1041.0148	28902.35	28038.9
855.2416	1042.9985	28874.1	28008.65
855.3867	1044.9814	28850.7	27989.65
855.5317	1046.9636	28690.8	27825.3
855.6768	1048.9452	28603.85	27741.75
855.8219	1050.926	28605.5	27742.7
855.9669	1052.9061	28514.05	27650.9
856.112	1054.8855	28448.55	27585.5
856.257	1056.8642	28407.05	27542.95
856.4021	1058.8421	28407.95	27540.15
856.5471	1060.8194	28353.55	27489.85
856.6921	1062.7959	28282.45	27419.1
856.8372	1064.7717	28200.6	27335.2
856.9822	1066.7469	28168.65	27301.95
857.1272	1068.7213	28097.85	27230.1
857.2723	1070.695	28118.9	27253.85
857.4173	1072.6679	27986.8	27123
857.5623	1074.6402	28029.35	27164.7
857.7073	1076.6117	27992.95	27123.1
857.8523	1078.5826	27950.5	27085.6
857.9973	1080.5527	27851.95	26984.75
858.1423	1082.5221	27712.9	26845.15
858.2873	1084.4908	27620.4	26755.7
858.4323	1086.4587	27542.3	26673.4
858.5773	1088.426	27498.55	26633.95
858.7223	1090.3925	27403.9	26534.1
858.8673	1092.3584	27397.55	26532.5
859.0123	1094.3235	27291.8	26425.1
859.1573	1096.2879	27211.9	26346.45
859.3022	1098.2515	27225.6	26359.05
859.4472	1100.2145	27263.1	26398.95
859.5922	1102.1767	27213.85	26345.3
859.7371	1104.1382	27190.6	26322.7
859.8821	1106.099	27157.9	26289.8
860.027	1108.0591	27162.95	26295.85
860.172	1110.0185	27149.75	26281.75
860.3169	1111.9771	27141.7	26274.3
860.4619	1113.9351	27067.6	26200.1
860.6068	1115.8923	27054.9	26187.05
860.7517	1117.8488	27051.25	26181.8
860.8967	1119.8045	26927.5	26060.6
861.0416	1121.7596	26854.25	25985.3
861.1865	1123.7139	26606.75	25740
861.3314	1125.6675	26471.2	25604.05
861.4763	1127.6204	26502.35	25633.85
861.6212	1129.5726	26443.65	25573.2
861.7661	1131.524	26405	25537.1
861.911	1133.4748	26311.95	25445.15
862.0559	1135.4248	26200.95	25333.85
862.2008	1137.3741	26130.5	25264.2
862.3457	1139.3226	26049.6	25180.25
862.4905	1141.2705	26033.9	25165.05
862.6354	1143.2176	25892.05	25019
862.7803	1145.164	25852.35	24982.2
862.9251	1147.1097	25878.2	25009.8
863.07	1149.0546	25781.7	24912.3
863.2148	1150.9989	25763	24893.75
863.3597	1152.9424	25777.1	24908.5
863.5045	1154.8852	25682.2	24814.4
863.6493	1156.8272	25622.1	24755.05
863.7942	1158.7686	25638.5	24762.45
863.939	1160.7092	25507.35	24638.2
864.0838	1162.6491	25427.35	24556.25
864.2286	1164.5883	25411.8	24543.2
864.3734	1166.5267	25422	24553.1
864.5182	1168.4644	25405	24535.4
864.663	1170.4014	25395.1	24520.15
864.8078	1172.3377	25469.95	24602.15
864.9526	1174.2732	25444.15	24574.8
865.0974	1176.2081	25546.5	24677.95
865.2421	1178.1421	25651.6	24778.95
865.3869	1180.0755	25715.9	24849.65
865.5317	1182.0082	25680.9	24812.6
865.6764	1183.9401	25690.45	24820.45
