Software Version:	3.9.2.0
Unit SN:	10000200
Spectrometer SN:	6960
Date:	3/6/2024 9:50:57 AM
Data Line Index:	25
Spectral Points:	2048
Integration time (ms):	125
Averages:	20
Delay (ms):	30
Sequence Number:	1
Processing:	dark subtract
Laser Power (mW):	300
Laser Current (mA):	823
Laser Diode Temp (C):	25.1
Laser Case Temp (C):	24.3
System Temp (C):	24.1
Spectrometer Temp (C):	21.7
CCD Temp (C):	-0.005
Secondary Temp (C):	20.008
Heatsink Temp (C):	18.31
CCDPCB Temp (C):	30.371
SecondaryPCB Temp (C):	26.014

Wavelength	RamanShift	Raw Counts	Dark Subtracted
787.061	30.1047	445.2	38.9
787.2016	32.3739	443.45	37.35
787.3422	34.6426	447.75	39.6
787.4828	36.9109	453.2	46.5
787.6235	39.1787	458.25	45.65
787.7642	41.4461	465.1	49.1
787.9049	43.7131	469.75	49.8
788.0456	45.9796	476.1	53.85
788.1863	48.2456	482.05	55.8
788.3271	50.5112	489.7	58.1
788.4679	52.7764	498.85	66.8
788.6087	55.0411	504.1	66.3
788.7496	57.3054	512.25	70.05
788.8904	59.5692	517.15	73.35
789.0313	61.8326	526.15	77.85
789.1722	64.0955	535.15	84.9
789.3132	66.3579	549.7	94.15
789.4541	68.6199	559.25	102.85
789.5951	70.8815	585.5	122.15
789.7361	73.1426	626.05	156.45
789.8771	75.4032	723.3	251.25
790.0181	77.6634	980.15	506.3
790.1592	79.9231	1578.4	1100.15
790.3003	82.1824	2837.85	2353.95
790.4414	84.4412	5064.15	4567.45
790.5825	86.6995	8037.55	7524.7
790.7237	88.9574	10992.35	10466.35
790.8648	91.2148	13183.5	12650.4
791.006	93.4717	14440.4	13903.05
791.1472	95.7282	14980.05	14435.6
791.2885	97.9842	15254.05	14709
791.4297	100.2398	15324.05	14776.65
791.571	102.4949	15386	14836.2
791.7123	104.7495	15383.1	14828.95
791.8536	107.0036	15368.9	14812.4
791.9949	109.2573	15381.4	14827.45
792.1363	111.5105	15391.7	14834.7
792.2777	113.7632	15357.7	14799.75
792.4191	116.0154	15367.1	14794.9
792.5605	118.2672	15420.85	14856.75
792.7019	120.5185	15390.95	14826.3
792.8434	122.7693	15407.25	14840.25
792.9849	125.0197	15460.1	14886.3
793.1264	127.2696	15463.15	14887.15
793.2679	129.519	15486.7	14906.5
793.4094	131.7679	15536.1	14954.75
793.551	134.0163	15599.5	15016.2
793.6926	136.2642	15613.15	15023.25
793.8342	138.5117	15588.25	14995.7
793.9758	140.7587	15616.55	15026.25
794.1175	143.0052	15634.95	15039.8
794.2591	145.2512	15607.55	15013.45
794.4008	147.4967	15608.7	15008.1
794.5425	149.7417	15606.3	15004.4
794.6842	151.9863	15587.35	14984.95
794.826	154.2304	15612.15	15006.8
794.9677	156.4739	15576.1	14960.35
795.1095	158.717	15632.15	15018.95
795.2513	160.9596	15586.1	14969.6
795.3931	163.2017	15627.55	15008.25
795.535	165.4433	15633.95	15014.55
795.6768	167.6844	15640.9	15016.1
795.8187	169.925	15645.9	15017.1
795.9606	172.1651	15579	14946.05
796.1025	174.4047	15586.4	14952.6
796.2445	176.6439	15609.1	14975.35
796.3864	178.8825	15560.45	14926.65
796.5284	181.1206	15624.6	14984.55
796.6704	183.3582	15616.1	14970.55
796.8124	185.5954	15639.7	14993.1
796.9544	187.832	15624.3	14972.25
797.0965	190.0681	15685.25	15027.85
797.2386	192.3037	15720.95	15062.65
797.3806	194.5388	15709.85	15050.6
797.5228	196.7734	15740.65	15078
797.6649	199.0075	15814.8	15150.45
797.807	201.2411	15909.4	15244.8
797.9492	203.4742	15919.25	15251.45
798.0914	205.7068	15969.95	15299.15
798.2336	207.9389	15968.8	15296.4
798.3758	210.1704	15997.45	15329.65
798.518	212.4015	15973	15312.55
798.6603	214.632	16013.9	15362.9
798.8025	216.862	16028.45	15381.6
798.9448	219.0915	16062.2	15411.75
799.0871	221.3205	16109.1	15455.4
799.2294	223.549	16122.05	15476.25
799.3718	225.777	16168.95	15516.5
799.5141	228.0044	16176.2	15520.4
799.6565	230.2314	16204.45	15547.5
799.7989	232.4578	16186.4	15525.25
799.9413	234.6837	16204.85	15532.9
800.0837	236.909	16259.35	15586.75
800.2262	239.1339	16255.05	15556.7
800.3687	241.3582	16241.8	15555.5
800.5111	243.582	16283.75	15568.6
800.6536	245.8053	16303	15601.3
800.7961	248.0281	16301.85	15605.75
800.9387	250.2503	16322.65	15624.75
801.0812	252.472	16303	15601.2
801.2238	254.6932	16362.7	15661.05
801.3664	256.9139	16317.2	15616.45
801.509	259.134	16338.8	15630.65
801.6516	261.3536	16349.9	15645.4
801.7942	263.5727	16421.4	15714.45
801.9369	265.7912	16375.5	15669.65
802.0795	268.0092	16432.2	15723.6
802.2222	270.2267	16439.15	15731.45
802.3649	272.4436	16450.2	15741.6
802.5076	274.6601	16490.5	15767.8
802.6504	276.8759	16498.95	15781.2
802.7931	279.0913	16541.6	15828.05
802.9359	281.3061	16505.6	15790.05
803.0787	283.5204	16570.4	15852.6
803.2215	285.7341	16583.25	15859.7
803.3643	287.9473	16594.25	15858.2
803.5071	290.16	16595.1	15866.65
803.6499	292.3721	16558.35	15838.5
803.7928	294.5837	16553.2	15829.85
803.9357	296.7947	16532.05	15808.5
804.0786	299.0052	16517.15	15791.9
804.2215	301.2152	16492.4	15763.95
804.3644	303.4246	16524.7	15800.6
804.5074	305.6334	16470.75	15747.85
804.6503	307.8418	16487.15	15760.5
804.7933	310.0495	16449.5	15718.8
804.9363	312.2568	16469.3	15738.45
805.0793	314.4635	16400.35	15669.9
805.2223	316.6696	16339.9	15602.8
805.3653	318.8752	16283.1	15538.6
805.5084	321.0802	16270.3	15535.75
805.6514	323.2847	16250	15510.75
805.7945	325.4887	16252.35	15513.5
805.9376	327.692	16265.7	15523.7
806.0807	329.8949	16352.4	15610.45
806.2238	332.0972	16318.8	15576.05
806.367	334.2989	16351.05	15602.7
806.5101	336.5001	16337.65	15590.8
806.6533	338.7007	16321.7	15573.4
806.7965	340.9008	16300.8	15551.85
806.9397	343.1003	16290.25	15538.8
807.0829	345.2992	16257.95	15508.2
807.2261	347.4976	16240.6	15486.35
807.3693	349.6955	16188.85	15428.9
807.5126	351.8927	16247.65	15488.15
807.6559	354.0895	16173.75	15402.55
807.7991	356.2856	16199.95	15440.5
807.9424	358.4812	16176.85	15418.5
808.0857	360.6763	16216.15	15455.1
808.2291	362.8707	16162.3	15395.8
808.3724	365.0646	16190.2	15421.05
808.5158	367.258	16140.2	15368.6
808.6591	369.4508	16157.25	15384.45
808.8025	371.643	16181.6	15410.35
808.9459	373.8346	16104.05	15330
809.0893	376.0257	16115.1	15337.95
809.2327	378.2162	16120.15	15343.15
809.3762	380.4062	16136.55	15356.75
809.5196	382.5956	16048.05	15273.45
809.6631	384.7844	16055.2	15283.75
809.8066	386.9726	15992.85	15223.75
809.9501	389.1603	15954	15184.65
810.0936	391.3474	15948.25	15146.95
810.2371	393.5339	15914.65	15143.85
810.3806	395.7199	15877.6	15109.1
810.5241	397.9052	15881.15	15112.7
810.6677	400.09	15900.3	15129.1
810.8113	402.2743	15911.25	15138.15
810.9548	404.4579	15874.5	15100.55
811.0984	406.641	15932.35	15157.1
811.2421	408.8235	15967.75	15190.9
811.3857	411.0054	15993.75	15216
811.5293	413.1868	16067.6	15287.5
811.673	415.3675	16120.5	15334.55
811.8166	417.5477	16155.25	15369.6
811.9603	419.7273	16049.5	15258.85
812.104	421.9064	15917.1	15120.6
812.2477	424.0848	15855.3	15068.35
812.3914	426.2627	15801.55	15010.1
812.5351	428.4399	15775.85	14984
812.6788	430.6166	15689.4	14894.3
812.8226	432.7928	15665.85	14872.35
812.9663	434.9683	15617.35	14821.65
813.1101	437.1432	15594.65	14795.75
813.2539	439.3176	15511.95	14715.05
813.3977	441.4914	15451.95	14656.85
813.5415	443.6645	15451.2	14654.75
813.6853	445.8371	15374.25	14576.5
813.8291	448.0091	15327.2	14529.8
813.973	450.1806	15290.15	14491.75
814.1168	452.3514	15258.1	14457.2
814.2607	454.5216	15261.65	14454.25
814.4046	456.6913	15175.95	14372.9
814.5485	458.8603	15146.15	14345.3
814.6924	461.0288	15192.05	14394.35
814.8363	463.1967	15168.95	14369.85
814.9802	465.3639	15164.6	14363.15
815.1241	467.5306	15147.85	14344.8
815.2681	469.6967	15102.25	14298.9
815.412	471.8622	15067.05	14265.6
815.556	474.0271	15037.8	14235.35
815.7	476.1914	15039	14233
815.844	478.3551	15047.6	14243.45
815.988	480.5182	15041.55	14236.45
816.132	482.6807	15013.2	14210.25
816.276	484.8426	15021.25	14217.75
816.4201	487.0039	15050.05	14246.8
816.5641	489.1647	15085.85	14277.9
816.7082	491.3248	15142.75	14334.85
816.8522	493.4843	15143	14334.9
816.9963	495.6432	15086.85	14281.55
817.1404	497.8015	15051.4	14237.7
817.2845	499.9592	15059.9	14245.6
817.4286	502.1163	14995.35	14182.25
817.5727	504.2728	14952.8	14137.45
817.7168	506.4287	14977.3	14166.3
817.861	508.5839	14925.35	14113.9
818.0051	510.7386	14932.15	14118.65
818.1493	512.8927	14907.75	14091.45
818.2935	515.0461	14917.6	14102.4
818.4377	517.199	14867.3	14051.4
818.5818	519.3512	14918.15	14099.9
818.726	521.5029	14926.55	14104.3
818.8703	523.6539	14888.15	14069.8
819.0145	525.8043	14914.95	14096.45
819.1587	527.9541	14857.6	14033.25
819.303	530.1033	14836.1	14015.4
819.4472	532.2519	14791.1	13969.95
819.5915	534.3999	14797.1	13973.35
819.7357	536.5472	14738.85	13918.15
819.88	538.694	14781.95	13962.75
820.0243	540.8401	14776.55	13953
820.1686	542.9856	14788.25	13962.25
820.3129	545.1305	14744.75	13914.95
820.4572	547.2748	14775.85	13945.8
820.6016	549.4185	14749.75	13915.85
820.7459	551.5615	14734.05	13899.5
820.8902	553.704	14743.35	13914.95
821.0346	555.8458	14698.3	13868.75
821.1789	557.987	14750.4	13923.55
821.3233	560.1276	14718.25	13890.15
821.4677	562.2675	14725.3	13900.7
821.6121	564.4069	14736.35	13908.45
821.7565	566.5456	14715.2	13888.6
821.9009	568.6837	14740.25	13913.2
822.0453	570.8212	14661.4	13831.25
822.1897	572.958	14598.7	13769.1
822.3342	575.0942	14568.15	13740
822.4786	577.2299	14538.55	13711.45
822.6231	579.3648	14470.3	13645.05
822.7675	581.4992	14395.6	13567.75
822.912	583.6329	14318.8	13490.9
823.0565	585.766	14300.6	13474.95
823.201	587.8985	14318.7	13490.45
823.3454	590.0304	14298.6	13454.7
823.4899	592.1616	14267.1	13432.05
823.6345	594.2922	14251.65	13420.3
823.779	596.4222	14209.5	13373.45
823.9235	598.5515	14169.05	13333.25
824.068	600.6802	14118.65	13282.45
824.2126	602.8083	14017.45	13181.15
824.3571	604.9358	14017.85	13181.6
824.5017	607.0626	13969.5	13132.2
824.6462	609.1888	13948.55	13107.95
824.7908	611.3144	13970.55	13129.45
824.9354	613.4393	13969.9	13131.55
825.08	615.5636	13971.05	13128.7
825.2246	617.6873	13977.7	13139.9
825.3692	619.8103	13987.25	13146.25
825.5138	621.9327	13938.8	13095.5
825.6584	624.0544	13917.6	13079.2
825.803	626.1756	13912.85	13074.6
825.9477	628.2961	13881.5	13039.05
826.0923	630.4159	13852.8	13011.85
826.237	632.5351	13841.9	12995.85
826.3816	634.6537	13813.85	12970.25
826.5263	636.7716	13796.3	12947.75
826.6709	638.8889	13778.8	12931.7
826.8156	641.0056	13812.7	12966.9
826.9603	643.1216	13774.5	12928.3
827.105	645.237	13792.25	12944.35
827.2497	647.3518	13768.7	12924.15
827.3944	649.4659	13748.2	12907.3
827.5391	651.5793	13687.8	12841.35
827.6838	653.6922	13663.05	12819.25
827.8285	655.8043	13658	12813.2
827.9733	657.9159	13672.85	12824.55
828.118	660.0268	13628.4	12775.8
828.2627	662.137	13601.45	12754.4
828.4075	664.2466	13583.1	12732.65
828.5522	666.3556	13570.6	12722.75
828.697	668.4639	13544.55	12692
828.8418	670.5716	13513	12665.5
828.9865	672.6786	13520.2	12669.3
829.1313	674.785	13456.45	12605.7
829.2761	676.8907	13426.1	12574.55
829.4209	678.9958	13440	12589.75
829.5657	681.1002	13385.85	12535.1
829.7105	683.204	13357.4	12502.15
829.8553	685.3072	13372.45	12518.5
830.0001	687.4097	13349.7	12495.55
830.1449	689.5115	13342	12486.7
830.2898	691.6127	13321.45	12471.5
830.4346	693.7132	13275.7	12424.05
830.5794	695.8131	13284.85	12423.35
830.7243	697.9123	13284.7	12426.9
830.8691	700.0109	13278.95	12422.75
831.014	702.1089	13267.55	12413.15
831.1588	704.2061	13236.7	12385.05
831.3037	706.3028	13244	12387.3
831.4486	708.3987	13239.4	12383.35
831.5935	710.4941	13227	12369.35
831.7383	712.5887	13233.25	12378.15
831.8832	714.6827	13189.45	12330.5
832.0281	716.7761	13181.65	12325.15
832.173	718.8688	13179.85	12323.9
832.3179	720.9608	13163.7	12300.75
832.4628	723.0522	13165.95	12304.35
832.6077	725.1429	13147.15	12288.45
832.7527	727.233	13144.7	12283.5
832.8976	729.3224	13181.1	12321.8
833.0425	731.4112	13164.85	12301.45
833.1874	733.4993	13166.15	12304.45
833.3324	735.5867	13084.55	12224.2
833.4773	737.6735	13079.75	12217.5
833.6222	739.7596	13033.65	12173.55
833.7672	741.845	12974.9	12111.75
833.9122	743.9298	12970.05	12105.15
834.0571	746.014	12933.65	12072
834.2021	748.0974	12948.7	12086.1
834.347	750.1802	12916.6	12052.85
834.492	752.2624	12877.35	12012.1
834.637	754.3439	12797.9	11930.5
834.782	756.4247	12780.1	11905.6
834.9269	758.5048	12753.9	11889.1
835.0719	760.5843	12713.85	11848.55
835.2169	762.6631	12690.9	11827
835.3619	764.7413	12690.15	11825.35
835.5069	766.8188	12698.65	11831.95
835.6519	768.8956	12689.9	11822.4
835.7969	770.9718	12707.65	11839.85
835.9419	773.0473	12676.2	11812.1
836.0869	775.1221	12634.55	11768.6
836.232	777.1962	12608.55	11743.25
836.377	779.2697	12614.7	11745.8
836.522	781.3426	12649.9	11763.65
836.667	783.4147	12608.45	11741.35
836.8121	785.4862	12620.3	11754.15
836.9571	787.557	12531.55	11661.9
837.1021	789.6271	12480.45	11613.05
837.2472	791.6966	12401.55	11534.3
837.3922	793.7654	12318.05	11449.6
837.5373	795.8335	12285.85	11418.2
837.6823	797.901	12276.9	11410.65
837.8274	799.9678	12243.45	11374.3
837.9724	802.0339	12242.9	11373.5
838.1175	804.0993	12258.55	11380.65
838.2626	806.1641	12153.15	11282.85
838.4076	808.2282	12152.15	11284.1
838.5527	810.2916	12162.35	11292.15
838.6978	812.3544	12140.1	11271.65
838.8428	814.4164	12066.65	11199.8
838.9879	816.4778	12108.6	11238.45
839.133	818.5385	12069.1	11196.6
839.2781	820.5986	12085.6	11216.25
839.4232	822.658	12109.95	11236.95
839.5682	824.7166	12052.1	11181
839.7133	826.7747	12128.35	11257.4
839.8584	828.832	12162.6	11291.35
840.0035	830.8886	12113.75	11241.8
840.1486	832.9446	12125	11252.3
840.2937	834.9999	12065.4	11197.5
840.4388	837.0545	12046.25	11170.55
840.5839	839.1085	12027	11155.85
840.729	841.1618	11952.05	11077.3
840.8741	843.2143	11888.6	11015.6
841.0192	845.2662	11838.75	10966.8
841.1643	847.3175	11833.55	10959.75
841.3095	849.368	11794.4	10921.25
841.4546	851.4179	11770.05	10894.2
841.5997	853.467	11735.4	10861.6
841.7448	855.5155	11725.8	10850.6
841.8899	857.5633	11718.35	10845.65
842.0351	859.6105	11658	10785.6
842.1802	861.6569	11647.55	10772.75
842.3253	863.7027	11640.55	10764.45
842.4704	865.7478	11642.45	10765.9
842.6156	867.7922	11603.65	10728.05
842.7607	869.8359	11563.1	10686.9
842.9058	871.8789	11553.95	10677.65
843.0509	873.9212	11587.45	10680.2
843.1961	875.9629	11512.3	10638.95
843.3412	878.0039	11528.2	10649.8
843.4863	880.0441	11517.95	10644.95
843.6315	882.0837	11532.8	10656.25
843.7766	884.1226	11506.75	10629.55
843.9218	886.1609	11495	10620.75
844.0669	888.1984	11532.7	10657.45
844.212	890.2352	11558.9	10685.15
844.3572	892.2714	11536.85	10655.75
844.5023	894.3069	11530.8	10654.3
844.6475	896.3416	11485.6	10608.4
844.7926	898.3757	11452.55	10574.2
844.9377	900.4091	11413.9	10536.6
845.0829	902.4418	11419.05	10538.9
845.228	904.4739	11389.6	10508.75
845.3732	906.5052	11381.2	10503.85
845.5183	908.5358	11339.4	10460.4
845.6635	910.5658	11319.1	10437.4
845.8086	912.595	11295.2	10415.85
845.9538	914.6236	11245.3	10366.75
846.0989	916.6515	11228.35	10348.1
846.2441	918.6786	11163.4	10283.05
846.3892	920.7051	11178.4	10298.3
846.5344	922.7309	11181.9	10303.6
846.6795	924.756	11135.8	10255.5
846.8246	926.7804	11129	10248.15
846.9698	928.8041	11041	10159.95
847.1149	930.8272	11101.15	10220.8
847.2601	932.8495	11010.85	10126.3
847.4052	934.8711	11019.8	10136.2
847.5504	936.892	10976.55	10097.05
847.6955	938.9123	10957.45	10074.45
847.8407	940.9318	10961.65	10079.8
847.9858	942.9506	10928.1	10047.95
848.131	944.9688	10911.9	10031.7
848.2761	946.9862	10888.95	10008.3
848.4213	949.003	10836.85	9957.1
848.5664	951.019	10778.45	9897.85
848.7115	953.0344	10739.5	9856.85
848.8567	955.0491	10718.8	9836.2
849.0018	957.063	10698.1	9816.6
849.147	959.0763	10709.65	9826
849.2921	961.0888	10694.3	9811.2
849.4373	963.1007	10686	9805.6
849.5824	965.1119	10653.5	9774.85
849.7275	967.1223	10631.75	9753.25
849.8727	969.1321	10630.85	9753.05
850.0178	971.1412	10610.6	9729.9
850.1629	973.1495	10566.9	9685.6
850.3081	975.1572	10575.05	9646.15
850.4532	977.1641	10556.2	9675.65
850.5983	979.1704	10521.9	9639.9
850.7435	981.1759	10486.45	9601.55
850.8886	983.1808	10490.75	9608.1
851.0337	985.1849	10451.85	9557.75
851.1788	987.1884	10463.85	9579.3
851.324	989.1911	10411.15	9524.45
851.4691	991.1932	10421.15	9539
851.6142	993.1945	10378.35	9493.65
851.7593	995.1951	10334.9	9452.9
851.9045	997.1951	10335.65	9449.05
852.0496	999.1943	10266	9383.7
852.1947	1001.1928	10227.5	9344.6
852.3398	1003.1906	10203.45	9320.85
852.4849	1005.1877	10202.7	9319.6
852.63	1007.1841	10173.3	9292.45
852.7751	1009.1798	10116.8	9233.25
852.9202	1011.1748	10095.8	9213.6
853.0653	1013.1691	10073.5	9190.05
853.2104	1015.1627	9997.15	9113.75
853.3555	1017.1556	9959.35	9076.55
853.5006	1019.1477	9922.7	9038.05
853.6457	1021.1392	9860.65	8980.9
853.7908	1023.1299	9829.55	8947.85
853.9359	1025.12	9814.6	8935.5
854.081	1027.1093	9774.25	8896.45
854.2261	1029.0979	9739.2	8863.4
854.3712	1031.0859	9711.3	8832.7
854.5163	1033.0731	9708.2	8828.35
854.6613	1035.0596	9700.5	8818.95
854.8064	1037.0454	9628.9	8745.55
854.9515	1039.0304	9612.8	8727.7
855.0965	1041.0148	9549.3	8665.75
855.2416	1042.9985	9537.65	8651.9
855.3867	1044.9814	9525.6	8640.5
855.5317	1046.9636	9476.1	8590.65
855.6768	1048.9452	9455.55	8572.15
855.8219	1050.926	9450.35	8567.35
855.9669	1052.9061	9441.75	8557.75
856.112	1054.8855	9427.1	8543.85
856.257	1056.8642	9396	8510.9
856.4021	1058.8421	9406.15	8517.15
856.5471	1060.8194	9375.15	8490
856.6921	1062.7959	9349.5	8465.95
856.8372	1064.7717	9333.2	8446.2
856.9822	1066.7469	9307.9	8420.35
857.1272	1068.7213	9270.1	8382.2
857.2723	1070.695	9272.35	8386.35
857.4173	1072.6679	9251.45	8365.8
857.5623	1074.6402	9247.05	8362.25
857.7073	1076.6117	9234.65	8346.15
857.8523	1078.5826	9217.15	8330.55
857.9973	1080.5527	9179.4	8292.85
858.1423	1082.5221	9131.5	8245.15
858.2873	1084.4908	9119.25	8235.2
858.4323	1086.4587	9068.9	8181.35
858.5773	1088.426	9066.85	8179.8
858.7223	1090.3925	9042.35	8153.2
858.8673	1092.3584	9009.6	8125.1
859.0123	1094.3235	9007.75	8122.3
859.1573	1096.2879	8995.85	8110.85
859.3022	1098.2515	8966.7	8082.25
859.4472	1100.2145	8978.9	8093.9
859.5922	1102.1767	8963.9	8074
859.7371	1104.1382	8969.4	8084
859.8821	1106.099	8966.8	8077.95
860.027	1108.0591	8947.25	8060.95
860.172	1110.0185	8938.05	8052.5
860.3169	1111.9771	8966.25	8078.9
860.4619	1113.9351	8944.7	8058.35
860.6068	1115.8923	8954.6	8065.4
860.7517	1117.8488	8960.6	8070.45
860.8967	1119.8045	8886.8	8000.65
861.0416	1121.7596	8862.5	7975.6
861.1865	1123.7139	8756.15	7870.05
861.3314	1125.6675	8725.35	7838.55
861.4763	1127.6204	8731.7	7845.2
861.6212	1129.5726	8701.3	7813.3
861.7661	1131.524	8683.95	7797.55
861.911	1133.4748	8664.15	7775.25
862.0559	1135.4248	8628.75	7741.2
862.2008	1137.3741	8599.95	7713.3
862.3457	1139.3226	8565.3	7677.95
862.4905	1141.2705	8572.2	7685.45
862.6354	1143.2176	8522.4	7628.6
862.7803	1145.164	8518.35	7629.1
862.9251	1147.1097	8503.05	7615.75
863.07	1149.0546	8478.5	7592.85
863.2148	1150.9989	8454.45	7568.45
863.3597	1152.9424	8418.25	7530.9
863.5045	1154.8852	8425.8	7537.95
863.6493	1156.8272	8407.4	7521.5
863.7942	1158.7686	8407.6	7514.2
863.939	1160.7092	8387.9	7498.95
864.0838	1162.6491	8372.65	7482.3
864.2286	1164.5883	8354.75	7469
864.3734	1166.5267	8340.5	7451.05
864.5182	1168.4644	8358.95	7472.7
864.663	1170.4014	8350.25	7455.35
864.8078	1172.3377	8350.5	7463.1
864.9526	1174.2732	8365.25	7480.2
865.0974	1176.2081	8392	7506.35
865.2421	1178.1421	8415.75	7524.05
865.3869	1180.0755	8456.65	7570.45
865.5317	1182.0082	8434.65	7547.75
865.6764	1183.9401	8433.7	7546.2
865.8212	1185.8713	8393.45	7507.3
865.9659	1187.8017	8326.65	7441.8
866.1106	1189.7315	8255.1	7372.4
866.2554	1191.6605	8172.2	7288.9
866.4001	1193.5888	8129	7242.85
