Software Version:	3.9.2.0
Unit SN:	10000200
Spectrometer SN:	6960
Date:	3/6/2024 9:43:01 AM
Data Line Index:	25
Spectral Points:	2048
Integration time (ms):	125
Averages:	20
Delay (ms):	30
Sequence Number:	1
Processing:	dark subtract
Laser Power (mW):	300
Laser Current (mA):	824
Laser Diode Temp (C):	25.1
Laser Case Temp (C):	24
System Temp (C):	23.8
Spectrometer Temp (C):	21.5
CCD Temp (C):	-0.034
Secondary Temp (C):	20.006
Heatsink Temp (C):	17.612
CCDPCB Temp (C):	30.582
SecondaryPCB Temp (C):	25.547

Wavelength	RamanShift	Raw Counts	Dark Subtracted
787.061	30.1047	461.85	53.5
787.2016	32.3739	459.7	55
787.3422	34.6426	464.75	56.7
787.4828	36.9109	469.8	62.7
787.6235	39.1787	478.7	66.5
787.7642	41.4461	487	71.35
787.9049	43.7131	492.1	73.9
788.0456	45.9796	498.35	76.75
788.1863	48.2456	507.25	80.8
788.3271	50.5112	518.35	88.3
788.4679	52.7764	525.5	92.65
788.6087	55.0411	533.25	97.45
788.7496	57.3054	541.9	100.45
788.8904	59.5692	550.55	108.15
789.0313	61.8326	557.55	111.75
789.1722	64.0955	572.2	123.35
789.3132	66.3579	588.55	136.05
789.4541	68.6199	600.2	141.65
789.5951	70.8815	634.6	172.85
789.7361	73.1426	686.8	221.8
789.8771	75.4032	835.05	363.35
790.0181	77.6634	1185.05	711.65
790.1592	79.9231	2034.55	1559.6
790.3003	82.1824	3835.95	3355.2
790.4414	84.4412	6977.4	6486.3
790.5825	86.6995	11216.8	10715.65
790.7237	88.9574	15425.25	14914
790.8648	91.2148	18517.8	18000.85
791.006	93.4717	20200.75	19679.6
791.1472	95.7282	20927.75	20403
791.2885	97.9842	21345.55	20817.7
791.4297	100.2398	21449.25	20919.55
791.571	102.4949	21507.5	20976.2
791.7123	104.7495	21541.25	21006.95
791.8536	107.0036	21517	20981.7
791.9949	109.2573	21534.55	20999.1
792.1363	111.5105	21515.65	20977.05
792.2777	113.7632	21478.35	20939.3
792.4191	116.0154	21551.7	21001.55
792.5605	118.2672	21643.2	21099.35
792.7019	120.5185	21611.25	21062.05
792.8434	122.7693	21644.1	21094.3
792.9849	125.0197	21684.2	21131.65
793.1264	127.2696	21699.55	21140.7
793.2679	129.519	21788.1	21228.45
793.4094	131.7679	21810.95	21248.25
793.551	134.0163	21869.25	21302.25
793.6926	136.2642	21916.9	21347.6
793.8342	138.5117	21927.1	21354.85
793.9758	140.7587	21941.25	21367.8
794.1175	143.0052	21975.85	21398.75
794.2591	145.2512	21959.85	21383.35
794.4008	147.4967	21899.65	21319.5
794.5425	149.7417	21922.45	21340.55
794.6842	151.9863	21935.5	21349.65
794.826	154.2304	21964.65	21372.8
794.9677	156.4739	21917.4	21322.7
795.1095	158.717	21982.85	21388.25
795.2513	160.9596	21969.65	21369.75
795.3931	163.2017	22007.35	21407.8
795.535	165.4433	22023.35	21416.9
795.6768	167.6844	22005.85	21398.65
795.8187	169.925	22055.05	21444.75
795.9606	172.1651	21986.25	21371.35
796.1025	174.4047	22001.45	21386.3
796.2445	176.6439	21990.15	21372.85
796.3864	178.8825	22010.15	21391.8
796.5284	181.1206	22056.45	21430.85
796.6704	183.3582	22083.2	21455.5
796.8124	185.5954	22078.75	21448
796.9544	187.832	22106.3	21472.7
797.0965	190.0681	22148.65	21512.25
797.2386	192.3037	22227.5	21587.7
797.3806	194.5388	22245.25	21600.45
797.5228	196.7734	22252.95	21608.5
797.6649	199.0075	22343.8	21696.95
797.807	201.2411	22489.35	21841.8
797.9492	203.4742	22546.75	21895.65
798.0914	205.7068	22578.65	21926.55
798.2336	207.9389	22637.1	21985.05
798.3758	210.1704	22719.95	22074.3
798.518	212.4015	22678.1	22039.65
798.6603	214.632	22707.05	22074.8
798.8025	216.862	22768.45	22137.15
798.9448	219.0915	22784.5	22152
799.0871	221.3205	22814.45	22179.25
799.2294	223.549	22848.05	22215.95
799.3718	225.777	22926.15	22293.45
799.5141	228.0044	22968.85	22328.55
799.6565	230.2314	23008	22364
799.7989	232.4578	22996.5	22352.1
799.9413	234.6837	23037	22381.65
800.0837	236.909	23063.75	22407
800.2262	239.1339	23071.75	22393
800.3687	241.3582	23116.2	22450.35
800.5111	243.582	23122.25	22424.4
800.6536	245.8053	23148.45	22465.25
800.7961	248.0281	23177.35	22500.5
800.9387	250.2503	23164.95	22483
801.0812	252.472	23218.4	22534.1
801.2238	254.6932	23233.85	22551.75
801.3664	256.9139	23228.6	22547.05
801.509	259.134	23246.6	22557.75
801.6516	261.3536	23252.6	22564.45
801.7942	263.5727	23349.2	22658.85
801.9369	265.7912	23339.85	22652.05
802.0795	268.0092	23387.35	22697.45
802.2222	270.2267	23413.8	22725.15
802.3649	272.4436	23443.4	22748.2
802.5076	274.6601	23518.6	22812.7
802.6504	276.8759	23501.15	22803.8
802.7931	279.0913	23489.85	22792
802.9359	281.3061	23554.45	22852.85
803.0787	283.5204	23593.5	22889.55
803.2215	285.7341	23646.15	22939.4
803.3643	287.9473	23684.6	22970.25
803.5071	290.16	23659.05	22948.75
803.6499	292.3721	23665.85	22963.2
803.7928	294.5837	23653.3	22948.85
803.9357	296.7947	23591.6	22887.15
804.0786	299.0052	23575.95	22871.1
804.2215	301.2152	23566.8	22858.6
804.3644	303.4246	23603.6	22894.35
804.5074	305.6334	23530.95	22822.35
804.6503	307.8418	23571.4	22858.1
804.7933	310.0495	23478.6	22767.35
804.9363	312.2568	23492.65	22780.15
805.0793	314.4635	23395.95	22682.7
805.2223	316.6696	23362.2	22642.45
805.3653	318.8752	23275.95	22550.15
805.5084	321.0802	23260.95	22542.2
805.6514	323.2847	23287.4	22566.6
805.7945	325.4887	23236	22513.7
805.9376	327.692	23227.9	22503.35
806.0807	329.8949	23298.05	22573.5
806.2238	332.0972	23325	22597.35
806.367	334.2989	23402.75	22671.7
806.5101	336.5001	23345	22615.6
806.6533	338.7007	23365.15	22636.9
806.7965	340.9008	23360.25	22626.7
806.9397	343.1003	23308.9	22573.55
807.0829	345.2992	23303.8	22569.45
807.2261	347.4976	23296.55	22557
807.3693	349.6955	23263.3	22522.4
807.5126	351.8927	23275.4	22532.8
807.6559	354.0895	23208.5	22455.85
807.7991	356.2856	23187.4	22444.35
807.9424	358.4812	23173.15	22427.8
808.0857	360.6763	23243.5	22498.75
808.2291	362.8707	23178.15	22428.85
808.3724	365.0646	23209.1	22459.25
808.5158	367.258	23139.15	22384.8
808.6591	369.4508	23157.6	22400.65
808.8025	371.643	23162.35	22408.75
808.9459	373.8346	23125.95	22366.75
809.0893	376.0257	23119.25	22359.8
809.2327	378.2162	23115.7	22360.15
809.3762	380.4062	23106.4	22350.6
809.5196	382.5956	23038.05	22283.25
809.6631	384.7844	23071.9	22322.1
809.8066	386.9726	22975.6	22225.75
809.9501	389.1603	22917.35	22167.95
810.0936	391.3474	22939.4	22146.1
810.2371	393.5339	22921.1	22166.4
810.3806	395.7199	22816.85	22065.45
810.5241	397.9052	22827.55	22075.25
810.6677	400.09	22878	22121.4
810.8113	402.2743	22860.95	22106.55
810.9548	404.4579	22841.25	22084.65
811.0984	406.641	22932.05	22172.5
811.2421	408.8235	22924.05	22161.45
811.3857	411.0054	22989.3	22227
811.5293	413.1868	23068.95	22301.4
811.673	415.3675	23104.3	22335.4
811.8166	417.5477	23095.4	22323.6
811.9603	419.7273	23021.2	22246.85
812.104	421.9064	22876.75	22099.55
812.2477	424.0848	22785.2	22010.3
812.3914	426.2627	22688.25	21913.3
812.5351	428.4399	22626.75	21849.85
812.6788	430.6166	22579.95	21799.85
812.8226	432.7928	22492	21710.65
812.9663	434.9683	22444.85	21664.25
813.1101	437.1432	22372.15	21590.05
813.2539	439.3176	22278	21498.6
813.3977	441.4914	22247.8	21468.25
813.5415	443.6645	22228.4	21447.5
813.6853	445.8371	22108.5	21325.85
813.8291	448.0091	22091.4	21311.55
813.973	450.1806	22014.5	21231.35
814.1168	452.3514	21957.75	21172.1
814.2607	454.5216	21989.75	21194.7
814.4046	456.6913	21842.45	21055.8
814.5485	458.8603	21889.2	21103.2
814.6924	461.0288	21876.45	21092.2
814.8363	463.1967	21821.4	21036.25
814.9802	465.3639	21854.75	21066.5
815.1241	467.5306	21794.05	21005.1
815.2681	469.6967	21781.65	20992.7
815.412	471.8622	21668.4	20880.3
815.556	474.0271	21661.85	20872.45
815.7	476.1914	21688.55	20896.5
815.844	478.3551	21626.25	20836.7
815.988	480.5182	21678.6	20887.15
816.132	482.6807	21657.2	20866.5
816.276	484.8426	21668.05	20878.35
816.4201	487.0039	21728.5	20936.45
816.5641	489.1647	21766.45	20974.75
816.7082	491.3248	21818.85	21023.35
816.8522	493.4843	21803	21010.75
816.9963	495.6432	21740.8	20945.95
817.1404	497.8015	21683.15	20884.8
817.2845	499.9592	21697.2	20900
817.4286	502.1163	21654	20855.95
817.5727	504.2728	21555.6	20755.05
817.7168	506.4287	21584.65	20787.85
817.861	508.5839	21559	20760.6
818.0051	510.7386	21500.6	20700.55
818.1493	512.8927	21504.9	20700.85
818.2935	515.0461	21469.35	20667.75
818.4377	517.199	21467.6	20665.3
818.5818	519.3512	21512.3	20708.05
818.726	521.5029	21513.85	20701.85
818.8703	523.6539	21518.85	20714.9
819.0145	525.8043	21515.5	20708.8
819.1587	527.9541	21465.95	20658.7
819.303	530.1033	21403.2	20595.35
819.4472	532.2519	21389.4	20580.95
819.5915	534.3999	21337.35	20529.9
819.7357	536.5472	21302.55	20494
819.88	538.694	21285.6	20477.35
820.0243	540.8401	21286	20476.3
820.1686	542.9856	21316.8	20504.6
820.3129	545.1305	21275.25	20464.15
820.4572	547.2748	21336.7	20522.85
820.6016	549.4185	21306.55	20490.35
820.7459	551.5615	21256.35	20440.25
820.8902	553.704	21256.2	20442.4
821.0346	555.8458	21214.45	20401.9
821.1789	557.987	21240.45	20428.15
821.3233	560.1276	21212.7	20395.8
821.4677	562.2675	21282.7	20472.15
821.6121	564.4069	21273.5	20460.15
821.7565	566.5456	21265.3	20452
821.9009	568.6837	21220.75	20406.95
822.0453	570.8212	21134.1	20320.35
822.1897	572.958	21052.05	20234.9
822.3342	575.0942	21011.3	20197.7
822.4786	577.2299	20910.6	20093.8
822.6231	579.3648	20832.45	20018.05
822.7675	581.4992	20747.1	19935.1
822.912	583.6329	20698.55	19884.65
823.0565	585.766	20691.65	19876.8
823.201	587.8985	20671	19855.15
823.3454	590.0304	20629.25	19801.95
823.4899	592.1616	20594.85	19771.9
823.6345	594.2922	20555.15	19735.9
823.779	596.4222	20460.2	19636.6
823.9235	598.5515	20411	19589.15
824.068	600.6802	20358.4	19537.3
824.2126	602.8083	20213.25	19389.4
824.3571	604.9358	20215.35	19391.9
824.5017	607.0626	20132.05	19308.1
824.6462	609.1888	20153.95	19330.2
824.7908	611.3144	20106.15	19278.1
824.9354	613.4393	20132	19308.95
825.08	615.5636	20134.4	19312
825.2246	617.6873	20135.9	19310.55
825.3692	619.8103	20142.95	19315.65
825.5138	621.9327	20120.25	19290.15
825.6584	624.0544	20106	19279.1
825.803	626.1756	20050.65	19224.55
825.9477	628.2961	20023.9	19193.9
826.0923	630.4159	19946	19114.45
826.237	632.5351	19915.95	19084.95
826.3816	634.6537	19873	19041.85
826.5263	636.7716	19875.2	19042.5
826.6709	638.8889	19904.3	19072.9
826.8156	641.0056	19915.65	19084.25
826.9603	643.1216	19876.95	19043.9
827.105	645.237	19902.15	19070.95
827.2497	647.3518	19807.05	18976.35
827.3944	649.4659	19833.3	19002.45
827.5391	651.5793	19760.05	18927.4
827.6838	653.6922	19706.4	18876.1
827.8285	655.8043	19699.15	18867.85
827.9733	657.9159	19692.1	18859.2
828.118	660.0268	19645.6	18811.9
828.2627	662.137	19624.35	18789.2
828.4075	664.2466	19594.85	18756.5
828.5522	666.3556	19536.75	18701.6
828.697	668.4639	19504	18664
828.8418	670.5716	19533.8	18699.5
828.9865	672.6786	19520.85	18682.15
829.1313	674.785	19424.95	18584.55
829.2761	676.8907	19391.6	18554.7
829.4209	678.9958	19352.4	18518
829.5657	681.1002	19299.8	18462.2
829.7105	683.204	19292.95	18447.95
829.8553	685.3072	19256.75	18413.95
830.0001	687.4097	19223.65	18381.85
830.1449	689.5115	19258.85	18417.8
830.2898	691.6127	19234.3	18394.85
830.4346	693.7132	19147.25	18307.2
830.5794	695.8131	19200.4	18337.5
830.7243	697.9123	19191.75	18347.3
830.8691	700.0109	19163.05	18320.85
831.014	702.1089	19127.6	18287.8
831.1588	704.2061	19115.9	18272.8
831.3037	706.3028	19082.05	18236.45
831.4486	708.3987	19109.4	18266.7
831.5935	710.4941	19089.95	18244.2
831.7383	712.5887	19066.5	18224.85
831.8832	714.6827	19076.45	18228.7
832.0281	716.7761	19027	18184.6
832.173	718.8688	19021.65	18174.75
832.3179	720.9608	18999.45	18149.9
832.4628	723.0522	19007.7	18156.6
832.6077	725.1429	18923.6	18076.35
832.7527	727.233	18927.55	18080.8
832.8976	729.3224	18975.2	18129.8
833.0425	731.4112	18990	18142.1
833.1874	733.4993	18938.75	18089.15
833.3324	735.5867	18851.15	18001.95
833.4773	737.6735	18824.65	17974.75
833.6222	739.7596	18736.6	17887.55
833.7672	741.845	18676.35	17827.75
833.9122	743.9298	18687.45	17835.45
834.0571	746.014	18635.65	17788.7
834.2021	748.0974	18639.1	17787.85
834.347	750.1802	18582.75	17732.15
834.492	752.2624	18505.2	17653.05
834.637	754.3439	18439.85	17587.6
834.782	756.4247	18401.35	17542.75
834.9269	758.5048	18353.25	17504.4
835.0719	760.5843	18327.15	17478.1
835.2169	762.6631	18276.3	17426.45
835.3619	764.7413	18264.5	17413.5
835.5069	766.8188	18307.25	17454.15
835.6519	768.8956	18268.5	17413.75
835.7969	770.9718	18353.3	17501.1
835.9419	773.0473	18249.15	17395.9
836.0869	775.1221	18224.3	17370.35
836.232	777.1962	18138.45	17286.25
836.377	779.2697	18150.45	17295.65
836.522	781.3426	18173.3	17303.05
836.667	783.4147	18143.5	17290.75
836.8121	785.4862	18144.75	17293.35
836.9571	787.557	18018.45	17165.05
837.1021	789.6271	17994.2	17137.6
837.2472	791.6966	17892.9	17039.05
837.3922	793.7654	17760.15	16905.4
837.5373	795.8335	17719.95	16866.7
837.6823	797.901	17663.7	16809.5
837.8274	799.9678	17647.4	16787.9
837.9724	802.0339	17614.45	16760.75
838.1175	804.0993	17593.3	16728.3
838.2626	806.1641	17520.35	16664.1
838.4076	808.2282	17469.15	16615.65
838.5527	810.2916	17457.1	16597.2
838.6978	812.3544	17447	16591.65
838.8428	814.4164	17395.75	16539.1
838.9879	816.4778	17424.05	16565.4
839.133	818.5385	17377.6	16522.05
839.2781	820.5986	17382.8	16525.1
839.4232	822.658	17419.9	16562.55
839.5682	824.7166	17346.35	16488.35
839.7133	826.7747	17427.7	16571.05
839.8584	828.832	17455.35	16598.2
840.0035	830.8886	17398.6	16538.55
840.1486	832.9446	17433.8	16570.9
840.2937	834.9999	17355.65	16496.45
840.4388	837.0545	17305.85	16441.3
840.5839	839.1085	17241.7	16383.6
840.729	841.1618	17188.3	16324.9
840.8741	843.2143	17120.95	16261.9
841.0192	845.2662	17046.35	16187.4
841.1643	847.3175	17053.85	16194.35
841.3095	849.368	17000.05	16140.7
841.4546	851.4179	16962.95	16100.4
841.5997	853.467	16888.35	16028.7
841.7448	855.5155	16872.3	16011.2
841.8899	857.5633	16898.65	16039.1
842.0351	859.6105	16847.75	15988.6
842.1802	861.6569	16814.2	15954.4
842.3253	863.7027	16776.25	15914.25
842.4704	865.7478	16752.6	15890.4
842.6156	867.7922	16751.2	15890.6
842.7607	869.8359	16689.45	15829.4
842.9058	871.8789	16680.7	15816.15
843.0509	873.9212	16668.1	15772.2
843.1961	875.9629	16629.75	15767.95
843.3412	878.0039	16619	15754
843.4863	880.0441	16598.35	15735.1
843.6315	882.0837	16628.85	15767.05
843.7766	884.1226	16575	15709.3
843.9218	886.1609	16577.25	15715.75
844.0669	888.1984	16616.25	15751.05
844.212	890.2352	16657.15	15794.6
844.3572	892.2714	16631.45	15764.45
844.5023	894.3069	16636.5	15770.4
844.6475	896.3416	16546.1	15681.6
844.7926	898.3757	16504.9	15641.6
844.9377	900.4091	16461.45	15596.35
845.0829	902.4418	16437.6	15567.65
845.228	904.4739	16370.9	15502.95
845.3732	906.5052	16369.85	15503.5
845.5183	908.5358	16337.95	15473.8
845.6635	910.5658	16320.05	15454.1
845.8086	912.595	16288.5	15421.85
845.9538	914.6236	16209.55	15344.85
846.0989	916.6515	16167.95	15301.65
846.2441	918.6786	16147.95	15282.1
846.3892	920.7051	16123.2	15254.45
846.5344	922.7309	16130.15	15261.45
846.6795	924.756	16053	15185.15
846.8246	926.7804	16087.15	15218.85
846.9698	928.8041	15976.8	15108.3
847.1149	930.8272	15959.25	15092.6
847.2601	932.8495	15878.15	15009.8
847.4052	934.8711	15885.05	15016.3
847.5504	936.892	15829.7	14959.65
847.6955	938.9123	15810.05	14940.6
847.8407	940.9318	15796.85	14928
847.9858	942.9506	15770.8	14902.8
848.131	944.9688	15682.75	14814.35
848.2761	946.9862	15660.85	14790.5
848.4213	949.003	15556.1	14687.35
848.5664	951.019	15532.9	14662.4
848.7115	953.0344	15490.05	14621.4
848.8567	955.0491	15437.75	14566.65
849.0018	957.063	15441.45	14573.5
849.147	959.0763	15455.6	14588.9
849.2921	961.0888	15425.2	14553.85
849.4373	963.1007	15422.1	14554
849.5824	965.1119	15383.7	14516.8
849.7275	967.1223	15366.75	14499.2
849.8727	969.1321	15337.7	14470.25
850.0178	971.1412	15302.4	14434
850.1629	973.1495	15270.75	14401.85
850.3081	975.1572	15255.85	14340.3
850.4532	977.1641	15242.8	14372.75
850.5983	979.1704	15186.75	14313.85
850.7435	981.1759	15153	14279
850.8886	983.1808	15131.9	14261
851.0337	985.1849	15112.6	14231.05
851.1788	987.1884	15056.25	14181.75
851.324	989.1911	15009.5	14135.85
851.4691	991.1932	15022.25	14148.05
851.6142	993.1945	14967.7	14097.15
851.7593	995.1951	14887.9	14017.25
851.9045	997.1951	14883.3	14007
852.0496	999.1943	14821.35	13950.7
852.1947	1001.1928	14770.35	13896.85
852.3398	1003.1906	14712.6	13843.1
852.4849	1005.1877	14713.15	13841.6
852.63	1007.1841	14672.15	13798.85
852.7751	1009.1798	14642.9	13771
852.9202	1011.1748	14560.35	13688.25
853.0653	1013.1691	14538.8	13666.65
853.2104	1015.1627	14460.95	13590.95
853.3555	1017.1556	14361.35	13489.65
853.5006	1019.1477	14337.65	13465.65
853.6457	1021.1392	14257.85	13388.15
853.7908	1023.1299	14191.4	13319.85
853.9359	1025.12	14150.7	13279.45
854.081	1027.1093	14093.05	13225.1
854.2261	1029.0979	14028.2	13160.35
854.3712	1031.0859	14010.45	13141.6
854.5163	1033.0731	14018.7	13146.65
854.6613	1035.0596	13961	13090.95
854.8064	1037.0454	13885.35	13012.15
854.9515	1039.0304	13864.85	12992.8
855.0965	1041.0148	13777.15	12906
855.2416	1042.9985	13783.75	12909.1
855.3867	1044.9814	13746.65	12875.15
855.5317	1046.9636	13697.35	12824.45
855.6768	1048.9452	13650.95	12776.75
855.8219	1050.926	13638.15	12764.35
855.9669	1052.9061	13614.05	12742.7
856.112	1054.8855	13559.25	12685.05
856.257	1056.8642	13555.85	12681.4
856.4021	1058.8421	13548.35	12672.65
856.5471	1060.8194	13511.4	12637.2
856.6921	1062.7959	13476.2	12602.25
856.8372	1064.7717	13446.5	12571.8
856.9822	1066.7469	13430.15	12555.6
857.1272	1068.7213	13401.3	12519.85
857.2723	1070.695	13389.45	12517.65
857.4173	1072.6679	13350.85	12474.8
857.5623	1074.6402	13368.1	12492.95
857.7073	1076.6117	13344.7	12466.55
857.8523	1078.5826	13300.5	12424.85
857.9973	1080.5527	13261.7	12383.65
858.1423	1082.5221	13178.6	12301.85
858.2873	1084.4908	13163.25	12291.35
858.4323	1086.4587	13122.95	12245.65
858.5773	1088.426	13090.35	12213.5
858.7223	1090.3925	13052.25	12172.95
858.8673	1092.3584	13015.45	12140.9
859.0123	1094.3235	12979.35	12104.2
859.1573	1096.2879	12961.05	12084.7
859.3022	1098.2515	12957.05	12081.95
859.4472	1100.2145	13001	12124.5
859.5922	1102.1767	12943.55	12065.4
859.7371	1104.1382	12949	12072.3
859.8821	1106.099	12973.9	12096.4
860.027	1108.0591	12953.8	12078.05
860.172	1110.0185	12953.2	12077.1
860.3169	1111.9771	12941.75	12066.05
860.4619	1113.9351	12932.25	12056.45
860.6068	1115.8923	12955.15	12078.15
860.7517	1117.8488	12914.4	12037.85
860.8967	1119.8045	12843.75	11967.5
861.0416	1121.7596	12799.75	11922.25
861.1865	1123.7139	12677.35	11800.7
861.3314	1125.6675	12617.5	11741.9
861.4763	1127.6204	12649.6	11774
861.6212	1129.5726	12608.7	11730.2
861.7661	1131.524	12566.85	11692
861.911	1133.4748	12590.6	11713.7
862.0559	1135.4248	12501.75	11624.25
862.2008	1137.3741	12437.25	11560.4
862.3457	1139.3226	12362.95	11484.55
862.4905	1141.2705	12378.6	11502.5
862.6354	1143.2176	12315.8	11432.1
862.7803	1145.164	12315.9	11434.55
862.9251	1147.1097	12278	11399.5
863.07	1149.0546	12276.1	11395.65
863.2148	1150.9989	12249.7	11371.7
863.3597	1152.9424	12230.65	11351.7
863.5045	1154.8852	12222.8	11344.75
863.6493	1156.8272	12188.45	11314.25
863.7942	1158.7686	12195.3	11310.15
863.939	1160.7092	12140.3	11263.45
864.0838	1162.6491	12106.65	11227.45
864.2286	1164.5883	12087.35	11209
864.3734	1166.5267	12098.3	11221.3
864.5182	1168.4644	12102.95	11224.2
864.663	1170.4014	12085.2	11203.45
864.8078	1172.3377	12092.9	11216.5
864.9526	1174.2732	12101.4	11222.15
865.0974	1176.2081	12149.65	11272.1
865.2421	1178.1421	12220.9	11337
865.3869	1180.0755	12268.35	11391.95
865.5317	1182.0082	12283.5	11407.05
