Software Version:	3.9.2.0
Unit SN:	10000200
Spectrometer SN:	6960
Date:	3/6/2024 9:40:08 AM
Data Line Index:	25
Spectral Points:	2048
Integration time (ms):	125
Averages:	20
Delay (ms):	30
Sequence Number:	1
Processing:	dark subtract
Laser Power (mW):	305
Laser Current (mA):	825
Laser Diode Temp (C):	25.1
Laser Case Temp (C):	24
System Temp (C):	23.8
Spectrometer Temp (C):	21.3
CCD Temp (C):	-0.031
Secondary Temp (C):	20.01
Heatsink Temp (C):	17.224
CCDPCB Temp (C):	30.504
SecondaryPCB Temp (C):	25.347

Wavelength	RamanShift	Raw Counts	Dark Subtracted
787.061	30.1047	462.65	56
787.2016	32.3739	465	60.65
787.3422	34.6426	465.5	59.3
787.4828	36.9109	476.5	68.2
787.6235	39.1787	481.05	71.15
787.7642	41.4461	491.85	76.05
787.9049	43.7131	497	77.65
788.0456	45.9796	507.95	87.6
788.1863	48.2456	516.2	91.8
788.3271	50.5112	521.95	92.35
788.4679	52.7764	529.3	96.55
788.6087	55.0411	541.85	106.55
788.7496	57.3054	551.55	110.75
788.8904	59.5692	562.8	119.5
789.0313	61.8326	570.9	124.4
789.1722	64.0955	584.4	134.8
789.3132	66.3579	600.8	147.55
789.4541	68.6199	614.9	158.75
789.5951	70.8815	646.25	183.85
789.7361	73.1426	716	250.05
789.8771	75.4032	865.3	395.55
790.0181	77.6634	1255.8	783.5
790.1592	79.9231	2152.95	1679.25
790.3003	82.1824	4098.85	3618.95
790.4414	84.4412	7505.9	7018.3
790.5825	86.6995	12162.5	11667.05
790.7237	88.9574	16707.9	16205.55
790.8648	91.2148	20053.35	19547.5
791.006	93.4717	21928.85	21414.65
791.1472	95.7282	22699.7	22184.1
791.2885	97.9842	23110.55	22594.35
791.4297	100.2398	23288.55	22769.1
791.571	102.4949	23358.25	22837.5
791.7123	104.7495	23386.05	22862.3
791.8536	107.0036	23330.4	22803.85
791.9949	109.2573	23393.15	22869.55
792.1363	111.5105	23375.05	22846.05
792.2777	113.7632	23378.9	22847.55
792.4191	116.0154	23374.65	22833
792.5605	118.2672	23495.15	22959.45
792.7019	120.5185	23498.45	22961
792.8434	122.7693	23581.85	23042.15
792.9849	125.0197	23618.85	23073.8
793.1264	127.2696	23587.35	23039.4
793.2679	129.519	23704.7	23151.4
793.4094	131.7679	23767.3	23215.9
793.551	134.0163	23816.85	23260.05
793.6926	136.2642	23860.8	23301.8
793.8342	138.5117	23891.1	23328.55
793.9758	140.7587	23900.05	23337.45
794.1175	143.0052	23953.6	23388.4
794.2591	145.2512	23931.9	23364.35
794.4008	147.4967	23922.4	23353.6
794.5425	149.7417	23902.55	23329.75
794.6842	151.9863	23894.1	23317.75
794.826	154.2304	23969.15	23388.55
794.9677	156.4739	23891.2	23303.35
795.1095	158.717	23950.85	23368
795.2513	160.9596	23989.25	23399.65
795.3931	163.2017	23958.6	23365.75
795.535	165.4433	24004.1	23409.5
795.6768	167.6844	23988.2	23390.15
795.8187	169.925	24001.8	23400.35
795.9606	172.1651	23953.8	23349.9
796.1025	174.4047	23994	23388.4
796.2445	176.6439	24000.75	23394.65
796.3864	178.8825	24004.25	23392.4
796.5284	181.1206	24043.25	23429.25
796.6704	183.3582	24035.65	23418
796.8124	185.5954	24078.65	23458.15
796.9544	187.832	24100.3	23476.05
797.0965	190.0681	24193.2	23564
797.2386	192.3037	24193.95	23560.8
797.3806	194.5388	24248.7	23616.3
797.5228	196.7734	24293.75	23661.35
797.6649	199.0075	24380.85	23745.6
797.807	201.2411	24465.1	23830.1
797.9492	203.4742	24516.65	23876.6
798.0914	205.7068	24595	23949.15
798.2336	207.9389	24651.2	24007.65
798.3758	210.1704	24726.45	24089.8
798.518	212.4015	24681.85	24055.15
798.6603	214.632	24789.6	24169.15
798.8025	216.862	24817.5	24196.2
798.9448	219.0915	24789.8	24168.4
799.0871	221.3205	24870.35	24245.9
799.2294	223.549	24934.6	24313.15
799.3718	225.777	24989.65	24367.25
799.5141	228.0044	25003	24370.65
799.6565	230.2314	25062.15	24427.7
799.7989	232.4578	25043.7	24404.3
799.9413	234.6837	25075.05	24429.6
800.0837	236.909	25138.55	24493.5
800.2262	239.1339	25172.95	24501.4
800.3687	241.3582	25154.1	24497.15
800.5111	243.582	25192.35	24505.05
800.6536	245.8053	25210.5	24533.8
800.7961	248.0281	25221.35	24552.35
800.9387	250.2503	25234.45	24561.2
801.0812	252.472	25271.95	24596.2
801.2238	254.6932	25311.25	24637.55
801.3664	256.9139	25303.55	24627.8
801.509	259.134	25350.6	24671.45
801.6516	261.3536	25361.5	24686.6
801.7942	263.5727	25469.1	24789.25
801.9369	265.7912	25423.25	24744.2
802.0795	268.0092	25466.25	24788.75
802.2222	270.2267	25492.15	24812.55
802.3649	272.4436	25539.95	24856.2
802.5076	274.6601	25549.9	24856
802.6504	276.8759	25574.1	24884.5
802.7931	279.0913	25580.2	24891.3
802.9359	281.3061	25613.35	24924.15
803.0787	283.5204	25654.4	24961.45
803.2215	285.7341	25707.35	25011.65
803.3643	287.9473	25760.15	25054.7
803.5071	290.16	25710.4	25010.65
803.6499	292.3721	25693.9	24999.55
803.7928	294.5837	25719.65	25023.75
803.9357	296.7947	25650.55	24956.1
804.0786	299.0052	25643.75	24945.8
804.2215	301.2152	25581.75	24884.5
804.3644	303.4246	25654.55	24957.25
804.5074	305.6334	25619.55	24920.15
804.6503	307.8418	25644.2	24942.45
804.7933	310.0495	25608.55	24906.15
804.9363	312.2568	25595.65	24891.2
805.0793	314.4635	25473.55	24769.7
805.2223	316.6696	25472.6	24765.25
805.3653	318.8752	25352.4	24637.4
805.5084	321.0802	25290.6	24582.25
805.6514	323.2847	25352.25	24639.6
805.7945	325.4887	25310.65	24597.3
805.9376	327.692	25303.15	24588.2
806.0807	329.8949	25352.35	24637.65
806.2238	332.0972	25389.45	24673.35
806.367	334.2989	25492.65	24773.35
806.5101	336.5001	25420.7	24699.6
806.6533	338.7007	25361.25	24641.95
806.7965	340.9008	25420	24698
806.9397	343.1003	25339.95	24615.7
807.0829	345.2992	25397.05	24671.35
807.2261	347.4976	25352.9	24624.1
807.3693	349.6955	25287.7	24554.7
807.5126	351.8927	25354.35	24622.95
807.6559	354.0895	25287.05	24544.7
807.7991	356.2856	25275.5	24541.4
807.9424	358.4812	25217.35	24480.6
808.0857	360.6763	25306.3	24572.25
808.2291	362.8707	25245.7	24507.25
808.3724	365.0646	25275.45	24532.3
808.5158	367.258	25246.4	24504.95
808.6591	369.4508	25198.25	24452.95
808.8025	371.643	25254.55	24508.2
808.9459	373.8346	25187.8	24440.55
809.0893	376.0257	25164.65	24414.45
809.2327	378.2162	25142.35	24396.2
809.3762	380.4062	25156.6	24408.95
809.5196	382.5956	25092.3	24346.15
809.6631	384.7844	25070.05	24326.75
809.8066	386.9726	24990.05	24246.55
809.9501	389.1603	24956.35	24213.6
810.0936	391.3474	24963.75	24171.2
810.2371	393.5339	24915.95	24170.55
810.3806	395.7199	24844.95	24103.2
810.5241	397.9052	24860.4	24115.9
810.6677	400.09	24829.35	24082.75
810.8113	402.2743	24867.8	24118.65
810.9548	404.4579	24835.6	24085.1
811.0984	406.641	24896	24143.65
811.2421	408.8235	24926.15	24170.85
811.3857	411.0054	24971.55	24216.6
811.5293	413.1868	25060.2	24301.5
811.673	415.3675	25069	24310.25
811.8166	417.5477	25120.05	24359.65
811.9603	419.7273	25051.7	24289.15
812.104	421.9064	24888.55	24117.95
812.2477	424.0848	24813.95	24048.05
812.3914	426.2627	24691.6	23925.65
812.5351	428.4399	24650.35	23883.05
812.6788	430.6166	24542.65	23771.8
812.8226	432.7928	24525	23751.35
812.9663	434.9683	24399.55	23628.6
813.1101	437.1432	24396.35	23622.65
813.2539	439.3176	24244.85	23471.25
813.3977	441.4914	24194.75	23422.75
813.5415	443.6645	24180.6	23406.55
813.6853	445.8371	24108.45	23334.8
813.8291	448.0091	24014.85	23241.35
813.973	450.1806	23976.1	23200.8
814.1168	452.3514	23909.1	23130
814.2607	454.5216	23889.8	23103.5
814.4046	456.6913	23756.45	22979.2
814.5485	458.8603	23828.8	23049.4
814.6924	461.0288	23815.25	23038.75
814.8363	463.1967	23752.4	22973.6
814.9802	465.3639	23762.75	22982.5
815.1241	467.5306	23704.85	22923.4
815.2681	469.6967	23664.85	22885.5
815.412	471.8622	23641.45	22861
815.556	474.0271	23588.15	22808
815.7	476.1914	23584.55	22801
815.844	478.3551	23553.35	22769.45
815.988	480.5182	23607.6	22821.65
816.132	482.6807	23579.5	22794.55
816.276	484.8426	23588.15	22805.7
816.4201	487.0039	23608.7	22824.6
816.5641	489.1647	23658.6	22870.7
816.7082	491.3248	23721.8	22935.85
816.8522	493.4843	23684.7	22899.3
816.9963	495.6432	23645.15	22855.9
817.1404	497.8015	23611.05	22820.7
817.2845	499.9592	23636.55	22846.65
817.4286	502.1163	23547.95	22756.95
817.5727	504.2728	23470	22677
817.7168	506.4287	23515.85	22725.05
817.861	508.5839	23418.45	22628.2
818.0051	510.7386	23389.75	22599.3
818.1493	512.8927	23425.4	22626.25
818.2935	515.0461	23403.4	22607.95
818.4377	517.199	23367.85	22575.25
818.5818	519.3512	23396.6	22603.95
818.726	521.5029	23421.45	22621
818.8703	523.6539	23425.05	22628.55
819.0145	525.8043	23401.2	22602
819.1587	527.9541	23385.45	22585.75
819.303	530.1033	23286.4	22485.85
819.4472	532.2519	23257.3	22458.7
819.5915	534.3999	23205.05	22401.3
819.7357	536.5472	23178.4	22378.35
819.88	538.694	23182.15	22382.9
820.0243	540.8401	23208.9	22406.2
820.1686	542.9856	23206	22403.25
820.3129	545.1305	23179.6	22375.1
820.4572	547.2748	23223.6	22419.55
820.6016	549.4185	23189.8	22383.45
820.7459	551.5615	23104.35	22298.8
820.8902	553.704	23104.1	22297.55
821.0346	555.8458	23090.6	22284.2
821.1789	557.987	23078.15	22273.2
821.3233	560.1276	23040.8	22233.65
821.4677	562.2675	23148.7	22344.75
821.6121	564.4069	23115.35	22310.7
821.7565	566.5456	23108.85	22302.05
821.9009	568.6837	23085.1	22280.85
822.0453	570.8212	22965.9	22158.5
822.1897	572.958	22885	22076.55
822.3342	575.0942	22848.55	22041.6
822.4786	577.2299	22770.7	21962.8
822.6231	579.3648	22686.85	21878.2
822.7675	581.4992	22552.85	21745.3
822.912	583.6329	22488.4	21681.3
823.0565	585.766	22497.75	21690.15
823.201	587.8985	22497.75	21689.45
823.3454	590.0304	22443.45	21620.2
823.4899	592.1616	22370.2	21554.75
823.6345	594.2922	22371.25	21559.9
823.779	596.4222	22300.95	21485.95
823.9235	598.5515	22241.15	21425.4
824.068	600.6802	22170.25	21355.55
824.2126	602.8083	22011.2	21197.15
824.3571	604.9358	22048.45	21233.25
824.5017	607.0626	21980.9	21166.2
824.6462	609.1888	21937.25	21122.15
824.7908	611.3144	21933.65	21116.1
824.9354	613.4393	21897.4	21080.2
825.08	615.5636	21895.8	21079
825.2246	617.6873	21922.45	21107
825.3692	619.8103	21972.65	21152.35
825.5138	621.9327	21942.8	21120.9
825.6584	624.0544	21887.8	21070.4
825.803	626.1756	21843.7	21025.35
825.9477	628.2961	21778.9	20959.5
826.0923	630.4159	21735.25	20916.3
826.237	632.5351	21722.45	20901.8
826.3816	634.6537	21675.2	20853.6
826.5263	636.7716	21624.85	20799.3
826.6709	638.8889	21622.15	20797.7
826.8156	641.0056	21661.4	20836.35
826.9603	643.1216	21602	20775
827.105	645.237	21687.85	20863.35
827.2497	647.3518	21584.55	20759.8
827.3944	649.4659	21559.95	20736.25
827.5391	651.5793	21512.3	20687.95
827.6838	653.6922	21479.75	20657.4
827.8285	655.8043	21449.85	20625.8
827.9733	657.9159	21422.6	20596.5
828.118	660.0268	21385.45	20557.2
828.2627	662.137	21312.3	20484.9
828.4075	664.2466	21349.6	20519.35
828.5522	666.3556	21292.75	20464.65
828.697	668.4639	21238.45	20408.75
828.8418	670.5716	21244.8	20417.95
828.9865	672.6786	21225.15	20394.05
829.1313	674.785	21153.35	20321.9
829.2761	676.8907	21087.65	20256.65
829.4209	678.9958	21086.3	20259.15
829.5657	681.1002	20971.3	20140.35
829.7105	683.204	20993.2	20160.5
829.8553	685.3072	20952.25	20120.15
830.0001	687.4097	20937.7	20106.5
830.1449	689.5115	20898.7	20065.1
830.2898	691.6127	20933.3	20100.65
830.4346	693.7132	20854.4	20021.55
830.5794	695.8131	20896.9	20056.4
830.7243	697.9123	20892.45	20057.15
830.8691	700.0109	20823.95	19990.2
831.014	702.1089	20770.25	19936.9
831.1588	704.2061	20785.9	19950.9
831.3037	706.3028	20798.35	19964.2
831.4486	708.3987	20782.1	19947.7
831.5935	710.4941	20740.85	19907.6
831.7383	712.5887	20737.05	19898.4
831.8832	714.6827	20712.95	19873.1
832.0281	716.7761	20714.35	19876.9
832.173	718.8688	20683.4	19846.45
832.3179	720.9608	20650.3	19809.5
832.4628	723.0522	20664.5	19823.45
832.6077	725.1429	20619.4	19780
832.7527	727.233	20602.85	19765.2
832.8976	729.3224	20671.25	19830.9
833.0425	731.4112	20585.85	19747.65
833.1874	733.4993	20590.05	19749.6
833.3324	735.5867	20483.4	19644.55
833.4773	737.6735	20436	19595.45
833.6222	739.7596	20399.75	19558.35
833.7672	741.845	20376.75	19534.85
833.9122	743.9298	20327.6	19484.15
834.0571	746.014	20281.85	19442.9
834.2021	748.0974	20239.9	19397.35
834.347	750.1802	20189.1	19347.25
834.492	752.2624	20131.3	19290
834.637	754.3439	20045.65	19201.1
834.782	756.4247	19989	19138.75
834.9269	758.5048	19941.25	19097.2
835.0719	760.5843	19901.75	19058.2
835.2169	762.6631	19847.3	19005.05
835.3619	764.7413	19863.25	19021.65
835.5069	766.8188	19891.9	19044.8
835.6519	768.8956	19831.55	18987.4
835.7969	770.9718	19890.15	19045
835.9419	773.0473	19799.05	18955
836.0869	775.1221	19759.4	18915.1
836.232	777.1962	19700.8	18855.25
836.377	779.2697	19686.65	18840.3
836.522	781.3426	19709.9	18843.15
836.667	783.4147	19696.2	18849.65
836.8121	785.4862	19657.1	18811.05
836.9571	787.557	19616.6	18768.05
837.1021	789.6271	19521.75	18672.95
837.2472	791.6966	19382.2	18535.85
837.3922	793.7654	19283.1	18435.75
837.5373	795.8335	19261.6	18412.9
837.6823	797.901	19205.1	18358.75
837.8274	799.9678	19173.85	18325.3
837.9724	802.0339	19126.05	18281.9
838.1175	804.0993	19124.7	18265.2
838.2626	806.1641	19092.65	18241.4
838.4076	808.2282	19012.95	18163.5
838.5527	810.2916	19002.6	18150.15
838.6978	812.3544	18978.75	18131.5
838.8428	814.4164	18926.85	18079
838.9879	816.4778	18955.75	18104.55
839.133	818.5385	18866.45	18016.3
839.2781	820.5986	18915.5	18067.25
839.4232	822.658	18916.95	18064.65
839.5682	824.7166	18883.55	18035.8
839.7133	826.7747	18972.2	18122.8
839.8584	828.832	18951.7	18101.15
840.0035	830.8886	18893.6	18039.25
840.1486	832.9446	18908.8	18056.95
840.2937	834.9999	18825.45	17975.35
840.4388	837.0545	18820.55	17964.9
840.5839	839.1085	18735.3	17884.05
840.729	841.1618	18657.85	17802.3
840.8741	843.2143	18597.5	17743.9
841.0192	845.2662	18527.45	17676.75
841.1643	847.3175	18511.85	17660.4
841.3095	849.368	18439.65	17587.45
841.4546	851.4179	18465.25	17613.25
841.5997	853.467	18342	17489.4
841.7448	855.5155	18368.9	17517.1
841.8899	857.5633	18309.3	17457.9
842.0351	859.6105	18263.05	17409.55
842.1802	861.6569	18223.6	17370.95
842.3253	863.7027	18205.8	17351.25
842.4704	865.7478	18214.65	17359.4
842.6156	867.7922	18163.5	17309.95
842.7607	869.8359	18139.65	17285.35
842.9058	871.8789	18086.1	17231
843.0509	873.9212	18092.75	17206.8
843.1961	875.9629	18009.3	17152.3
843.3412	878.0039	18041.6	17183.15
843.4863	880.0441	18009.1	17154.15
843.6315	882.0837	18008.25	17151.35
843.7766	884.1226	18006	17146.85
843.9218	886.1609	18007.3	17152.15
844.0669	888.1984	18033.65	17179.9
844.212	890.2352	18078.65	17223
844.3572	892.2714	18067.05	17208.1
844.5023	894.3069	18053.55	17198.15
844.6475	896.3416	17964	17108.65
844.7926	898.3757	17918.2	17060.8
844.9377	900.4091	17861.15	17005.6
845.0829	902.4418	17812.45	16951.75
845.228	904.4739	17785.85	16926.3
845.3732	906.5052	17759.9	16901
845.5183	908.5358	17772.5	16914.95
845.6635	910.5658	17717.7	16858.15
845.8086	912.595	17670.4	16813.95
845.9538	914.6236	17606.15	16747.9
846.0989	916.6515	17565.2	16707.5
846.2441	918.6786	17506.65	16646.1
846.3892	920.7051	17483.65	16620.7
846.5344	922.7309	17478.3	16618.95
846.6795	924.756	17406.7	16547.1
846.8246	926.7804	17411.2	16550.4
846.9698	928.8041	17286.05	16425.55
847.1149	930.8272	17335.7	16475.5
847.2601	932.8495	17246.7	16385.9
847.4052	934.8711	17254.9	16393.3
847.5504	936.892	17236.75	16377.65
847.6955	938.9123	17159.95	16298.2
847.8407	940.9318	17115.5	16253.7
847.9858	942.9506	17088.65	16226.5
848.131	944.9688	17016	16154.85
848.2761	946.9862	17019.05	16158.9
848.4213	949.003	16914.6	16052.65
848.5664	951.019	16838.5	15978.3
848.7115	953.0344	16795	15933.55
848.8567	955.0491	16797.15	15934.1
849.0018	957.063	16773.55	15912.1
849.147	959.0763	16790.35	15927.4
849.2921	961.0888	16703.1	15838.6
849.4373	963.1007	16684.15	15822.65
849.5824	965.1119	16682.8	15822.7
849.7275	967.1223	16665.25	15802.8
849.8727	969.1321	16616.65	15757.1
850.0178	971.1412	16593	15731.15
850.1629	973.1495	16560.7	15697.85
850.3081	975.1572	16557	15648.75
850.4532	977.1641	16510.5	15648.35
850.5983	979.1704	16446.2	15582.8
850.7435	981.1759	16440.2	15574.95
850.8886	983.1808	16423.75	15559.55
851.0337	985.1849	16346.45	15471.8
851.1788	987.1884	16331.6	15466.3
851.324	989.1911	16274.9	15407.6
851.4691	991.1932	16244.6	15379.5
851.6142	993.1945	16192.25	15330
851.7593	995.1951	16137.85	15273.3
851.9045	997.1951	16121.6	15250.85
852.0496	999.1943	16067.45	15206.3
852.1947	1001.1928	15998.5	15134.3
852.3398	1003.1906	15946.25	15083.1
852.4849	1005.1877	15895.25	15030
852.63	1007.1841	15865.85	15001.95
852.7751	1009.1798	15833.8	14969.4
852.9202	1011.1748	15787.55	14922.6
853.0653	1013.1691	15753.95	14886.7
853.2104	1015.1627	15670.45	14804.95
853.3555	1017.1556	15574.85	14709.95
853.5006	1019.1477	15520.3	14654.9
853.6457	1021.1392	15402	14540.6
853.7908	1023.1299	15368.95	14503.65
853.9359	1025.12	15329.95	14463.7
854.081	1027.1093	15255.25	14392.3
854.2261	1029.0979	15212.25	14349.15
854.3712	1031.0859	15205.65	14341.7
854.5163	1033.0731	15169	14303.75
854.6613	1035.0596	15125.95	14261.75
854.8064	1037.0454	15071.1	14204.9
854.9515	1039.0304	15019.45	14152.75
855.0965	1041.0148	14927.6	14061.7
855.2416	1042.9985	14883.1	14015.4
855.3867	1044.9814	14852.15	13987.7
855.5317	1046.9636	14802.2	13934.45
855.6768	1048.9452	14762.05	13898.1
855.8219	1050.926	14771.4	13907.6
855.9669	1052.9061	14729.15	13862.3
856.112	1054.8855	14680.75	13814.3
856.257	1056.8642	14673.15	13806.2
856.4021	1058.8421	14667.4	13796.5
856.5471	1060.8194	14580.55	13714.35
856.6921	1062.7959	14567.3	13701.8
856.8372	1064.7717	14525.3	13658.45
856.9822	1066.7469	14504.6	13636.1
857.1272	1068.7213	14474	13603.65
857.2723	1070.695	14471.05	13607.15
857.4173	1072.6679	14397.85	13528.25
857.5623	1074.6402	14430.95	13562.7
857.7073	1076.6117	14450.85	13578.95
857.8523	1078.5826	14400.25	13532.5
857.9973	1080.5527	14362.75	13494.45
858.1423	1082.5221	14276.45	13410.1
858.2873	1084.4908	14256.45	13390.7
858.4323	1086.4587	14197.35	13328.75
858.5773	1088.426	14153.3	13285
858.7223	1090.3925	14120.25	13247.35
858.8673	1092.3584	14104.2	13234.8
859.0123	1094.3235	14043.15	13176.4
859.1573	1096.2879	14043.4	13173.15
859.3022	1098.2515	14016.85	13150
859.4472	1100.2145	14052.2	13184.65
859.5922	1102.1767	13984.55	13113.6
859.7371	1104.1382	13982.6	13113.75
859.8821	1106.099	14005.05	13134.45
860.027	1108.0591	13966.2	13095.55
860.172	1110.0185	13978.2	13107.4
860.3169	1111.9771	13989.7	13120.75
860.4619	1113.9351	13975.5	13105.4
860.6068	1115.8923	13969.9	13099.3
860.7517	1117.8488	13968.9	13098.05
860.8967	1119.8045	13904.6	13035.5
861.0416	1121.7596	13833.25	12964.55
861.1865	1123.7139	13715.9	12849.55
861.3314	1125.6675	13636.5	12768.1
861.4763	1127.6204	13649.15	12779.65
861.6212	1129.5726	13590	12719
861.7661	1131.524	13586.95	12715.85
861.911	1133.4748	13545.3	12674.05
862.0559	1135.4248	13487.4	12615.55
862.2008	1137.3741	13398.1	12527.85
862.3457	1139.3226	13369.15	12497.15
862.4905	1141.2705	13385.85	12516.15
862.6354	1143.2176	13316.15	12440.4
862.7803	1145.164	13292.05	12421.65
862.9251	1147.1097	13262.75	12391.1
863.07	1149.0546	13266.8	12395
863.2148	1150.9989	13244.2	12372.45
863.3597	1152.9424	13204.95	12334.4
863.5045	1154.8852	13152.15	12281.5
863.6493	1156.8272	13132.4	12260.75
863.7942	1158.7686	13163.85	12285.35
863.939	1160.7092	13116.3	12245.1
864.0838	1162.6491	13077.15	12202.25
864.2286	1164.5883	13070.05	12200.3
864.3734	1166.5267	13051.1	12180.1
864.5182	1168.4644	13028.65	12158.25
864.663	1170.4014	13043.4	12167.15
864.8078	1172.3377	13036.1	12166.25
864.9526	1174.2732	13082.55	12211.95
865.0974	1176.2081	13114	12242.7
865.2421	1178.1421	13198.05	12323.1
865.3869	1180.0755	13239.55	12368.65
865.5317	1182.0082	13233.15	12361.8
865.6764	1183.9401	13197.3	12324.75
