Software Version:	3.9.2.0
Unit SN:	10000200
Spectrometer SN:	6960
Date:	3/6/2024 9:52:08 AM
Data Line Index:	25
Spectral Points:	2048
Integration time (ms):	125
Averages:	20
Delay (ms):	30
Sequence Number:	1
Processing:	dark subtract
Laser Power (mW):	305
Laser Current (mA):	823
Laser Diode Temp (C):	25
Laser Case Temp (C):	24.4
System Temp (C):	24.2
Spectrometer Temp (C):	21.8
CCD Temp (C):	0.001
Secondary Temp (C):	20.006
Heatsink Temp (C):	18.32
CCDPCB Temp (C):	30.571
SecondaryPCB Temp (C):	26.069

Wavelength	RamanShift	Raw Counts	Dark Subtracted
787.061	30.1047	441.75	32.3
787.2016	32.3739	444.55	38.05
787.3422	34.6426	447.3	40.95
787.4828	36.9109	446.95	38.65
787.6235	39.1787	455.3	43.9
787.7642	41.4461	461.35	44.8
787.9049	43.7131	467.3	46.85
788.0456	45.9796	474.95	52
788.1863	48.2456	480.55	53.35
788.3271	50.5112	486	53.6
788.4679	52.7764	490.25	55.7
788.6087	55.0411	497.35	58.95
788.7496	57.3054	508.75	65.9
788.8904	59.5692	513.9	68.6
789.0313	61.8326	524.6	77.15
789.1722	64.0955	529.1	79.35
789.3132	66.3579	540.05	84.75
789.4541	68.6199	552.65	94.05
789.5951	70.8815	574.05	109
789.7361	73.1426	618.85	151
789.8771	75.4032	711.6	237.85
790.0181	77.6634	951.3	476.8
790.1592	79.9231	1507.95	1030.1
790.3003	82.1824	2701.45	2215.2
790.4414	84.4412	4763.5	4261.1
790.5825	86.6995	7570.5	7055.55
790.7237	88.9574	10347.25	9816.95
790.8648	91.2148	12398.65	11861.8
791.006	93.4717	13575.4	13031.1
791.1472	95.7282	14085.45	13536.85
791.2885	97.9842	14338.7	13786.2
791.4297	100.2398	14448.4	13894.85
791.571	102.4949	14487.3	13932.65
791.7123	104.7495	14476.2	13913.65
791.8536	107.0036	14465.05	13903
791.9949	109.2573	14445.25	13884
792.1363	111.5105	14492.65	13928.3
792.2777	113.7632	14432.25	13868.35
792.4191	116.0154	14459.5	13882.85
792.5605	118.2672	14475.55	13903.55
792.7019	120.5185	14490.5	13919
792.8434	122.7693	14520.05	13941.15
792.9849	125.0197	14499.35	13921.5
793.1264	127.2696	14524.3	13940.1
793.2679	129.519	14591.95	14004.2
793.4094	131.7679	14586.75	13997.8
793.551	134.0163	14610.3	14020.05
793.6926	136.2642	14649.05	14054.45
793.8342	138.5117	14614.35	14014.65
793.9758	140.7587	14661.7	14062.05
794.1175	143.0052	14683.35	14080.4
794.2591	145.2512	14653.4	14050.65
794.4008	147.4967	14662.9	14056.15
794.5425	149.7417	14641.5	14036.5
794.6842	151.9863	14646.65	14036.3
794.826	154.2304	14660	14047.35
794.9677	156.4739	14635.35	14012.9
795.1095	158.717	14662.2	14041.85
795.2513	160.9596	14657.2	14030.4
795.3931	163.2017	14656.95	14028.8
795.535	165.4433	14676.15	14047.55
795.6768	167.6844	14646.8	14014.6
795.8187	169.925	14695.05	14060.1
795.9606	172.1651	14614.95	13978.55
796.1025	174.4047	14644.5	14006.6
796.2445	176.6439	14630.8	13988.4
796.3864	178.8825	14607.6	13961.3
796.5284	181.1206	14646.6	13996.3
796.6704	183.3582	14647	13992.65
796.8124	185.5954	14663.5	14007.7
796.9544	187.832	14664.5	14005.8
797.0965	190.0681	14716	14054.4
797.2386	192.3037	14774	14109.2
797.3806	194.5388	14734.95	14068.35
797.5228	196.7734	14772	14102.85
797.6649	199.0075	14825.15	14154.3
797.807	201.2411	14898.8	14223.4
797.9492	203.4742	14913.85	14239.55
798.0914	205.7068	14967.75	14288.85
798.2336	207.9389	14983.25	14304.5
798.3758	210.1704	15022.9	14350.85
798.518	212.4015	14982.8	14319.8
798.6603	214.632	14998.6	14341.15
798.8025	216.862	15025.15	14368.05
798.9448	219.0915	15015.35	14356.9
799.0871	221.3205	15062.95	14401.2
799.2294	223.549	15081.45	14421.25
799.3718	225.777	15152.05	14495.5
799.5141	228.0044	15144.55	14477.2
799.6565	230.2314	15191.7	14525.5
799.7989	232.4578	15180.2	14508.5
799.9413	234.6837	15174.5	14491.05
800.0837	236.909	15186.45	14506.1
800.2262	239.1339	15205.25	14500
800.3687	241.3582	15220.2	14526.85
800.5111	243.582	15256.6	14532.6
800.6536	245.8053	15280.05	14574.65
800.7961	248.0281	15258.5	14555.2
800.9387	250.2503	15283	14577.6
801.0812	252.472	15250.7	14541.3
801.2238	254.6932	15311.15	14600.15
801.3664	256.9139	15254.75	14545.25
801.509	259.134	15282.3	14567.9
801.6516	261.3536	15312.8	14598.95
801.7942	263.5727	15378.65	14664
801.9369	265.7912	15359.8	14646.4
802.0795	268.0092	15396.4	14682.95
802.2222	270.2267	15402.5	14684.7
802.3649	272.4436	15402.5	14682.75
802.5076	274.6601	15447.7	14716.75
802.6504	276.8759	15401.3	14679.1
802.7931	279.0913	15452.7	14728.3
802.9359	281.3061	15478.85	14752.1
803.0787	283.5204	15468	14741.1
803.2215	285.7341	15501.45	14769.75
803.3643	287.9473	15556.7	14815.7
803.5071	290.16	15522.55	14788
803.6499	292.3721	15475.75	14746.6
803.7928	294.5837	15481.7	14751.35
803.9357	296.7947	15489.95	14759.15
804.0786	299.0052	15477.55	14745.7
804.2215	301.2152	15422.35	14686.1
804.3644	303.4246	15449.5	14719.5
804.5074	305.6334	15400.6	14667.75
804.6503	307.8418	15416.6	14678
804.7933	310.0495	15413.25	14675.6
804.9363	312.2568	15360.85	14624.05
805.0793	314.4635	15325.6	14582.55
805.2223	316.6696	15274.05	14527.45
805.3653	318.8752	15235.9	14481.6
805.5084	321.0802	15224.05	14478.05
805.6514	323.2847	15236.55	14487.85
805.7945	325.4887	15205.15	14456.8
805.9376	327.692	15195.25	14447.5
806.0807	329.8949	15244.05	14495
806.2238	332.0972	15248.2	14497.55
806.367	334.2989	15282.4	14527.35
806.5101	336.5001	15215.8	14461.4
806.6533	338.7007	15253	14497.8
806.7965	340.9008	15259.5	14503
806.9397	343.1003	15209.05	14449.3
807.0829	345.2992	15215.1	14454.85
807.2261	347.4976	15162.5	14398.65
807.3693	349.6955	15157.55	14394.9
807.5126	351.8927	15199.55	14432.8
807.6559	354.0895	15141.75	14366.2
807.7991	356.2856	15181.15	14412.7
807.9424	358.4812	15165.6	14399.75
808.0857	360.6763	15168.05	14398.65
808.2291	362.8707	15121.6	14350.45
808.3724	365.0646	15117.05	14343.5
808.5158	367.258	15070.1	14293.65
808.6591	369.4508	15089.4	14308.25
808.8025	371.643	15139.35	14362.2
808.9459	373.8346	15083.2	14303.35
809.0893	376.0257	15043.1	14260.3
809.2327	378.2162	15049.75	14264.95
809.3762	380.4062	15060.75	14276.2
809.5196	382.5956	15018.3	14236
809.6631	384.7844	14988.45	14212.5
809.8066	386.9726	14946.55	14170.4
809.9501	389.1603	14925.95	14150.75
810.0936	391.3474	14916.15	14108.1
810.2371	393.5339	14885.95	14106.25
810.3806	395.7199	14856.8	14077.7
810.5241	397.9052	14873.45	14096.75
810.6677	400.09	14855.2	14077.95
810.8113	402.2743	14879.2	14101.55
810.9548	404.4579	14861.6	14081.65
811.0984	406.641	14920.6	14138.05
811.2421	408.8235	14925.55	14140.7
811.3857	411.0054	14938.75	14154.5
811.5293	413.1868	15028.85	14241
811.673	415.3675	15045.8	14250.35
811.8166	417.5477	15072.15	14280.45
811.9603	419.7273	14984.5	14186.8
812.104	421.9064	14895.95	14094.4
812.2477	424.0848	14818.55	14021.65
812.3914	426.2627	14752.05	13954.95
812.5351	428.4399	14732.65	13932.65
812.6788	430.6166	14667.4	13865.05
812.8226	432.7928	14618.8	13815.85
812.9663	434.9683	14568.2	13765.3
813.1101	437.1432	14526.8	13720
813.2539	439.3176	14483.95	13683.2
813.3977	441.4914	14445	13642.4
813.5415	443.6645	14446.15	13644.2
813.6853	445.8371	14391.5	13585.95
813.8291	448.0091	14336.2	13531.15
813.973	450.1806	14290.6	13486
814.1168	452.3514	14238.5	13431.6
814.2607	454.5216	14232.1	13417.4
814.4046	456.6913	14176.35	13365.85
814.5485	458.8603	14171.55	13365.55
814.6924	461.0288	14195.4	13389.2
814.8363	463.1967	14157	13351.25
814.9802	465.3639	14155.5	13348.55
815.1241	467.5306	14098.9	13288.1
815.2681	469.6967	14103.95	13297.2
815.412	471.8622	14058	13249.65
815.556	474.0271	14055.45	13248.55
815.7	476.1914	14044.85	13232.65
815.844	478.3551	14002.15	13191.65
815.988	480.5182	14044.3	13232.45
816.132	482.6807	14033.15	13224.65
816.276	484.8426	14047.1	13236.05
816.4201	487.0039	14060.5	13252.15
816.5641	489.1647	14098.8	13284.1
816.7082	491.3248	14111.85	13297
816.8522	493.4843	14111.3	13301.3
816.9963	495.6432	14087.05	13273.25
817.1404	497.8015	14053.55	13235.35
817.2845	499.9592	14036.2	13217.3
817.4286	502.1163	14016	13193.4
817.5727	504.2728	13974.85	13153.1
817.7168	506.4287	14005.5	13189.4
817.861	508.5839	13929.4	13113.5
818.0051	510.7386	13949.9	13132.6
818.1493	512.8927	13940	13114.45
818.2935	515.0461	13944.35	13121.9
818.4377	517.199	13920.6	13095.7
818.5818	519.3512	13901	13078.55
818.726	521.5029	13941.8	13115.45
818.8703	523.6539	13946.4	13119.65
819.0145	525.8043	13972.7	13145.85
819.1587	527.9541	13922.05	13094.15
819.303	530.1033	13866.55	13037.75
819.4472	532.2519	13814.95	12987.35
819.5915	534.3999	13829.9	12998.4
819.7357	536.5472	13805.85	12977.1
819.88	538.694	13804.3	12978.45
820.0243	540.8401	13796.9	12967.55
820.1686	542.9856	13791.6	12958.15
820.3129	545.1305	13793.6	12956
820.4572	547.2748	13814.15	12977.15
820.6016	549.4185	13801.5	12966
820.7459	551.5615	13782.1	12944.95
820.8902	553.704	13797.25	12961.8
821.0346	555.8458	13760.75	12927.35
821.1789	557.987	13738.75	12905.05
821.3233	560.1276	13760.6	12924.8
821.4677	562.2675	13759.5	12926.15
821.6121	564.4069	13772.95	12938.35
821.7565	566.5456	13762.5	12928.4
821.9009	568.6837	13759.95	12923.25
822.0453	570.8212	13670.55	12838.4
822.1897	572.958	13647.95	12812.5
822.3342	575.0942	13593.1	12757.95
822.4786	577.2299	13547.95	12714.45
822.6231	579.3648	13503.75	12669.75
822.7675	581.4992	13427.25	12595.65
822.912	583.6329	13364.4	12536
823.0565	585.766	13384.5	12552.5
823.201	587.8985	13359.85	12526.5
823.3454	590.0304	13363.6	12517.25
823.4899	592.1616	13336.75	12496.5
823.6345	594.2922	13299.2	12455.8
823.779	596.4222	13273.95	12429
823.9235	598.5515	13223.45	12380.7
824.068	600.6802	13176.1	12331.2
824.2126	602.8083	13126.8	12281.55
824.3571	604.9358	13118.5	12273.5
824.5017	607.0626	13079.25	12235.35
824.6462	609.1888	13058.1	12210.9
824.7908	611.3144	13079.4	12232.1
824.9354	613.4393	13057.5	12212.05
825.08	615.5636	13061.45	12214.9
825.2246	617.6873	13053.8	12209
825.3692	619.8103	13050.05	12200.45
825.5138	621.9327	13007.35	12156.05
825.6584	624.0544	13005.05	12160.2
825.803	626.1756	12974.75	12127.1
825.9477	628.2961	12937.55	12088.9
826.0923	630.4159	12925.55	12077.4
826.237	632.5351	12924.6	12073.9
826.3816	634.6537	12915.05	12063.65
826.5263	636.7716	12916.05	12062.55
826.6709	638.8889	12888.05	12033.8
826.8156	641.0056	12894.85	12040.35
826.9603	643.1216	12866.75	12014.05
827.105	645.237	12891.05	12037.6
827.2497	647.3518	12837.8	11986.25
827.3944	649.4659	12829.9	11979
827.5391	651.5793	12825.1	11976.9
827.6838	653.6922	12781.8	11931.8
827.8285	655.8043	12762.1	11910.5
827.9733	657.9159	12754.4	11902.6
828.118	660.0268	12708.55	11851.55
828.2627	662.137	12710.65	11855.95
828.4075	664.2466	12677.35	11820.5
828.5522	666.3556	12683.95	11826.05
828.697	668.4639	12649.95	11790.7
828.8418	670.5716	12620.8	11768.85
828.9865	672.6786	12617	11762
829.1313	674.785	12577.05	11717.75
829.2761	676.8907	12563.4	11704.95
829.4209	678.9958	12560.15	11704.95
829.5657	681.1002	12520.3	11663.45
829.7105	683.204	12496.2	11630.95
829.8553	685.3072	12487.8	11628.35
830.0001	687.4097	12478.1	11618.45
830.1449	689.5115	12439.3	11576.45
830.2898	691.6127	12453.1	11596.35
830.4346	693.7132	12439.7	11582.75
830.5794	695.8131	12464.35	11590.15
830.7243	697.9123	12417.35	11556.8
830.8691	700.0109	12399.7	11534.1
831.014	702.1089	12413.85	11551.8
831.1588	704.2061	12384	11522.1
831.3037	706.3028	12363.95	11498.05
831.4486	708.3987	12387.5	11521.75
831.5935	710.4941	12335.9	11472.25
831.7383	712.5887	12326.55	11464.65
831.8832	714.6827	12335.2	11467.15
832.0281	716.7761	12349.1	11485.7
832.173	718.8688	12331.95	11466.15
832.3179	720.9608	12271.3	11403.55
832.4628	723.0522	12292.35	11418.75
832.6077	725.1429	12314.65	11449.9
832.7527	727.233	12334.9	11469.25
832.8976	729.3224	12320.85	11454.35
833.0425	731.4112	12316.95	11449.55
833.1874	733.4993	12295.55	11425.4
833.3324	735.5867	12278.9	11408.9
833.4773	737.6735	12218.15	11347.5
833.6222	739.7596	12180.9	11311.4
833.7672	741.845	12143.4	11277.6
833.9122	743.9298	12123.05	11254
834.0571	746.014	12100.85	11237.05
834.2021	748.0974	12111.25	11238.45
834.347	750.1802	12078.6	11206.55
834.492	752.2624	12033.3	11163.15
834.637	754.3439	11976.05	11102.8
834.782	756.4247	11948.4	11068.4
834.9269	758.5048	11886.8	11017.35
835.0719	760.5843	11892.8	11019.55
835.2169	762.6631	11856.1	10983.65
835.3619	764.7413	11890.05	11020.95
835.5069	766.8188	11884.45	11009.95
835.6519	768.8956	11868.25	10993.25
835.7969	770.9718	11888.85	11017.35
835.9419	773.0473	11839.65	10969.2
836.0869	775.1221	11790.1	10920.25
836.232	777.1962	11788.3	10917.05
836.377	779.2697	11767	10890.7
836.522	781.3426	11786.7	10894.65
836.667	783.4147	11823.2	10946.25
836.8121	785.4862	11789.1	10916.2
836.9571	787.557	11711.8	10835.65
837.1021	789.6271	11683.2	10807.25
837.2472	791.6966	11579.4	10705.25
837.3922	793.7654	11510.4	10637.1
837.5373	795.8335	11513.7	10639.9
837.6823	797.901	11470.35	10597.6
837.8274	799.9678	11445.7	10569.6
837.9724	802.0339	11426.65	10549.75
838.1175	804.0993	11406.5	10517.85
838.2626	806.1641	11371.7	10495.6
838.4076	808.2282	11358.55	10480.45
838.5527	810.2916	11355.9	10476.8
838.6978	812.3544	11329.9	10455.3
838.8428	814.4164	11301.5	10428.05
838.9879	816.4778	11327.95	10447.85
839.133	818.5385	11278.9	10403.15
839.2781	820.5986	11285.4	10405.75
839.4232	822.658	11278.9	10401.2
839.5682	824.7166	11253.25	10374.75
839.7133	826.7747	11317.25	10440.65
839.8584	828.832	11338.25	10460.2
840.0035	830.8886	11320.5	10442.05
840.1486	832.9446	11292.45	10411.75
840.2937	834.9999	11269.2	10391.45
840.4388	837.0545	11242.85	10361.35
840.5839	839.1085	11219.4	10339.7
840.729	841.1618	11143.6	10259.95
840.8741	843.2143	11134.5	10255.1
841.0192	845.2662	11038.65	10160.5
841.1643	847.3175	11033.6	10153.1
841.3095	849.368	10989.6	10109.15
841.4546	851.4179	11004.45	10125.95
841.5997	853.467	10945.25	10064.5
841.7448	855.5155	10966.55	10086.75
841.8899	857.5633	10937.7	10057.6
842.0351	859.6105	10896.65	10014.85
842.1802	861.6569	10892.9	10010.5
842.3253	863.7027	10876.25	9993.2
842.4704	865.7478	10883.65	10001.6
842.6156	867.7922	10851.45	9967.25
842.7607	869.8359	10824.65	9942.45
842.9058	871.8789	10820.9	9937.8
843.0509	873.9212	10823.55	9909.6
843.1961	875.9629	10740.6	9856.15
843.3412	878.0039	10787.2	9902.45
843.4863	880.0441	10769.2	9888.05
843.6315	882.0837	10745.4	9860.15
843.7766	884.1226	10757.75	9878.55
843.9218	886.1609	10766.3	9884.85
844.0669	888.1984	10776.75	9893
844.212	890.2352	10813.3	9929.85
844.3572	892.2714	10773.85	9887.4
844.5023	894.3069	10760.35	9875.75
844.6475	896.3416	10709.35	9826.3
844.7926	898.3757	10708.3	9823.3
844.9377	900.4091	10657.4	9769.9
845.0829	902.4418	10657.85	9769.15
845.228	904.4739	10610.15	9722.1
845.3732	906.5052	10619.35	9733.35
845.5183	908.5358	10579.85	9693.95
845.6635	910.5658	10602.45	9716.55
845.8086	912.595	10554.25	9666.7
845.9538	914.6236	10544.4	9660.35
846.0989	916.6515	10502.4	9615.55
846.2441	918.6786	10459.85	9572.25
846.3892	920.7051	10444.75	9557.6
846.5344	922.7309	10447.5	9560.35
846.6795	924.756	10406.8	9520.4
846.8246	926.7804	10412.85	9526
846.9698	928.8041	10344.75	9456
847.1149	930.8272	10360.1	9475.9
847.2601	932.8495	10310.1	9421.1
847.4052	934.8711	10311.65	9423.2
847.5504	936.892	10269.95	9381.35
847.6955	938.9123	10240.75	9351.75
847.8407	940.9318	10269.8	9380
847.9858	942.9506	10219.45	9330.6
848.131	944.9688	10166.45	9280.9
848.2761	946.9862	10152.3	9263.6
848.4213	949.003	10092.95	9204.6
848.5664	951.019	10070	9180.2
848.7115	953.0344	10016.7	9128.35
848.8567	955.0491	10022.3	9130.75
849.0018	957.063	10026.7	9136.05
849.147	959.0763	10015.5	9125.2
849.2921	961.0888	9965.15	9074.1
849.4373	963.1007	9961.45	9072.6
849.5824	965.1119	9989.75	9104.95
849.7275	967.1223	9921	9035.45
849.8727	969.1321	9920.25	9034.05
850.0178	971.1412	9921.4	9032.85
850.1629	973.1495	9891.8	9004.2
850.3081	975.1572	9879.4	8959.15
850.4532	977.1641	9844.95	8957.8
850.5983	979.1704	9841	8950.7
850.7435	981.1759	9794.75	8900.35
850.8886	983.1808	9810.75	8921.8
851.0337	985.1849	9774.3	8873.8
851.1788	987.1884	9761.5	8869
851.324	989.1911	9743	8852.85
851.4691	991.1932	9699.85	8805.7
851.6142	993.1945	9688.55	8798.85
851.7593	995.1951	9634.2	8744.55
851.9045	997.1951	9645.7	8749.45
852.0496	999.1943	9596.05	8706
852.1947	1001.1928	9587.85	8696.75
852.3398	1003.1906	9520.2	8629.95
852.4849	1005.1877	9517.9	8626.95
852.63	1007.1841	9489.25	8599.1
852.7751	1009.1798	9453.55	8564.5
852.9202	1011.1748	9433.2	8543.95
853.0653	1013.1691	9405.25	8511.8
853.2104	1015.1627	9373.25	8480.65
853.3555	1017.1556	9299.7	8409.3
853.5006	1019.1477	9266.45	8374.15
853.6457	1021.1392	9218.6	8330.25
853.7908	1023.1299	9178.45	8289.85
853.9359	1025.12	9159.5	8272.55
854.081	1027.1093	9106.15	8224.25
854.2261	1029.0979	9104.1	8221.65
854.3712	1031.0859	9075.7	8190.5
854.5163	1033.0731	9081.55	8194.25
854.6613	1035.0596	9044.8	8158.65
854.8064	1037.0454	8991.65	8101
854.9515	1039.0304	8982.05	8092.45
855.0965	1041.0148	8935.25	8045.55
855.2416	1042.9985	8898.8	8006.65
855.3867	1044.9814	8910.65	8022
855.5317	1046.9636	8842.25	7948.35
855.6768	1048.9452	8810.55	7919.2
855.8219	1050.926	8825.75	7936.45
855.9669	1052.9061	8798.5	7909.4
856.112	1054.8855	8793.65	7900.45
856.257	1056.8642	8785	7891.9
856.4021	1058.8421	8788.05	7895
856.5471	1060.8194	8736.45	7843.7
856.6921	1062.7959	8710.15	7817.7
856.8372	1064.7717	8705.4	7811.5
856.9822	1066.7469	8670.1	7773.35
857.1272	1068.7213	8663.7	7768.75
857.2723	1070.695	8664.8	7773.15
857.4173	1072.6679	8616.15	7723.7
857.5623	1074.6402	8652.45	7757.75
857.7073	1076.6117	8637.8	7738.25
857.8523	1078.5826	8620	7727.1
857.9973	1080.5527	8602.8	7709.15
858.1423	1082.5221	8548.35	7658
858.2873	1084.4908	8506.9	7615.5
858.4323	1086.4587	8481.15	7587.1
858.5773	1088.426	8442.95	7551
858.7223	1090.3925	8432.55	7535.25
858.8673	1092.3584	8424.65	7535.05
859.0123	1094.3235	8403.4	7511.5
859.1573	1096.2879	8393.9	7498.25
859.3022	1098.2515	8378.25	7485.05
859.4472	1100.2145	8385	7494.6
859.5922	1102.1767	8374.7	7479.05
859.7371	1104.1382	8371.15	7479.25
859.8821	1106.099	8380.8	7484.45
860.027	1108.0591	8360.8	7468.9
860.172	1110.0185	8361.85	7467.2
860.3169	1111.9771	8382.5	7491.3
860.4619	1113.9351	8359.2	7468.15
860.6068	1115.8923	8358.05	7466.8
860.7517	1117.8488	8343.35	7448.55
860.8967	1119.8045	8277.8	7386
861.0416	1121.7596	8245.6	7349.7
861.1865	1123.7139	8183.3	7288.95
861.3314	1125.6675	8141.9	7247.55
861.4763	1127.6204	8145.95	7254.3
861.6212	1129.5726	8116.15	7222.15
861.7661	1131.524	8135.5	7241.35
861.911	1133.4748	8119.5	7226.9
862.0559	1135.4248	8039.95	7146.8
862.2008	1137.3741	8027.5	7134.45
862.3457	1139.3226	7982.4	7089
862.4905	1141.2705	8004.3	7108.8
862.6354	1143.2176	7939.95	7042.05
862.7803	1145.164	7957.5	7060.9
862.9251	1147.1097	7959.05	7065.05
863.07	1149.0546	7912.65	7018.4
863.2148	1150.9989	7920.95	7027.2
863.3597	1152.9424	7890.9	6997.4
863.5045	1154.8852	7858.25	6963.75
863.6493	1156.8272	7828	6934.2
863.7942	1158.7686	7850.25	6949.45
863.939	1160.7092	7819.2	6923.05
864.0838	1162.6491	7786.35	6889.55
864.2286	1164.5883	7802.2	6908.15
864.3734	1166.5267	7801.95	6904.35
864.5182	1168.4644	7787.8	6893.7
864.663	1170.4014	7821.3	6922.5
864.8078	1172.3377	7814.2	6921.3
864.9526	1174.2732	7810.55	6916.4
865.0974	1176.2081	7833.5	6939.75
865.2421	1178.1421	7899.45	7001.2
865.3869	1180.0755	7913.35	7018.4
865.5317	1182.0082	7912.45	7018.1
865.6764	1183.9401	7913.4	7020.55
865.8212	1185.8713	7831.25	6940.3
865.9659	1187.8017	7766.1	6876.05
866.1106	1189.7315	7712.15	6824.4
866.2554	1191.6605	7621.8	6733
866.4001	1193.5888	7605.9	6716.05
866.5448	1195.5163	7564.8	6672.1
866.6895	1197.4432	7552.2	6657.3
866.8342	1199.3693	7522.45	6627.7
