Software Version:	3.9.2.0
Unit SN:	10000200
Spectrometer SN:	6960
Date:	3/6/2024 9:29:57 AM
Data Line Index:	25
Spectral Points:	2048
Integration time (ms):	125
Averages:	20
Delay (ms):	30
Sequence Number:	1
Processing:	dark subtract
Laser Power (mW):	305
Laser Current (mA):	822
Laser Diode Temp (C):	25.1
Laser Case Temp (C):	23.4
System Temp (C):	23.2
Spectrometer Temp (C):	20.9
CCD Temp (C):	-0.01
Secondary Temp (C):	20.014
Heatsink Temp (C):	17.628
CCDPCB Temp (C):	30.06
SecondaryPCB Temp (C):	25.347

Wavelength	RamanShift	Raw Counts	Dark Subtracted
787.061	30.1047	517.6	111.55
787.2016	32.3739	521.2	115.15
787.3422	34.6426	529.3	124.35
787.4828	36.9109	534.6	126.2
787.6235	39.1787	547.05	135.5
787.7642	41.4461	558.3	141.65
787.9049	43.7131	570.95	150.25
788.0456	45.9796	582.45	160.95
788.1863	48.2456	596.3	172.35
788.3271	50.5112	613.4	182.9
788.4679	52.7764	626.4	195.45
788.6087	55.0411	638	200.8
788.7496	57.3054	654.85	211.9
788.8904	59.5692	665.7	221.15
789.0313	61.8326	685.25	239.3
789.1722	64.0955	707.85	258.4
789.3132	66.3579	727.55	272.65
789.4541	68.6199	763.3	304.05
789.5951	70.8815	814.5	351.4
789.7361	73.1426	927.35	460.8
789.8771	75.4032	1209.75	741.85
790.0181	77.6634	1906.7	1434.8
790.1592	79.9231	3568.8	3093.5
790.3003	82.1824	7251.85	6770.15
790.4414	84.4412	13699.35	13208.75
790.5825	86.6995	22375.15	21876.9
790.7237	88.9574	30750.1	30244.65
790.8648	91.2148	36680.2	36170.35
791.006	93.4717	39778.55	39264.1
791.1472	95.7282	41152.5	40635.25
791.2885	97.9842	41847.2	41328.05
791.4297	100.2398	42152.45	41629.9
791.571	102.4949	42112.05	41587.7
791.7123	104.7495	42350.75	41820.7
791.8536	107.0036	42199.1	41667.95
791.9949	109.2573	42601.1	42072.65
792.1363	111.5105	42311.1	41778.8
792.2777	113.7632	42579.45	42044.1
792.4191	116.0154	42684.2	42139.75
792.5605	118.2672	43014.45	42475.05
792.7019	120.5185	42958.55	42417.6
792.8434	122.7693	43033.8	42489.75
792.9849	125.0197	43072.5	42524.55
793.1264	127.2696	43336.2	42784.85
793.2679	129.519	43531.05	42975.85
793.4094	131.7679	43851.7	43296.9
793.551	134.0163	43197.25	42637.15
793.6926	136.2642	43594.75	43032.7
793.8342	138.5117	43936.4	43371.8
793.9758	140.7587	43924.05	43358.1
794.1175	143.0052	44026.05	43457.8
794.2591	145.2512	43718.45	43148.05
794.4008	147.4967	44057.65	43486.65
794.5425	149.7417	43952.55	43377.85
794.6842	151.9863	44029.75	43450.75
794.826	154.2304	43687.65	43105.5
794.9677	156.4739	43898.5	43309.15
795.1095	158.717	44094.65	43506.85
795.2513	160.9596	44088.4	43497.1
795.3931	163.2017	43853.85	43260.55
795.535	165.4433	44154.95	43556.35
795.6768	167.6844	44011.9	43411.2
795.8187	169.925	44187.1	43583.85
795.9606	172.1651	44125.4	43520.4
796.1025	174.4047	44046.05	43434.4
796.2445	176.6439	44151.85	43539.85
796.3864	178.8825	44192.95	43579.25
796.5284	181.1206	44340.25	43721.45
796.6704	183.3582	44424.15	43802.1
796.8124	185.5954	44187.15	43563.25
796.9544	187.832	44429.25	43802
797.0965	190.0681	44402.45	43771.85
797.2386	192.3037	44649.45	44016.65
797.3806	194.5388	45046.6	44410.3
797.5228	196.7734	44472.6	43833.9
797.6649	199.0075	44918.4	44280.6
797.807	201.2411	45071.45	44429.65
797.9492	203.4742	45256.9	44612.7
798.0914	205.7068	45408.95	44762.95
798.2336	207.9389	45423.15	44774.15
798.3758	210.1704	45372.75	44734.25
798.518	212.4015	45669.45	45038.3
798.6603	214.632	45343	44718.5
798.8025	216.862	45724.4	45099.55
798.9448	219.0915	45825.45	45198
799.0871	221.3205	45671.7	45043.45
799.2294	223.549	45947.75	45320
799.3718	225.777	46008.4	45382.05
799.5141	228.0044	46086.65	45450.85
799.6565	230.2314	46190.6	45557.55
799.7989	232.4578	46122.7	45483.4
799.9413	234.6837	46155.15	45507.6
800.0837	236.909	46647.95	45995.7
800.2262	239.1339	46062.25	45390.15
800.3687	241.3582	46404.25	45744.5
800.5111	243.582	46346.8	45657.8
800.6536	245.8053	46503.5	45826.7
800.7961	248.0281	46457.1	45785.75
800.9387	250.2503	46573.35	45897.05
801.0812	252.472	46521.35	45841.5
801.2238	254.6932	46600.9	45924.25
801.3664	256.9139	46560.2	45881.75
801.509	259.134	46953.1	46269.3
801.6516	261.3536	46381.05	45699.75
801.7942	263.5727	46900.6	46218.6
801.9369	265.7912	46720.15	46036.8
802.0795	268.0092	46803.75	46121.8
802.2222	270.2267	46821.7	46140.05
802.3649	272.4436	46795.75	46108.1
802.5076	274.6601	46907.3	46209.95
802.6504	276.8759	46925.55	46231.4
802.7931	279.0913	47031	46336.8
802.9359	281.3061	46907.05	46212.55
803.0787	283.5204	47127.55	46431.4
803.2215	285.7341	47103.55	46403.2
803.3643	287.9473	47361.05	46651.85
803.5071	290.16	47139.7	46435.45
803.6499	292.3721	47493.95	46797.75
803.7928	294.5837	46900.35	46200
803.9357	296.7947	46868.05	46171.45
804.0786	299.0052	47080.7	46381.9
804.2215	301.2152	46937	46235.75
804.3644	303.4246	47238.35	46538.7
804.5074	305.6334	47132.25	46429.15
804.6503	307.8418	46930.25	46223.35
804.7933	310.0495	47044.2	46338.6
804.9363	312.2568	46946.35	46242.2
805.0793	314.4635	46820.45	46112
805.2223	316.6696	46811.25	46098.6
805.3653	318.8752	46928.25	46205.35
805.5084	321.0802	46382.15	45668.15
805.6514	323.2847	46604.45	45888.15
805.7945	325.4887	46597.4	45882.55
805.9376	327.692	46439.2	45721.85
806.0807	329.8949	46696.75	45976.9
806.2238	332.0972	46658.75	45938.05
806.367	334.2989	46786	46061.7
806.5101	336.5001	46847.9	46121.6
806.6533	338.7007	46628.55	45903.3
806.7965	340.9008	46788.7	46063.3
806.9397	343.1003	46743.9	46012.4
807.0829	345.2992	46811.95	46083.05
807.2261	347.4976	46649.6	45916.6
807.3693	349.6955	46681.95	45946.2
807.5126	351.8927	46713.05	45976.05
807.6559	354.0895	46673.4	45926.05
807.7991	356.2856	46657.75	45920.6
807.9424	358.4812	46750.8	46013.75
808.0857	360.6763	46654	45912.65
808.2291	362.8707	46603.5	45862.3
808.3724	365.0646	46631.15	45885.55
808.5158	367.258	46593.85	45845.2
808.6591	369.4508	46438.3	45687.55
808.8025	371.643	46536.8	45787.2
808.9459	373.8346	46449.65	45697.45
809.0893	376.0257	46405.05	45648.25
809.2327	378.2162	46374.05	45620.75
809.3762	380.4062	46375.15	45619.7
809.5196	382.5956	46282.9	45531.65
809.6631	384.7844	46330.05	45582.8
809.8066	386.9726	46157.5	45411.55
809.9501	389.1603	46187.9	45446.15
810.0936	391.3474	46032.95	45241.75
810.2371	393.5339	46177.7	45429.95
810.3806	395.7199	45892.55	45145.75
810.5241	397.9052	45911.75	45164
810.6677	400.09	45871.2	45122.55
810.8113	402.2743	45897.65	45149.6
810.9548	404.4579	45914.85	45164.6
811.0984	406.641	45884.9	45130.7
811.2421	408.8235	45990.7	45234.95
811.3857	411.0054	45968.8	45209.55
811.5293	413.1868	46037.35	45274.15
811.673	415.3675	46015.05	45248.3
811.8166	417.5477	46047.8	45283.05
811.9603	419.7273	45948	45180.35
812.104	421.9064	45811.7	45036.45
812.2477	424.0848	45703.8	44935.2
812.3914	426.2627	45666.85	44895.1
812.5351	428.4399	45482.15	44710.5
812.6788	430.6166	45365.8	44588.85
812.8226	432.7928	45314.65	44537.35
812.9663	434.9683	45135.5	44357.65
813.1101	437.1432	45135.75	44356.65
813.2539	439.3176	44971.05	44194.75
813.3977	441.4914	44791.55	44015.15
813.5415	443.6645	44769.2	43990.2
813.6853	445.8371	44668.1	43889.45
813.8291	448.0091	44419.6	43642.3
813.973	450.1806	44383.4	43605.25
814.1168	452.3514	44197.8	43416.25
814.2607	454.5216	44263.6	43471.75
814.4046	456.6913	44020.9	43235.65
814.5485	458.8603	44104.55	43323.25
814.6924	461.0288	44118.7	43338.4
814.8363	463.1967	43986	43203.25
814.9802	465.3639	44074.6	43289.9
815.1241	467.5306	43881.6	43097.75
815.2681	469.6967	43833.45	43047.9
815.412	471.8622	43703	42917.65
815.556	474.0271	43734.75	42949.9
815.7	476.1914	43691.15	42903.9
815.844	478.3551	43700.8	42913.45
815.988	480.5182	43715.15	42927
816.132	482.6807	43739.6	42953
816.276	484.8426	43724.7	42937.95
816.4201	487.0039	43809.4	43021.35
816.5641	489.1647	43825.15	43035.4
816.7082	491.3248	43859.9	43068.2
816.8522	493.4843	43849.15	43056.95
816.9963	495.6432	43853.05	43061.05
817.1404	497.8015	43645.5	42850.9
817.2845	499.9592	43719.65	42925.55
817.4286	502.1163	43676.4	42880.55
817.5727	504.2728	43458.15	42660.35
817.7168	506.4287	43591.6	42798.4
817.861	508.5839	43489.95	42694.3
818.0051	510.7386	43467.8	42672.8
818.1493	512.8927	43429.8	42624.05
818.2935	515.0461	43460.2	42660.25
818.4377	517.199	43432.85	42635.3
818.5818	519.3512	43411.35	42612.35
818.726	521.5029	43402.8	42597.55
818.8703	523.6539	43426.2	42624.9
819.0145	525.8043	43323.05	42520.2
819.1587	527.9541	43317.35	42512.85
819.303	530.1033	43256.35	42453.4
819.4472	532.2519	43106.7	42302.7
819.5915	534.3999	43054.45	42249.05
819.7357	536.5472	43025.1	42222.95
819.88	538.694	42998.95	42195.15
820.0243	540.8401	43074.95	42267.75
820.1686	542.9856	43069.75	42265.15
820.3129	545.1305	43012.7	42205.5
820.4572	547.2748	43055.35	42247.75
820.6016	549.4185	42977.5	42168.3
820.7459	551.5615	42857.75	42049.35
820.8902	553.704	42913.05	42104.75
821.0346	555.8458	42788.45	41980.25
821.1789	557.987	42869.15	42059.65
821.3233	560.1276	42834.65	42024.65
821.4677	562.2675	42837.95	42027.2
821.6121	564.4069	42839	42029.3
821.7565	566.5456	42720.35	41910.6
821.9009	568.6837	42704.15	41891.6
822.0453	570.8212	42513.85	41702.85
822.1897	572.958	42430.4	41615.95
822.3342	575.0942	42327.85	41517.85
822.4786	577.2299	42193.3	41379.45
822.6231	579.3648	42103.7	41289.35
822.7675	581.4992	41868.65	41054.2
822.912	583.6329	41782.4	40967.2
823.0565	585.766	41744.6	40931.1
823.201	587.8985	41672.15	40859.45
823.3454	590.0304	41609.15	40781.4
823.4899	592.1616	41514.8	40694.15
823.6345	594.2922	41492.15	40673.8
823.779	596.4222	41335.05	40515.8
823.9235	598.5515	41248.8	40428.45
824.068	600.6802	41108.35	40288.5
824.2126	602.8083	40907	40088.4
824.3571	604.9358	40920.75	40099.15
824.5017	607.0626	40831.75	40011.05
824.6462	609.1888	40764.8	39942.6
824.7908	611.3144	40711.1	39887.15
824.9354	613.4393	40667.35	39844.6
825.08	615.5636	40654.7	39832.65
825.2246	617.6873	40654.3	39830.65
825.3692	619.8103	40706.85	39882.1
825.5138	621.9327	40524.75	39698.05
825.6584	624.0544	40556.5	39733.9
825.803	626.1756	40530.45	39706.95
825.9477	628.2961	40433.15	39610
826.0923	630.4159	40283.75	39460.15
826.237	632.5351	40371.5	39546.3
826.3816	634.6537	40233.15	39408.7
826.5263	636.7716	40180.15	39352.7
826.6709	638.8889	40211.55	39384.1
826.8156	641.0056	40283.35	39456.8
826.9603	643.1216	40162.7	39331.15
827.105	645.237	40191.75	39361.3
827.2497	647.3518	40039.75	39210.95
827.3944	649.4659	40057.75	39228.9
827.5391	651.5793	39998.95	39168.3
827.6838	653.6922	39892.35	39064.7
827.8285	655.8043	39875.75	39046.7
827.9733	657.9159	39872.45	39040.9
828.118	660.0268	39755.15	38920.1
828.2627	662.137	39615.35	38781.85
828.4075	664.2466	39614.1	38776.2
828.5522	666.3556	39587.1	38755.2
828.697	668.4639	39455	38617.6
828.8418	670.5716	39495.2	38661.95
828.9865	672.6786	39450.15	38614.05
829.1313	674.785	39335.2	38498.45
829.2761	676.8907	39214.3	38379.4
829.4209	678.9958	39160.75	38323.55
829.5657	681.1002	39082.35	38246.05
829.7105	683.204	39018	38176
829.8553	685.3072	38988.15	38150.85
830.0001	687.4097	38883.05	38046
830.1449	689.5115	38869.4	38027.5
830.2898	691.6127	38867.1	38030.7
830.4346	693.7132	38791.1	37954.5
830.5794	695.8131	38854.3	37995.45
830.7243	697.9123	38765.55	37925.1
830.8691	700.0109	38699.1	37860.2
831.014	702.1089	38689.55	37852.05
831.1588	704.2061	38630.55	37790.8
831.3037	706.3028	38637.45	37796.95
831.4486	708.3987	38646.25	37804.95
831.5935	710.4941	38542	37700.45
831.7383	712.5887	38498.2	37656.6
831.8832	714.6827	38441.3	37597.8
832.0281	716.7761	38408.9	37568.05
832.173	718.8688	38336.15	37490.1
832.3179	720.9608	38286.75	37439.35
832.4628	723.0522	38332	37484
832.6077	725.1429	38225.25	37380.7
832.7527	727.233	38192.35	37349.95
832.8976	729.3224	38223.85	37380.6
833.0425	731.4112	38168.4	37324
833.1874	733.4993	38044.05	37196.4
833.3324	735.5867	37940.5	37095.6
833.4773	737.6735	37911.15	37062.05
833.6222	739.7596	37793.95	36947.4
833.7672	741.845	37734.55	36888.9
833.9122	743.9298	37628.7	36779.6
834.0571	746.014	37568.05	36724.05
834.2021	748.0974	37484.7	36635.9
834.347	750.1802	37407.9	36557.5
834.492	752.2624	37275.95	36428.95
834.637	754.3439	37172.35	36322.3
834.782	756.4247	37049.8	36194.7
834.9269	758.5048	36897.3	36049.05
835.0719	760.5843	36814.05	35965
835.2169	762.6631	36735.7	35885.4
835.3619	764.7413	36716.65	35867.2
835.5069	766.8188	36752.85	35903.05
835.6519	768.8956	36627.5	35775.25
835.7969	770.9718	36732.5	35882.25
835.9419	773.0473	36541.05	35693.15
836.0869	775.1221	36489.3	35637.6
836.232	777.1962	36371.85	35522.05
836.377	779.2697	36288.35	35437.8
836.522	781.3426	36306.35	35443.45
836.667	783.4147	36268.75	35415.05
836.8121	785.4862	36197.45	35347.8
836.9571	787.557	36081.45	35229.6
837.1021	789.6271	35971.75	35121.55
837.2472	791.6966	35830.95	34977.5
837.3922	793.7654	35643.2	34789.6
837.5373	795.8335	35642.45	34789.15
837.6823	797.901	35463.85	34610.6
837.8274	799.9678	35416.85	34562.55
837.9724	802.0339	35361.1	34508.2
838.1175	804.0993	35343.05	34480.9
838.2626	806.1641	35245.1	34389.1
838.4076	808.2282	35102.55	34250
838.5527	810.2916	35148.5	34292.85
838.6978	812.3544	35043.1	34191.35
838.8428	814.4164	34936.6	34084.95
838.9879	816.4778	35033.55	34179.8
839.133	818.5385	34901.95	34047.95
839.2781	820.5986	34943.75	34090.1
839.4232	822.658	34863.95	34006.85
839.5682	824.7166	34782.45	33924.4
839.7133	826.7747	34941.35	34086.85
839.8584	828.832	34858.75	34003.6
840.0035	830.8886	34727.85	33868.6
840.1486	832.9446	34713.05	33854.1
840.2937	834.9999	34629.6	33775
840.4388	837.0545	34520.6	33659.25
840.5839	839.1085	34424	33567.5
840.729	841.1618	34361.8	33500.95
840.8741	843.2143	34253.6	33396.05
841.0192	845.2662	34129.8	33271.05
841.1643	847.3175	34093.95	33237
841.3095	849.368	33978.75	33120.1
841.4546	851.4179	33924.8	33065.1
841.5997	853.467	33732.75	32875.15
841.7448	855.5155	33763.65	32904.05
841.8899	857.5633	33658.6	32800.15
842.0351	859.6105	33602.45	32743.45
842.1802	861.6569	33523.85	32665
842.3253	863.7027	33489.1	32629.5
842.4704	865.7478	33505.3	32645.9
842.6156	867.7922	33423.5	32562.7
842.7607	869.8359	33341.2	32481.2
842.9058	871.8789	33333.1	32472.95
843.0509	873.9212	33291.1	32399.3
843.1961	875.9629	33114.35	32254.5
843.3412	878.0039	33136.1	32273.35
843.4863	880.0441	33086	32226.35
843.6315	882.0837	33053.75	32191.2
843.7766	884.1226	33044.55	32182.6
843.9218	886.1609	32981.7	32121
844.0669	888.1984	32983.9	32122.55
844.212	890.2352	33050.05	32191.4
844.3572	892.2714	32985.15	32119.65
844.5023	894.3069	33028.25	32165.4
844.6475	896.3416	32816.8	31953.55
844.7926	898.3757	32793.6	31930.2
844.9377	900.4091	32725.85	31860.95
845.0829	902.4418	32630.75	31763.45
845.228	904.4739	32491.65	31625.4
845.3732	906.5052	32519.9	31654.65
845.5183	908.5358	32473.25	31612.35
845.6635	910.5658	32376.2	31511.05
845.8086	912.595	32274.35	31410.4
845.9538	914.6236	32113.45	31251.05
846.0989	916.6515	32151.4	31286.55
846.2441	918.6786	32012.6	31145.2
846.3892	920.7051	32006.3	31139.1
846.5344	922.7309	32019.95	31155.9
846.6795	924.756	31796.9	30931.05
846.8246	926.7804	31819.2	30952.05
846.9698	928.8041	31635.9	30769.1
847.1149	930.8272	31652.85	30786.15
847.2601	932.8495	31467.15	30601.1
847.4052	934.8711	31500.15	30634.9
847.5504	936.892	31337.95	30472
847.6955	938.9123	31275.35	30406.7
847.8407	940.9318	31204.45	30338.25
847.9858	942.9506	31178.2	30311.15
848.131	944.9688	31029.95	30164.5
848.2761	946.9862	30916.65	30050.9
848.4213	949.003	30766.75	29899.15
848.5664	951.019	30705.4	29838.5
848.7115	953.0344	30572.3	29703.7
848.8567	955.0491	30542.65	29674.15
849.0018	957.063	30534.65	29665.65
849.147	959.0763	30560.25	29696.2
849.2921	961.0888	30389.1	29519.65
849.4373	963.1007	30388.7	29521.7
849.5824	965.1119	30299.7	29432.25
849.7275	967.1223	30205.35	29337.1
849.8727	969.1321	30237.35	29369.1
850.0178	971.1412	30200.4	29331.8
850.1629	973.1495	30075.45	29207.3
850.3081	975.1572	30024.45	29110.95
850.4532	977.1641	30038.4	29169.4
850.5983	979.1704	29909.85	29039.25
850.7435	981.1759	29853.25	28981.3
850.8886	983.1808	29846.75	28974.85
851.0337	985.1849	29697.75	28821.2
851.1788	987.1884	29622.2	28751.8
851.324	989.1911	29581.45	28711.3
851.4691	991.1932	29473	28602.95
851.6142	993.1945	29359.8	28490.25
851.7593	995.1951	29182	28309.9
851.9045	997.1951	29231.6	28355.9
852.0496	999.1943	29061	28190.95
852.1947	1001.1928	28960.5	28089.65
852.3398	1003.1906	28804.3	27933.6
852.4849	1005.1877	28779.8	27908.25
852.63	1007.1841	28652.9	27782.7
852.7751	1009.1798	28552.75	27682.7
852.9202	1011.1748	28484.8	27611.7
853.0653	1013.1691	28414.35	27542.45
853.2104	1015.1627	28278.6	27408.95
853.3555	1017.1556	28093.75	27223.4
853.5006	1019.1477	28057.25	27183.25
853.6457	1021.1392	27878.2	27005.2
853.7908	1023.1299	27721.45	26851.05
853.9359	1025.12	27611.35	26740.05
854.081	1027.1093	27522.4	26654.75
854.2261	1029.0979	27449.9	26583.15
854.3712	1031.0859	27340.15	26470.15
854.5163	1033.0731	27314.95	26442.85
854.6613	1035.0596	27216.85	26347.4
854.8064	1037.0454	27093.45	26223.95
854.9515	1039.0304	27015.8	26144.45
855.0965	1041.0148	26907.65	26035.6
855.2416	1042.9985	26799.2	25926.6
855.3867	1044.9814	26792.8	25923.05
855.5317	1046.9636	26665.5	25792.3
855.6768	1048.9452	26551.25	25680.15
855.8219	1050.926	26516.35	25643.8
855.9669	1052.9061	26457.3	25587.45
856.112	1054.8855	26382.05	25510.15
856.257	1056.8642	26352.95	25480.1
856.4021	1058.8421	26321.1	25443.05
856.5471	1060.8194	26202.9	25329
856.6921	1062.7959	26137.8	25264.85
856.8372	1064.7717	26104.95	25230.75
856.9822	1066.7469	26017.55	25143.25
857.1272	1068.7213	25981.3	25106.95
857.2723	1070.695	25935.75	25064
857.4173	1072.6679	25809.85	24934.7
857.5623	1074.6402	25806.2	24932.85
857.7073	1076.6117	25796.4	24915.55
857.8523	1078.5826	25760.8	24886.8
857.9973	1080.5527	25630.1	24751.4
858.1423	1082.5221	25518.45	24644.8
858.2873	1084.4908	25491.2	24616.45
858.4323	1086.4587	25386.6	24508.9
858.5773	1088.426	25336.75	24462.8
858.7223	1090.3925	25238.75	24359.05
858.8673	1092.3584	25211.15	24338.35
859.0123	1094.3235	25104.35	24233.7
859.1573	1096.2879	25053.05	24176.25
859.3022	1098.2515	25002.3	24129.4
859.4472	1100.2145	25024.9	24149.1
859.5922	1102.1767	24965.55	24087.65
859.7371	1104.1382	24909.15	24034.1
859.8821	1106.099	24872.4	23994.7
860.027	1108.0591	24800.45	23928.2
860.172	1110.0185	24792.5	23917.05
860.3169	1111.9771	24808.3	23933.6
860.4619	1113.9351	24720.4	23844
860.6068	1115.8923	24747.75	23871.6
860.7517	1117.8488	24679.5	23801.65
860.8967	1119.8045	24566.1	23691.8
861.0416	1121.7596	24463.8	23588.25
861.1865	1123.7139	24288.9	23416
861.3314	1125.6675	24194.15	23318.65
861.4763	1127.6204	24190.6	23317.35
861.6212	1129.5726	24039.1	23160.55
861.7661	1131.524	24094	23219.05
861.911	1133.4748	24020.25	23144.95
862.0559	1135.4248	23955	23076.25
862.2008	1137.3741	23832.8	22958.35
862.3457	1139.3226	23736.85	22860.15
862.4905	1141.2705	23764.1	22887.45
862.6354	1143.2176	23598.15	22716.35
862.7803	1145.164	23605.85	22726.25
862.9251	1147.1097	23551.75	22674
863.07	1149.0546	23519.25	22640.15
863.2148	1150.9989	23477.3	22602.05
863.3597	1152.9424	23469.7	22592.9
863.5045	1154.8852	23377.1	22499.65
863.6493	1156.8272	23389.7	22512.6
863.7942	1158.7686	23341.3	22458
863.939	1160.7092	23238.6	22359.4
864.0838	1162.6491	23181.4	22303.55
864.2286	1164.5883	23174.95	22298.75
864.3734	1166.5267	23123.5	22246.4
864.5182	1168.4644	23061.1	22184.15
864.663	1170.4014	23055.75	22173.7
864.8078	1172.3377	23109.85	22234.85
864.9526	1174.2732	23092.1	22215.5
865.0974	1176.2081	23111.35	22231.55
865.2421	1178.1421	23125.2	22244.95
865.3869	1180.0755	23208.9	22332.55
