Software Version:	3.9.2.0
Unit SN:	10000200
Spectrometer SN:	6960
Date:	3/6/2024 10:13:24 AM
Data Line Index:	25
Spectral Points:	2048
Integration time (ms):	125
Averages:	20
Delay (ms):	30
Sequence Number:	1
Processing:	dark subtract
Laser Power (mW):	305
Laser Current (mA):	826
Laser Diode Temp (C):	25.1
Laser Case Temp (C):	24.9
System Temp (C):	24.7
Spectrometer Temp (C):	22.3
CCD Temp (C):	0.002
Secondary Temp (C):	20.007
Heatsink Temp (C):	18.469
CCDPCB Temp (C):	31.171
SecondaryPCB Temp (C):	25.858

Wavelength	RamanShift	Raw Counts	Dark Subtracted
787.061	30.1047	1002.5	593.1
787.2016	32.3739	1022.15	614.75
787.3422	34.6426	1060.95	651.85
787.4828	36.9109	1104.2	693.7
787.6235	39.1787	1158	744.05
787.7642	41.4461	1201.3	783.15
787.9049	43.7131	1247.55	823.9
788.0456	45.9796	1300.55	876.95
788.1863	48.2456	1359.55	931.7
788.3271	50.5112	1417.3	984.7
788.4679	52.7764	1475.45	1038.45
788.6087	55.0411	1536.25	1096.45
788.7496	57.3054	1604.5	1159.4
788.8904	59.5692	1677.55	1231.65
789.0313	61.8326	1759.25	1310.8
789.1722	64.0955	1846.75	1396.1
789.3132	66.3579	1962.4	1508.85
789.4541	68.6199	2089.3	1629
789.5951	70.8815	2301.2	1836.65
789.7361	73.1426	2777.65	2309.7
789.8771	75.4032	4002.25	3529.15
790.0181	77.6634	7149.8	6672.95
790.1592	79.9231	15216.4	14735.95
790.3003	82.1824	46801.8	46310
790.4414	84.4412	65535	65023.7
790.5825	86.6995	65535	65003.6
790.7237	88.9574	65535	64985.55
790.8648	91.2148	65535	64969.9
791.006	93.4717	65535	64961.25
791.1472	95.7282	65535	64955.5
791.2885	97.9842	65535	64955.8
791.4297	100.2398	65535	64950.4
791.571	102.4949	65535	64946.35
791.7123	104.7495	65535	64945.95
791.8536	107.0036	65535	64945.25
791.9949	109.2573	65535	64942.7
792.1363	111.5105	65535	64941.35
792.2777	113.7632	65535	64939.95
792.4191	116.0154	65535	64929.55
792.5605	118.2672	65535	64934.35
792.7019	120.5185	65535	64933.5
792.8434	122.7693	65535	64927.15
792.9849	125.0197	65535	64925.35
793.1264	127.2696	65535	64923.25
793.2679	129.519	65535	64919.35
793.4094	131.7679	65535	64916.85
793.551	134.0163	65535	64913.7
793.6926	136.2642	65535	64908.25
793.8342	138.5117	65535	64905.7
793.9758	140.7587	65535	64906.35
794.1175	143.0052	65535	64904.8
794.2591	145.2512	65535	64904.95
794.4008	147.4967	65535	64901.25
794.5425	149.7417	65535	64899.35
794.6842	151.9863	65535	64895.85
794.826	154.2304	65535	64890.4
794.9677	156.4739	65535	64883.8
795.1095	158.717	65535	64888.95
795.2513	160.9596	65535	64879.8
795.3931	163.2017	65535	64877.65
795.535	165.4433	65535	64878.85
795.6768	167.6844	65535	64875.4
795.8187	169.925	65535	64875.65
795.9606	172.1651	65535	64873.25
796.1025	174.4047	65535	64865.65
796.2445	176.6439	65535	64863
796.3864	178.8825	65535	64859.85
796.5284	181.1206	65535	64858.05
796.6704	183.3582	65535	64856.8
796.8124	185.5954	65535	64850.3
796.9544	187.832	65535	64845.25
797.0965	190.0681	65535	64845.6
797.2386	192.3037	65535	64841.45
797.3806	194.5388	65535	64838.35
797.5228	196.7734	65535	64840.4
797.6649	199.0075	65535	64836.9
797.807	201.2411	65535	64835.55
797.9492	203.4742	65535	64834.1
798.0914	205.7068	65535	64830.85
798.2336	207.9389	65535	64825.65
798.3758	210.1704	65535	64832
798.518	212.4015	65535	64841.25
798.6603	214.632	65535	64848.8
798.8025	216.862	65535	64853.1
798.9448	219.0915	65535	64848.35
799.0871	221.3205	65535	64846
799.2294	223.549	65535	64851.7
799.3718	225.777	65535	64849.7
799.5141	228.0044	65535	64845.45
799.6565	230.2314	65535	64840.75
799.7989	232.4578	65535	64835.6
799.9413	234.6837	65535	64830.45
800.0837	236.909	65535	64825.1
800.2262	239.1339	65535	64802.25
800.3687	241.3582	65535	64815.4
800.5111	243.582	65535	64788.45
800.6536	245.8053	65535	64800.9
800.7961	248.0281	65535	64804.6
800.9387	250.2503	65535	64802.55
801.0812	252.472	65535	64800.45
801.2238	254.6932	65535	64801.65
801.3664	256.9139	65535	64799.65
801.509	259.134	65535	64794.45
801.6516	261.3536	65535	64793.2
801.7942	263.5727	65535	64797.15
801.9369	265.7912	65535	64795.5
802.0795	268.0092	65535	64793.8
802.2222	270.2267	65535	64793.35
802.3649	272.4436	65535	64790.65
802.5076	274.6601	65535	64785.6
802.6504	276.8759	65535	64785.65
802.7931	279.0913	65535	64786.8
802.9359	281.3061	65535	64785.95
803.0787	283.5204	65535	64785.3
803.2215	285.7341	65535	64780.25
803.3643	287.9473	65535	64767.85
803.5071	290.16	65535	64778.9
803.6499	292.3721	65535	64780.55
803.7928	294.5837	65535	64782.3
803.9357	296.7947	65535	64778.6
804.0786	299.0052	65535	64779.35
804.2215	301.2152	65535	64778.3
804.3644	303.4246	65535	64779.65
804.5074	305.6334	65535	64780.85
804.6503	307.8418	65535	64777.25
804.7933	310.0495	65535	64773.2
804.9363	312.2568	65535	64771.7
805.0793	314.4635	65535	64768.45
805.2223	316.6696	65535	64768.35
805.3653	318.8752	65535	64759.45
805.5084	321.0802	65535	64768
805.6514	323.2847	65535	64767.7
805.7945	325.4887	65535	64764.05
805.9376	327.692	65535	64766.05
806.0807	329.8949	65535	64760.45
806.2238	332.0972	65535	64761.2
806.367	334.2989	65535	64757.3
806.5101	336.5001	65535	64757.85
806.6533	338.7007	65535	64759.05
806.7965	340.9008	65535	64757.45
806.9397	343.1003	65535	64757.1
807.0829	345.2992	65535	64757.7
807.2261	347.4976	65535	64755.45
807.3693	349.6955	65535	64748.75
807.5126	351.8927	65535	64749.05
807.6559	354.0895	65535	64734.45
807.7991	356.2856	65535	64745.3
807.9424	358.4812	65535	64745.7
808.0857	360.6763	65535	64745.8
808.2291	362.8707	65535	64741.95
808.3724	365.0646	65535	64737.3
808.5158	367.258	65535	64736.85
808.6591	369.4508	65535	64735.45
808.8025	371.643	65535	64735.5
808.9459	373.8346	65535	64728.7
809.0893	376.0257	65535	64728.15
809.2327	378.2162	65535	64733.8
809.3762	380.4062	65535	64727.35
809.5196	382.5956	65535	64732
809.6631	384.7844	65535	64738.3
809.8066	386.9726	65535	64736.8
809.9501	389.1603	65535	64739.95
810.0936	391.3474	65535	64696.95
810.2371	393.5339	65535	64736.6
810.3806	395.7199	65535	64740.3
810.5241	397.9052	65535	64739.75
810.6677	400.09	65535	64737.55
810.8113	402.2743	65535	64737.6
810.9548	404.4579	65535	64738.75
811.0984	406.641	65535	64734.2
811.2421	408.8235	65535	64733.6
811.3857	411.0054	65535	64729.95
811.5293	413.1868	65535	64724.65
811.673	415.3675	65535	64724.3
811.8166	417.5477	65535	64721.45
811.9603	419.7273	65535	64718.85
812.104	421.9064	65535	64714.4
812.2477	424.0848	65535	64718.4
812.3914	426.2627	65535	64717.2
812.5351	428.4399	65535	64715.95
812.6788	430.6166	65535	64715.85
812.8226	432.7928	65535	64710.15
812.9663	434.9683	65535	64712.25
813.1101	437.1432	65535	64712.15
813.2539	439.3176	65535	64715.75
813.3977	441.4914	65535	64715.75
813.5415	443.6645	65535	64712.25
813.6853	445.8371	65535	64710.6
813.8291	448.0091	65535	64713.1
813.973	450.1806	65535	64710.7
814.1168	452.3514	65535	64708.15
814.2607	454.5216	65535	64698.5
814.4046	456.6913	65535	64708.9
814.5485	458.8603	65535	64708.8
814.6924	461.0288	65535	64708.4
814.8363	463.1967	65535	64707.45
814.9802	465.3639	65535	64707.45
815.1241	467.5306	65535	64703.4
815.2681	469.6967	65535	64707.85
815.412	471.8622	65535	64707
815.556	474.0271	65535	64706.55
815.7	476.1914	65535	64704.95
815.844	478.3551	65535	64703.4
815.988	480.5182	65535	64706.6
816.132	482.6807	65535	64704.95
816.276	484.8426	65535	64706.75
816.4201	487.0039	65535	64705.35
816.5641	489.1647	65535	64704.15
816.7082	491.3248	65535	64704.15
816.8522	493.4843	65535	64703.35
816.9963	495.6432	65535	64700.15
817.1404	497.8015	65535	64697.1
817.2845	499.9592	65535	64700.05
817.4286	502.1163	65535	64699.15
817.5727	504.2728	65535	64694
817.7168	506.4287	65535	64701.85
817.861	508.5839	65535	64700
818.0051	510.7386	65535	64699.5
818.1493	512.8927	65535	64695.35
818.2935	515.0461	65535	64695.25
818.4377	517.199	65535	64696.25
818.5818	519.3512	65535	64694.4
818.726	521.5029	65535	64687.65
818.8703	523.6539	65535	64693.9
819.0145	525.8043	65535	64690.85
819.1587	527.9541	65535	64689.05
819.303	530.1033	65535	64693.85
819.4472	532.2519	65535	64689.55
819.5915	534.3999	65535	64689
819.7357	536.5472	65535	64691.1
819.88	538.694	65535	64691.95
820.0243	540.8401	65535	64689.35
820.1686	542.9856	65535	64689.6
820.3129	545.1305	65535	64687.45
820.4572	547.2748	65535	64684.75
820.6016	549.4185	65535	64686.3
820.7459	551.5615	65535	64687.85
820.8902	553.704	65535	64686.65
821.0346	555.8458	65535	64689.65
821.1789	557.987	65535	64691.85
821.3233	560.1276	65535	64682.55
821.4677	562.2675	65535	64687.85
821.6121	564.4069	65535	64687.6
821.7565	566.5456	65535	64687.65
821.9009	568.6837	65535	64689.15
822.0453	570.8212	65535	64685.15
822.1897	572.958	65535	64681.65
822.3342	575.0942	65535	64684.55
822.4786	577.2299	65535	64686.35
822.6231	579.3648	65535	64687.95
822.7675	581.4992	65535	64687.3
822.912	583.6329	65535	64688.35
823.0565	585.766	65535	64686.55
823.201	587.8985	65535	64684.6
823.3454	590.0304	65535	64660.5
823.4899	592.1616	65535	64679.55
823.6345	594.2922	65535	64681
823.779	596.4222	65535	64678.9
823.9235	598.5515	65535	64676.9
824.068	600.6802	65535	64679.75
824.2126	602.8083	65535	64680.35
824.3571	604.9358	65535	64675.9
824.5017	607.0626	65535	64678.85
824.6462	609.1888	65535	64677.35
824.7908	611.3144	65535	64677.35
824.9354	613.4393	65535	64679.05
825.08	615.5636	65535	64678.1
825.2246	617.6873	65535	64678.4
825.3692	619.8103	65535	64674.7
825.5138	621.9327	65535	64674.9
825.6584	624.0544	65535	64678.2
825.803	626.1756	65535	64676.85
825.9477	628.2961	65535	64676.4
826.0923	630.4159	65535	64676.3
826.237	632.5351	65535	64672.1
826.3816	634.6537	65535	64675.95
826.5263	636.7716	65535	64668.95
826.6709	638.8889	65535	64672.25
826.8156	641.0056	65535	64673.3
826.9603	643.1216	65535	64670.9
827.105	645.237	65535	64671.25
827.2497	647.3518	65535	64669.95
827.3944	649.4659	65535	64674.6
827.5391	651.5793	65535	64673.65
827.6838	653.6922	65535	64673.35
827.8285	655.8043	65535	64670.65
827.9733	657.9159	65535	64671.15
828.118	660.0268	65535	64670.45
828.2627	662.137	65535	64671.45
828.4075	664.2466	65535	64667.75
828.5522	666.3556	65535	64668.9
828.697	668.4639	65535	64668.95
828.8418	670.5716	65535	64669.3
828.9865	672.6786	65535	64668.3
829.1313	674.785	65535	64667.6
829.2761	676.8907	65535	64669.55
829.4209	678.9958	65535	64667.25
829.5657	681.1002	65535	64667.9
829.7105	683.204	65535	64663.3
829.8553	685.3072	65535	64663.95
830.0001	687.4097	65535	64668
830.1449	689.5115	65535	64661.75
830.2898	691.6127	65535	64667.85
830.4346	693.7132	65535	64668.4
830.5794	695.8131	65535	64647.75
830.7243	697.9123	65535	64666.2
830.8691	700.0109	65535	64662.9
831.014	702.1089	65535	64667.7
831.1588	704.2061	65535	64663.9
831.3037	706.3028	65535	64666.5
831.4486	708.3987	65535	64664.25
831.5935	710.4941	65535	64664.65
831.7383	712.5887	65535	64661.35
831.8832	714.6827	65535	64658.15
832.0281	716.7761	65535	64662.4
832.173	718.8688	65535	64661.05
832.3179	720.9608	65535	64657.4
832.4628	723.0522	65535	64655.15
832.6077	725.1429	65535	64659.75
832.7527	727.233	65535	64661
832.8976	729.3224	65535	64660.7
833.0425	731.4112	65535	64661
833.1874	733.4993	65535	64657.2
833.3324	735.5867	65535	64658.1
833.4773	737.6735	65535	64659.8
833.6222	739.7596	65535	64658
833.7672	741.845	65535	64658.55
833.9122	743.9298	65535	64655.7
834.0571	746.014	65535	64660.3
834.2021	748.0974	65535	64658.45
834.347	750.1802	65535	64656.25
834.492	752.2624	65535	64659.7
834.637	754.3439	65535	64656.95
834.782	756.4247	65535	64647.55
834.9269	758.5048	65535	64657.65
835.0719	760.5843	65535	64660.95
835.2169	762.6631	65535	64657.35
835.3619	764.7413	65535	64658.2
835.5069	766.8188	65535	64657.15
835.6519	768.8956	65535	64654.75
835.7969	770.9718	65535	64659.3
835.9419	773.0473	65535	64655.35
836.0869	775.1221	65535	64656.8
836.232	777.1962	65535	64658.1
836.377	779.2697	65535	64655.55
836.522	781.3426	65535	64634.25
836.667	783.4147	65535	64654.95
836.8121	785.4862	65535	64657.4
836.9571	787.557	65535	64656.6
837.1021	789.6271	65535	64660.2
837.2472	791.6966	65535	64655.6
837.3922	793.7654	65535	64652.5
837.5373	795.8335	65535	64652.75
837.6823	797.901	65535	64658.05
837.8274	799.9678	65535	64651.15
837.9724	802.0339	65535	64656.75
838.1175	804.0993	65535	64644.4
838.2626	806.1641	65535	64652.6
838.4076	808.2282	65535	64654.9
838.5527	810.2916	65535	64648.6
838.6978	812.3544	65535	64657.65
838.8428	814.4164	65535	64656.3
838.9879	816.4778	65535	64653.3
839.133	818.5385	65535	64653.7
839.2781	820.5986	65535	64653.25
839.4232	822.658	65535	64650.35
839.5682	824.7166	65535	64654.8
839.7133	826.7747	65535	64656
839.8584	828.832	65535	64655.45
840.0035	830.8886	65535	64651.3
840.1486	832.9446	65535	64651.55
840.2937	834.9999	65535	64652.05
840.4388	837.0545	65535	64648.1
840.5839	839.1085	65535	64652.25
840.729	841.1618	65535	64649.45
840.8741	843.2143	65535	64651.25
841.0192	845.2662	65535	64651.25
841.1643	847.3175	65535	64652.95
841.3095	849.368	65535	64651.85
841.4546	851.4179	65535	64651.65
841.5997	853.467	65535	64652.7
841.7448	855.5155	65535	64651.55
841.8899	857.5633	65535	64650.05
842.0351	859.6105	65535	64650.75
842.1802	861.6569	65535	64651.05
842.3253	863.7027	65535	64649.2
842.4704	865.7478	65535	64652.6
842.6156	867.7922	65535	64652.3
842.7607	869.8359	65535	64650.05
842.9058	871.8789	65535	64654.65
843.0509	873.9212	65535	64621.4
843.1961	875.9629	65535	64651
843.3412	878.0039	65535	64648.25
843.4863	880.0441	65535	64651.7
843.6315	882.0837	65535	64649.3
843.7766	884.1226	65535	64648.95
843.9218	886.1609	65535	64654.85
844.0669	888.1984	65535	64651.15
844.212	890.2352	65535	64650.6
844.3572	892.2714	65535	64646
844.5023	894.3069	65535	64647.2
844.6475	896.3416	65535	64649.15
844.7926	898.3757	65535	64649.75
844.9377	900.4091	65535	64651.75
845.0829	902.4418	65535	64643.9
845.228	904.4739	65535	64648.4
845.3732	906.5052	65535	64648.9
845.5183	908.5358	65535	64647.2
845.6635	910.5658	65535	64647.35
845.8086	912.595	65535	64649.65
845.9538	914.6236	65535	64651.05
846.0989	916.6515	65535	64650.8
846.2441	918.6786	65535	64646
846.3892	920.7051	65535	64645.8
846.5344	922.7309	65535	64645.85
846.6795	924.756	65535	64648.25
846.8246	926.7804	65535	64643.65
846.9698	928.8041	65535	64645.5
847.1149	930.8272	65535	64650.55
847.2601	932.8495	65535	64649.2
847.4052	934.8711	65535	64645.7
847.5504	936.892	65535	64647.25
847.6955	938.9123	65535	64645.55
847.8407	940.9318	65535	64647.25
847.9858	942.9506	65535	64646.6
848.131	944.9688	65535	64647.95
848.2761	946.9862	65535	64649.7
848.4213	949.003	65535	64645.5
848.5664	951.019	65535	64647.7
848.7115	953.0344	65535	64646.85
848.8567	955.0491	65535	64650.5
849.0018	957.063	65535	64649.55
849.147	959.0763	65535	64648.6
849.2921	961.0888	65535	64644.55
849.4373	963.1007	65535	64648.45
849.5824	965.1119	65535	64650.65
849.7275	967.1223	65535	64649.45
849.8727	969.1321	65535	64649.9
850.0178	971.1412	65535	64650.2
850.1629	973.1495	65535	64649.3
850.3081	975.1572	65535	64614.45
850.4532	977.1641	65535	64646.15
850.5983	979.1704	65535	64643.75
850.7435	981.1759	65535	64644.2
850.8886	983.1808	65535	64644.6
851.0337	985.1849	65535	64635.6
851.1788	987.1884	65535	64643.45
851.324	989.1911	65535	64643.7
851.4691	991.1932	65535	64645.05
851.6142	993.1945	65535	64646.05
851.7593	995.1951	65535	64646.5
851.9045	997.1951	65535	64639.25
852.0496	999.1943	65535	64645.25
852.1947	1001.1928	65535	64644.75
852.3398	1003.1906	65535	64647.1
852.4849	1005.1877	65535	64644.75
852.63	1007.1841	65535	64647.15
852.7751	1009.1798	65535	64645.4
852.9202	1011.1748	65535	64645.65
853.0653	1013.1691	65535	64643.2
853.2104	1015.1627	65535	64643.75
853.3555	1017.1556	65535	64645.8
853.5006	1019.1477	65535	64644.85
853.6457	1021.1392	65535	64647.7
853.7908	1023.1299	65535	64649.35
853.9359	1025.12	65535	64648.4
854.081	1027.1093	65535	64650.25
854.2261	1029.0979	65535	64651.35
854.3712	1031.0859	65535	64651
854.5163	1033.0731	65535	64648.85
854.6613	1035.0596	65535	64649.5
854.8064	1037.0454	65535	64648.65
854.9515	1039.0304	65535	64646.65
855.0965	1041.0148	65535	64647.25
855.2416	1042.9985	65535	64645.55
855.3867	1044.9814	65535	64648.35
855.5317	1046.9636	65535	64645.9
855.6768	1048.9452	65535	64648.65
855.8219	1050.926	65535	64645.05
855.9669	1052.9061	65535	64647.65
856.112	1054.8855	65535	64646.25
856.257	1056.8642	65535	64645.9
856.4021	1058.8421	65535	64643.5
856.5471	1060.8194	65535	64644.7
856.6921	1062.7959	65535	64648.65
856.8372	1064.7717	65535	64644.7
856.9822	1066.7469	65535	64644.95
857.1272	1068.7213	65535	64642.6
857.2723	1070.695	65535	64646.4
857.4173	1072.6679	65535	64646.4
857.5623	1074.6402	65535	64645.2
857.7073	1076.6117	65535	64639.25
857.8523	1078.5826	65535	64645.05
857.9973	1080.5527	65535	64644.25
858.1423	1082.5221	65535	64648.4
858.2873	1084.4908	65535	64646.3
858.4323	1086.4587	65535	64647.5
858.5773	1088.426	65535	64644.1
858.7223	1090.3925	65535	64642.15
858.8673	1092.3584	65535	64647.75
859.0123	1094.3235	65535	64645.8
859.1573	1096.2879	65535	64645.6
859.3022	1098.2515	65535	64646.8
859.4472	1100.2145	65535	64648.4
859.5922	1102.1767	65535	64644.45
859.7371	1104.1382	65535	64645.05
859.8821	1106.099	65535	64643.2
860.027	1108.0591	65535	64645.85
860.172	1110.0185	65535	64645.6
860.3169	1111.9771	65535	64648.2
860.4619	1113.9351	65535	64647.45
860.6068	1115.8923	65535	64645.7
860.7517	1117.8488	65535	64643.15
860.8967	1119.8045	65535	64644.65
861.0416	1121.7596	65535	64642.5
861.1865	1123.7139	65535	64648.25
861.3314	1125.6675	65535	64648.6
861.4763	1127.6204	65535	64647.5
861.6212	1129.5726	65535	64643.75
861.7661	1131.524	65535	64645.75
861.911	1133.4748	65535	64644.3
862.0559	1135.4248	65535	64642.95
862.2008	1137.3741	65535	64645.6
862.3457	1139.3226	65535	64645.15
862.4905	1141.2705	65535	64646.35
862.6354	1143.2176	65535	64642.85
862.7803	1145.164	65535	64644.1
862.9251	1147.1097	65535	64647.85
863.07	1149.0546	65535	64642.6
863.2148	1150.9989	65535	64645.7
863.3597	1152.9424	65535	64642.85
863.5045	1154.8852	65535	64648.5
863.6493	1156.8272	65535	64647.3
863.7942	1158.7686	65535	64638.9
863.939	1160.7092	65535	64641.7
864.0838	1162.6491	65535	64642.95
864.2286	1164.5883	65535	64645.25
864.3734	1166.5267	65535	64645.15
864.5182	1168.4644	65535	64646.75
864.663	1170.4014	65535	64640.85
864.8078	1172.3377	65535	64648.3
864.9526	1174.2732	65535	64646.2
865.0974	1176.2081	65535	64647.8
865.2421	1178.1421	65535	64642.95
865.3869	1180.0755	65535	64644.75
865.5317	1182.0082	65535	64644.5
865.6764	1183.9401	65535	64644
865.8212	1185.8713	65535	64646.75
865.9659	1187.8017	65535	64645.65
866.1106	1189.7315	65535	64649.1
866.2554	1191.6605	65535	64621
866.4001	1193.5888	65535	64647
866.5448	1195.5163	65535	64646.85
866.6895	1197.4432	65535	64644.5
866.8342	1199.3693	65535	64646.25
866.9789	1201.2947	65535	64643.9
867.1236	1203.2193	65535	64646.4
867.2683	1205.1432	65535	64642.7
867.413	1207.0664	65535	64644.9
867.5576	1208.9889	65535	64642.25
867.7023	1210.9106	65535	64647.3
867.847	1212.8316	65535	64645.85
867.9916	1214.7519	65535	64638.4
868.1363	1216.6715	65535	64646.65
868.2809	1218.5903	65535	64646.15
868.4255	1220.5084	65535	64643.5
868.5701	1222.4257	65535	64646.9
868.7148	1224.3424	65535	64645.95
868.8594	1226.2583	65535	64642.65
869.004	1228.1735	65535	64643.65
869.1486	1230.0879	65535	64644.85
869.2932	1232.0016	65535	64645.75
869.4377	1233.9146	65535	64643.95
869.5823	1235.8269	65535	64645.7
869.7269	1237.7384	65535	64645.75
869.8715	1239.6492	65535	64647.8
870.016	1241.5592	65535	64645.5
870.1606	1243.4686	65535	64646.9
870.3051	1245.3772	65535	64646.2
870.4496	1247.285	65535	64644.05
