Software Version:	3.9.2.0
Unit SN:	10000200
Spectrometer SN:	6960
Date:	3/6/2024 10:04:28 AM
Data Line Index:	25
Spectral Points:	2048
Integration time (ms):	125
Averages:	20
Delay (ms):	30
Sequence Number:	1
Processing:	dark subtract
Laser Power (mW):	300
Laser Current (mA):	826
Laser Diode Temp (C):	25.1
Laser Case Temp (C):	24.8
System Temp (C):	24.6
Spectrometer Temp (C):	22.2
CCD Temp (C):	-0.008
Secondary Temp (C):	20.011
Heatsink Temp (C):	18.57
CCDPCB Temp (C):	32.172
SecondaryPCB Temp (C):	26.214

Wavelength	RamanShift	Raw Counts	Dark Subtracted
787.061	30.1047	559.6	152.65
787.2016	32.3739	565.6	157.9
787.3422	34.6426	571.05	163.3
787.4828	36.9109	583.7	175.05
787.6235	39.1787	598.5	185.95
787.7642	41.4461	614.8	196.7
787.9049	43.7131	630.95	210.65
788.0456	45.9796	647.35	223.2
788.1863	48.2456	660.15	235
788.3271	50.5112	676.35	245.2
788.4679	52.7764	698.45	263.95
788.6087	55.0411	720	282.65
788.7496	57.3054	736.55	293.4
788.8904	59.5692	758.3	313.75
789.0313	61.8326	783.3	335.25
789.1722	64.0955	806.05	353.75
789.3132	66.3579	834.15	377.85
789.4541	68.6199	876.05	417.25
789.5951	70.8815	948.45	484.75
789.7361	73.1426	1089.25	621.45
789.8771	75.4032	1440.65	969.55
790.0181	77.6634	2337.45	1860.7
790.1592	79.9231	4527.3	4047.85
790.3003	82.1824	9462.5	8972
790.4414	84.4412	19975.55	19471.6
790.5825	86.6995	32025.35	31501.55
790.7237	88.9574	38626.65	38085.7
790.8648	91.2148	42648.35	42090.7
791.006	93.4717	44103.25	43540.9
791.1472	95.7282	44760.2	44193.1
791.2885	97.9842	45068.9	44501.15
791.4297	100.2398	45142.6	44573.75
791.571	102.4949	45130.65	44553.2
791.7123	104.7495	45174	44596.4
791.8536	107.0036	45077.1	44498.3
791.9949	109.2573	45203.25	44626
792.1363	111.5105	45071.55	44492.3
792.2777	113.7632	45170.3	44590.5
792.4191	116.0154	45260.15	44666.35
792.5605	118.2672	45399.7	44811.75
792.7019	120.5185	45410.1	44824.6
792.8434	122.7693	45435.9	44844.05
792.9849	125.0197	45333.6	44738.9
793.1264	127.2696	45598.55	44998.75
793.2679	129.519	45594.6	44991.7
793.4094	131.7679	45744.7	45138.2
793.551	134.0163	45457.05	44847.35
793.6926	136.2642	45583.8	44970.2
793.8342	138.5117	45792.95	45177.2
793.9758	140.7587	45702.75	45087.85
794.1175	143.0052	45731.15	45114.3
794.2591	145.2512	45575.95	44956.4
794.4008	147.4967	45788.6	45169.3
794.5425	149.7417	45733.9	45110.45
794.6842	151.9863	45723.55	45096.3
794.826	154.2304	45600.7	44968.85
794.9677	156.4739	45648.95	45011.65
795.1095	158.717	45788.65	45152.7
795.2513	160.9596	45708.65	45066.15
795.3931	163.2017	45513.55	44872.3
795.535	165.4433	45721.55	45074.85
795.6768	167.6844	45624	44977.1
795.8187	169.925	45709.45	45057.9
795.9606	172.1651	45616.7	44964.4
796.1025	174.4047	45633.65	44975.35
796.2445	176.6439	45613.95	44954.65
796.3864	178.8825	45593.3	44930.95
796.5284	181.1206	45739.05	45069.4
796.6704	183.3582	45711.45	45042.9
796.8124	185.5954	45645.75	44974.4
796.9544	187.832	45679.15	45005.8
797.0965	190.0681	45593.5	44915.05
797.2386	192.3037	45811.75	45132.1
797.3806	194.5388	46001.55	45314.5
797.5228	196.7734	45565.5	44878.65
797.6649	199.0075	46022.3	45332.65
797.807	201.2411	45909.45	45218
797.9492	203.4742	46180.05	45484.5
798.0914	205.7068	46161.25	45465.05
798.2336	207.9389	46116.25	45415.45
798.3758	210.1704	46132.05	45438.75
798.518	212.4015	46252.45	45570.5
798.6603	214.632	46085.3	45408.65
798.8025	216.862	46339.8	45668.45
798.9448	219.0915	46207.65	45527.65
799.0871	221.3205	46197.55	45515.5
799.2294	223.549	46382.85	45709.3
799.3718	225.777	46386	45710.25
799.5141	228.0044	46507.75	45827.3
799.6565	230.2314	46463.4	45781.35
799.7989	232.4578	46445.1	45756.6
799.9413	234.6837	46464.4	45767.2
800.0837	236.909	46854.45	46160.2
800.2262	239.1339	46409.05	45689.35
800.3687	241.3582	46615.75	45907.05
800.5111	243.582	46615.35	45875.15
800.6536	245.8053	46593.9	45866.5
800.7961	248.0281	46645.3	45926.3
800.9387	250.2503	46732.45	46009.75
801.0812	252.472	46582.9	45854.95
801.2238	254.6932	46712.5	45985.1
801.3664	256.9139	46625.65	45898.35
801.509	259.134	46919.1	46187.85
801.6516	261.3536	46583.95	45851.75
801.7942	263.5727	46812.25	46083.15
801.9369	265.7912	46722.4	45991.1
802.0795	268.0092	46762.4	46032.55
802.2222	270.2267	46810.95	46078.35
802.3649	272.4436	46642.8	45912.5
802.5076	274.6601	46760.6	46014.7
802.6504	276.8759	46843.3	46104.15
802.7931	279.0913	46780.8	46035.15
802.9359	281.3061	46794.35	46052.2
803.0787	283.5204	46846.05	46098.95
803.2215	285.7341	46836.9	46090
803.3643	287.9473	47002.1	46242.05
803.5071	290.16	46872.85	46122.15
803.6499	292.3721	46919.95	46174.05
803.7928	294.5837	46815.6	46069.15
803.9357	296.7947	46713.25	45964.45
804.0786	299.0052	46958.8	46209.4
804.2215	301.2152	46815.25	46063.35
804.3644	303.4246	46920.15	46171.6
804.5074	305.6334	46956.1	46208.05
804.6503	307.8418	46781.4	46027.2
804.7933	310.0495	46777.6	46024.05
804.9363	312.2568	46741.8	45988.25
805.0793	314.4635	46688.35	45932.95
805.2223	316.6696	46770.65	46012.5
805.3653	318.8752	46853.95	46088.85
805.5084	321.0802	46511.7	45749.9
805.6514	323.2847	46665.8	45901.25
805.7945	325.4887	46644.85	45880
805.9376	327.692	46592.7	45826.2
806.0807	329.8949	46679.85	45912.35
806.2238	332.0972	46593.6	45828.95
806.367	334.2989	46664.35	45894.5
806.5101	336.5001	46707.2	45934.8
806.6533	338.7007	46488.3	45717.3
806.7965	340.9008	46657.55	45883
806.9397	343.1003	46636.25	45862.2
807.0829	345.2992	46727.3	45951.05
807.2261	347.4976	46629	45851.4
807.3693	349.6955	46679.45	45895.05
807.5126	351.8927	46598.4	45815.65
807.6559	354.0895	46652.45	45861.05
807.7991	356.2856	46647.85	45861.25
807.9424	358.4812	46737.85	45953.45
808.0857	360.6763	46596.1	45807.1
808.2291	362.8707	46753.25	45963.4
808.3724	365.0646	46658.5	45866.35
808.5158	367.258	46615.2	45821.8
808.6591	369.4508	46433.35	45633.2
808.8025	371.643	46675.8	45880.9
808.9459	373.8346	46552.15	45752.35
809.0893	376.0257	46571.65	45769
809.2327	378.2162	46519.55	45720.25
809.3762	380.4062	46389.5	45592.05
809.5196	382.5956	46505.75	45707.05
809.6631	384.7844	46466.25	45670.9
809.8066	386.9726	46488.55	45694.75
809.9501	389.1603	46473.95	45682.95
810.0936	391.3474	46338.6	45503.85
810.2371	393.5339	46489.3	45696.95
810.3806	395.7199	46231.7	45438.3
810.5241	397.9052	46271.65	45479.6
810.6677	400.09	46305.8	45513.8
810.8113	402.2743	46407.7	45613.85
810.9548	404.4579	46260.75	45464.25
811.0984	406.641	46294.45	45495.9
811.2421	408.8235	46346	45549.5
811.3857	411.0054	46375.45	45575.65
811.5293	413.1868	46456.4	45650.85
811.673	415.3675	46363.9	45552.5
811.8166	417.5477	46386.9	45574.85
811.9603	419.7273	46365.35	45554.35
812.104	421.9064	46284.15	45466
812.2477	424.0848	46280.6	45469.4
812.3914	426.2627	46353.85	45541.9
812.5351	428.4399	46196.75	45381.2
812.6788	430.6166	46035.2	45218.1
812.8226	432.7928	46212.7	45393.85
812.9663	434.9683	45984.95	45166.45
813.1101	437.1432	45966.15	45146.65
813.2539	439.3176	46053.85	45235.1
813.3977	441.4914	45806.1	44989
813.5415	443.6645	45837.45	45021.25
813.6853	445.8371	45831.8	45016.5
813.8291	448.0091	45699.35	44878.7
813.973	450.1806	45618.15	44799.95
814.1168	452.3514	45617.95	44794.5
814.2607	454.5216	45534.75	44708.25
814.4046	456.6913	45559.1	44735.4
814.5485	458.8603	45588.05	44767.3
814.6924	461.0288	45475	44653.75
814.8363	463.1967	45549.9	44731.1
814.9802	465.3639	45570.5	44747.7
815.1241	467.5306	45321.85	44498.2
815.2681	469.6967	45379.15	44557.05
815.412	471.8622	45447.3	44624.9
815.556	474.0271	45357.4	44533.85
815.7	476.1914	45344.75	44518.75
815.844	478.3551	45375.55	44549.2
815.988	480.5182	45540.05	44715.95
816.132	482.6807	45310.6	44487
816.276	484.8426	45363.65	44543.65
816.4201	487.0039	45540.3	44718.65
816.5641	489.1647	45567.8	44741.45
816.7082	491.3248	45375.7	44549.35
816.8522	493.4843	45587	44760.55
816.9963	495.6432	45577.15	44747.65
817.1404	497.8015	45305.25	44470.9
817.2845	499.9592	45473.8	44639.2
817.4286	502.1163	45437.75	44603.05
817.5727	504.2728	45382.45	44550.6
817.7168	506.4287	45400.95	44573.25
817.861	508.5839	45255.2	44424.3
818.0051	510.7386	45343.45	44511.05
818.1493	512.8927	45388.4	44547.8
818.2935	515.0461	45343.9	44508.05
818.4377	517.199	45445.6	44608.55
818.5818	519.3512	45310.6	44471.1
818.726	521.5029	45264.55	44418.5
818.8703	523.6539	45291.25	44451.2
819.0145	525.8043	45177.95	44342.4
819.1587	527.9541	45289.25	44447.35
819.303	530.1033	45247.5	44405.75
819.4472	532.2519	45189.35	44347.25
819.5915	534.3999	45279.35	44438.65
819.7357	536.5472	45296.6	44455.5
819.88	538.694	45115.85	44275.85
820.0243	540.8401	45228.75	44386.55
820.1686	542.9856	45224.45	44380.35
820.3129	545.1305	45284.55	44435.2
820.4572	547.2748	45170.95	44324.1
820.6016	549.4185	45140.5	44289.05
820.7459	551.5615	45199.4	44346.8
820.8902	553.704	45189	44338.7
821.0346	555.8458	45045.1	44198.5
821.1789	557.987	45091.7	44244.05
821.3233	560.1276	45129.7	44280.85
821.4677	562.2675	45072.45	44220.3
821.6121	564.4069	45100.95	44251
821.7565	566.5456	45167.45	44318.15
821.9009	568.6837	45036.8	44186.5
822.0453	570.8212	45070.75	44221.15
822.1897	572.958	44846.4	43995.3
822.3342	575.0942	44943.25	44097.2
822.4786	577.2299	44781.85	43932.2
822.6231	579.3648	44737.2	43892.05
822.7675	581.4992	44632.65	43789.25
822.912	583.6329	44605.55	43764.9
823.0565	585.766	44596.4	43753.05
823.201	587.8985	44613.4	43767.8
823.3454	590.0304	44411.45	43536.5
823.4899	592.1616	44489.45	43636.1
823.6345	594.2922	44435.4	43579.6
823.779	596.4222	44335.15	43477.2
823.9235	598.5515	44338.7	43480.2
824.068	600.6802	44382.45	43526.4
824.2126	602.8083	44206.1	43349.65
824.3571	604.9358	44184.9	43328.15
824.5017	607.0626	44257.6	43398.1
824.6462	609.1888	44084.55	43223.45
824.7908	611.3144	44185.2	43322.95
824.9354	613.4393	44061.2	43202.85
825.08	615.5636	44033.25	43172.8
825.2246	617.6873	44081.9	43222.35
825.3692	619.8103	44023.75	43160.2
825.5138	621.9327	43998.75	43136.25
825.6584	624.0544	44006.95	43149.75
825.803	626.1756	43995.75	43136.55
825.9477	628.2961	43973.4	43112.15
826.0923	630.4159	43865.45	43004.65
826.237	632.5351	43877.95	43016.9
826.3816	634.6537	43995.95	43132.35
826.5263	636.7716	43839	42972.05
826.6709	638.8889	43849.2	42982.7
826.8156	641.0056	43852.2	42984.85
826.9603	643.1216	43861.6	42993.65
827.105	645.237	43897.65	43030.7
827.2497	647.3518	43785.75	42923.1
827.3944	649.4659	43792.2	42927.25
827.5391	651.5793	43764.6	42901.8
827.6838	653.6922	43745.4	42881.85
827.8285	655.8043	43662.5	42796.85
827.9733	657.9159	43795.35	42929.4
828.118	660.0268	43536.55	42670.25
828.2627	662.137	43603.25	42737.3
828.4075	664.2466	43629.2	42756.15
828.5522	666.3556	43584.95	42715.85
828.697	668.4639	43556.15	42687.85
828.8418	670.5716	43525.85	42660.6
828.9865	672.6786	43568.8	42701.6
829.1313	674.785	43441.4	42573.9
829.2761	676.8907	43435.6	42564.1
829.4209	678.9958	43394.9	42524.9
829.5657	681.1002	43382.65	42512.95
829.7105	683.204	43328.25	42454.65
829.8553	685.3072	43280.95	42406.25
830.0001	687.4097	43257.6	42385.8
830.1449	689.5115	43243.75	42369.4
830.2898	691.6127	43284.15	42413
830.4346	693.7132	43188.7	42319.7
830.5794	695.8131	43224.1	42333.1
830.7243	697.9123	43205	42331.35
830.8691	700.0109	43187.95	42311.6
831.014	702.1089	43080.5	42203.85
831.1588	704.2061	43098.6	42224.85
831.3037	706.3028	43114.65	42237.75
831.4486	708.3987	43081.4	42202.05
831.5935	710.4941	43015.65	42138.1
831.7383	712.5887	43085.9	42209.95
831.8832	714.6827	43025.35	42146.9
832.0281	716.7761	43066	42193.55
832.173	718.8688	43017.5	42141.65
832.3179	720.9608	42971.75	42089.85
832.4628	723.0522	42988.5	42107.2
832.6077	725.1429	42903.4	42021.1
832.7527	727.233	43027.05	42147.5
832.8976	729.3224	42888.2	42010.25
833.0425	731.4112	42882.85	42003.7
833.1874	733.4993	42814.35	41932.95
833.3324	735.5867	42750.7	41870
833.4773	737.6735	42737.7	41858.6
833.6222	739.7596	42666.15	41781.25
833.7672	741.845	42632.1	41753.3
833.9122	743.9298	42619.5	41736.6
834.0571	746.014	42583.2	41703.15
834.2021	748.0974	42549.45	41668.35
834.347	750.1802	42515.85	41635.8
834.492	752.2624	42385.15	41502.15
834.637	754.3439	42348.95	41462.9
834.782	756.4247	42325.45	41432.5
834.9269	758.5048	42207.9	41324.5
835.0719	760.5843	42197.65	41313.4
835.2169	762.6631	42199.35	41316.65
835.3619	764.7413	42160.25	41279.55
835.5069	766.8188	42175.8	41291.3
835.6519	768.8956	42126.5	41240.2
835.7969	770.9718	42139.8	41256.35
835.9419	773.0473	42057.5	41172.7
836.0869	775.1221	42028.55	41144.2
836.232	777.1962	41932.05	41048.25
836.377	779.2697	41891.7	41004.85
836.522	781.3426	41874.9	40967.8
836.667	783.4147	41801.7	40917.6
836.8121	785.4862	41805.3	40925.8
836.9571	787.557	41727.4	40840.3
837.1021	789.6271	41727.95	40841.5
837.2472	791.6966	41679.45	40792.75
837.3922	793.7654	41551.65	40663.3
837.5373	795.8335	41564.95	40679.7
837.6823	797.901	41527.65	40643
837.8274	799.9678	41509.85	40619.8
837.9724	802.0339	41442.15	40555.05
838.1175	804.0993	41460.15	40561.7
838.2626	806.1641	41343.45	40455.45
838.4076	808.2282	41287.05	40400.65
838.5527	810.2916	41268.3	40379.25
838.6978	812.3544	41280.55	40393.55
838.8428	814.4164	41174.7	40286.3
838.9879	816.4778	41234.05	40342.4
839.133	818.5385	41163.9	40273.35
839.2781	820.5986	41156.2	40268.65
839.4232	822.658	41134.55	40242.9
839.5682	824.7166	41107.9	40219.1
839.7133	826.7747	41109.5	40219.4
839.8584	828.832	41099.6	40208.85
840.0035	830.8886	41042.6	40151.35
840.1486	832.9446	41051.75	40160.7
840.2937	834.9999	40921.75	40032.75
840.4388	837.0545	40945	40050.45
840.5839	839.1085	40911.55	40019.2
840.729	841.1618	40866.45	39972.75
840.8741	843.2143	40746.1	39853.6
841.0192	845.2662	40704.5	39812.1
841.1643	847.3175	40711.4	39820.85
841.3095	849.368	40583.55	39690.95
841.4546	851.4179	40628.5	39732.85
841.5997	853.467	40498.3	39607.8
841.7448	855.5155	40481.75	39591.7
841.8899	857.5633	40388.45	39497.9
842.0351	859.6105	40322.8	39431.9
842.1802	861.6569	40319.15	39425.55
842.3253	863.7027	40261.95	39367.55
842.4704	865.7478	40265.85	39372.9
842.6156	867.7922	40232.4	39337.75
842.7607	869.8359	40196.8	39303.8
842.9058	871.8789	40128.35	39234.95
843.0509	873.9212	40169.2	39242.9
843.1961	875.9629	40135.65	39241.55
843.3412	878.0039	40104.35	39209.15
843.4863	880.0441	40065.6	39172.3
843.6315	882.0837	40051.45	39157.25
843.7766	884.1226	40002.05	39105.2
843.9218	886.1609	40010	39119.15
844.0669	888.1984	39982.15	39088.7
844.212	890.2352	40049.55	39156.85
844.3572	892.2714	39922.55	39022.8
844.5023	894.3069	39937.55	39041.85
844.6475	896.3416	39824.95	38929.3
844.7926	898.3757	39807.3	38912.45
844.9377	900.4091	39704.95	38809.4
845.0829	902.4418	39755.45	38855.45
845.228	904.4739	39692	38791.95
845.3732	906.5052	39668.35	38769.65
845.5183	908.5358	39632.8	38736.4
845.6635	910.5658	39577.25	38679.15
845.8086	912.595	39532.2	38636.3
845.9538	914.6236	39406.55	38510.45
846.0989	916.6515	39500.4	38603.2
846.2441	918.6786	39342.65	38444
846.3892	920.7051	39353.7	38453.45
846.5344	922.7309	39361.4	38465.8
846.6795	924.756	39253.55	38354
846.8246	926.7804	39207.85	38309.55
846.9698	928.8041	38977.7	38078.85
847.1149	930.8272	39093.95	38193.3
847.2601	932.8495	39022.8	38123.8
847.4052	934.8711	38968.15	38067.9
847.5504	936.892	38863.85	37965.5
847.6955	938.9123	38806.25	37907.4
847.8407	940.9318	38740.2	37841.15
847.9858	942.9506	38679.7	37782.3
848.131	944.9688	38646.75	37748.75
848.2761	946.9862	38438.75	37540.55
848.4213	949.003	38466.55	37567.7
848.5664	951.019	38239.45	37341.55
848.7115	953.0344	38217.5	37321.15
848.8567	955.0491	38145.5	37244.2
849.0018	957.063	38216.35	37319.75
849.147	959.0763	38245.15	37346.85
849.2921	961.0888	38058.95	37159.15
849.4373	963.1007	38165.7	37268.05
849.5824	965.1119	38144.75	37249.85
849.7275	967.1223	38007.3	37114.15
849.8727	969.1321	38103.6	37211.35
850.0178	971.1412	37918.9	37025.85
850.1629	973.1495	37828.75	36930.7
850.3081	975.1572	37889.95	36952.05
850.4532	977.1641	37820.2	36919.7
850.5983	979.1704	37730.15	36828.4
850.7435	981.1759	37683.2	36781.35
850.8886	983.1808	37549.15	36645.9
851.0337	985.1849	37541	36630.2
851.1788	987.1884	37539.85	36635.85
851.324	989.1911	37564.3	36665.5
851.4691	991.1932	37327.4	36428.05
851.6142	993.1945	37290.8	36389.65
851.7593	995.1951	37284.1	36383.25
851.9045	997.1951	37175	36267.85
852.0496	999.1943	37099.2	36197.4
852.1947	1001.1928	36977.05	36078.5
852.3398	1003.1906	36965.7	36067.95
852.4849	1005.1877	36801.75	35901.45
852.63	1007.1841	36697.9	35799.95
852.7751	1009.1798	36659.7	35756.95
852.9202	1011.1748	36633.15	35736.45
853.0653	1013.1691	36581.95	35682.1
853.2104	1015.1627	36307.15	35406.85
853.3555	1017.1556	36274.6	35373.5
853.5006	1019.1477	36257.65	35359.35
853.6457	1021.1392	36044.65	35149.2
853.7908	1023.1299	35914.6	35018
853.9359	1025.12	35919.15	35020.6
854.081	1027.1093	35806.7	34919.5
854.2261	1029.0979	35767.9	34878.65
854.3712	1031.0859	35663.7	34773.6
854.5163	1033.0731	35544.75	34648.7
854.6613	1035.0596	35512.4	34617
854.8064	1037.0454	35404.75	34505.75
854.9515	1039.0304	35332.7	34431
855.0965	1041.0148	35171.9	34273.05
855.2416	1042.9985	35211.95	34309.4
855.3867	1044.9814	35207.4	34308.65
855.5317	1046.9636	35059.8	34161.55
855.6768	1048.9452	35009.6	34110.15
855.8219	1050.926	34928.65	34029.7
855.9669	1052.9061	34897.35	33996.7
856.112	1054.8855	34834.75	33933.65
856.257	1056.8642	34776.7	33876.9
856.4021	1058.8421	34777.1	33874.95
856.5471	1060.8194	34689.15	33788.1
856.6921	1062.7959	34654.3	33753.35
856.8372	1064.7717	34655.35	33752.55
856.9822	1066.7469	34574.95	33674.2
857.1272	1068.7213	34585.55	33681
857.2723	1070.695	34476.35	33575.05
857.4173	1072.6679	34370.6	33469.85
857.5623	1074.6402	34422.4	33520.45
857.7073	1076.6117	34382.45	33475.55
857.8523	1078.5826	34310.9	33407.9
857.9973	1080.5527	34260.65	33356.25
858.1423	1082.5221	34148.8	33248.35
858.2873	1084.4908	34121.8	33221.25
858.4323	1086.4587	34055.25	33154.15
858.5773	1088.426	34009.05	33107.65
858.7223	1090.3925	33969.8	33063
858.8673	1092.3584	33914.3	33012.2
859.0123	1094.3235	33779.6	32879.55
859.1573	1096.2879	33767.6	32866.8
859.3022	1098.2515	33768.7	32867.75
859.4472	1100.2145	33755.2	32854.6
859.5922	1102.1767	33702.95	32801.85
859.7371	1104.1382	33727.05	32823.65
859.8821	1106.099	33626.4	32723.6
860.027	1108.0591	33556.8	32654.7
860.172	1110.0185	33417.85	32516.7
860.3169	1111.9771	33534.95	32632.55
860.4619	1113.9351	33433.6	32532.05
860.6068	1115.8923	33340.45	32439.55
860.7517	1117.8488	33229.25	32326.1
860.8967	1119.8045	33043.8	32143.7
861.0416	1121.7596	33098.25	32196.35
861.1865	1123.7139	32951.8	32051.15
861.3314	1125.6675	32969.25	32067.55
861.4763	1127.6204	32895.35	31994.3
861.6212	1129.5726	32735.2	31831.75
861.7661	1131.524	32802.15	31902.8
861.911	1133.4748	32785	31884.15
862.0559	1135.4248	32573.95	31674.35
862.2008	1137.3741	32542.6	31642.2
862.3457	1139.3226	32482.15	31581.2
862.4905	1141.2705	32471.55	31570
862.6354	1143.2176	32376.65	31471.3
862.7803	1145.164	32205.75	31300.65
862.9251	1147.1097	32251.05	31349.8
863.07	1149.0546	32197.4	31293.85
863.2148	1150.9989	32209.9	31310
863.3597	1152.9424	32021.2	31121.2
863.5045	1154.8852	32146.8	31246.2
863.6493	1156.8272	31965.6	31067.9
863.7942	1158.7686	32114.8	31203.95
863.939	1160.7092	31842.75	30937.2
864.0838	1162.6491	31827.4	30923.6
864.2286	1164.5883	31881.65	30980.95
864.3734	1166.5267	31733.3	30831.65
864.5182	1168.4644	31816.3	30913.35
864.663	1170.4014	31690.15	30784.35
864.8078	1172.3377	31795.95	30897.4
864.9526	1174.2732	31816.45	30914.65
865.0974	1176.2081	31818.6	30918.7
865.2421	1178.1421	31751.2	30846.1
865.3869	1180.0755	31853	30952.3
