Software Version:	3.9.2.0
Unit SN:	10000200
Spectrometer SN:	6960
Date:	3/6/2024 10:04:46 AM
Data Line Index:	25
Spectral Points:	2048
Integration time (ms):	125
Averages:	20
Delay (ms):	30
Sequence Number:	1
Processing:	dark subtract
Laser Power (mW):	305
Laser Current (mA):	827
Laser Diode Temp (C):	25
Laser Case Temp (C):	24.8
System Temp (C):	24.6
Spectrometer Temp (C):	22.1
CCD Temp (C):	0.004
Secondary Temp (C):	20.007
Heatsink Temp (C):	18.588
CCDPCB Temp (C):	31.827
SecondaryPCB Temp (C):	25.925

Wavelength	RamanShift	Raw Counts	Dark Subtracted
787.061	30.1047	681	273.45
787.2016	32.3739	691.9	285.95
787.3422	34.6426	711	303.9
787.4828	36.9109	725.7	315.65
787.6235	39.1787	751.2	337.75
787.7642	41.4461	779.95	361.95
787.9049	43.7131	803.65	381.3
788.0456	45.9796	833	409.5
788.1863	48.2456	857.25	428.7
788.3271	50.5112	889.1	458.4
788.4679	52.7764	914.45	479.05
788.6087	55.0411	950.05	511.75
788.7496	57.3054	981.65	538.6
788.8904	59.5692	1011.7	567.15
789.0313	61.8326	1054.75	605.15
789.1722	64.0955	1098.45	648.7
789.3132	66.3579	1148	692.85
789.4541	68.6199	1212.9	754.65
789.5951	70.8815	1320	856.8
789.7361	73.1426	1568.25	1099.25
789.8771	75.4032	2192.75	1720.7
790.0181	77.6634	3767.3	3292.7
790.1592	79.9231	7656.25	7175.8
790.3003	82.1824	16830.2	16340.85
790.4414	84.4412	38410.7	37904.7
790.5825	86.6995	55456.65	54928.95
790.7237	88.9574	60423.55	59878.25
790.8648	91.2148	62673.6	62118.35
791.006	93.4717	63258.5	62693.05
791.1472	95.7282	63577.95	63009.7
791.2885	97.9842	63731.3	63162.15
791.4297	100.2398	63709.75	63137.8
791.571	102.4949	63708	63132.7
791.7123	104.7495	63717.5	63137.3
791.8536	107.0036	63633.35	63052.05
791.9949	109.2573	63825.15	63248.75
792.1363	111.5105	63712.45	63131.25
792.2777	113.7632	63752.15	63166.45
792.4191	116.0154	63830.7	63236.2
792.5605	118.2672	63947.6	63355.1
792.7019	120.5185	63950.1	63360.2
792.8434	122.7693	63967	63372.55
792.9849	125.0197	63785.3	63185.4
793.1264	127.2696	64137.5	63533.9
793.2679	129.519	64062.3	63458.1
793.4094	131.7679	64191.85	63584.9
793.551	134.0163	63898.6	63287.35
793.6926	136.2642	64038.55	63426.75
793.8342	138.5117	64246.95	63627.9
793.9758	140.7587	64160.7	63541.65
794.1175	143.0052	64162.65	63539.5
794.2591	145.2512	63996.75	63373.8
794.4008	147.4967	64227.05	63603.05
794.5425	149.7417	64157.15	63531.5
794.6842	151.9863	64168.3	63538.8
794.826	154.2304	64078.8	63446
794.9677	156.4739	64137.7	63496.15
795.1095	158.717	64301.15	63661.55
795.2513	160.9596	64191.95	63544.2
795.3931	163.2017	64030.25	63383.8
795.535	165.4433	64217.85	63566.55
795.6768	167.6844	64136.9	63486.75
795.8187	169.925	64215.55	63562.9
795.9606	172.1651	64127.1	63469
796.1025	174.4047	64196.4	63538.95
796.2445	176.6439	64210.2	63547.35
796.3864	178.8825	64151.55	63489.8
796.5284	181.1206	64334.45	63662.5
796.6704	183.3582	64277.9	63603.6
796.8124	185.5954	64238.95	63561.75
796.9544	187.832	64274.1	63593.8
797.0965	190.0681	64136.95	63455.35
797.2386	192.3037	64326.35	63640.3
797.3806	194.5388	64537	63848.5
797.5228	196.7734	64050.2	63360.25
797.6649	199.0075	64506.5	63818.3
797.807	201.2411	64327.7	63636.95
797.9492	203.4742	64589.45	63896.05
798.0914	205.7068	64520.4	63820.05
798.2336	207.9389	64507.8	63806.45
798.3758	210.1704	64494.2	63800.1
798.518	212.4015	64654.4	63970.85
798.6603	214.632	64468.55	63790.2
798.8025	216.862	64677.65	63999.6
798.9448	219.0915	64557.5	63879.1
799.0871	221.3205	64544.3	63862.75
799.2294	223.549	64725.65	64051.75
799.3718	225.777	64682.65	64003.9
799.5141	228.0044	64766.05	64078.4
799.6565	230.2314	64707.45	64022.25
799.7989	232.4578	64720.2	64030.3
799.9413	234.6837	64746.1	64048.15
800.0837	236.909	64956.85	64257
800.2262	239.1339	64630.55	63905.25
800.3687	241.3582	64801.3	64091.85
800.5111	243.582	64796.7	64055.5
800.6536	245.8053	64796.9	64072.2
800.7961	248.0281	64810.85	64090.2
800.9387	250.2503	64855.35	64131.15
801.0812	252.472	64738.75	64010.35
801.2238	254.6932	64822.15	64093.7
801.3664	256.9139	64779.75	64051.25
801.509	259.134	64968.1	64233.15
801.6516	261.3536	64780.15	64051.5
801.7942	263.5727	64903.05	64168.95
801.9369	265.7912	64831.55	64100.95
802.0795	268.0092	64849.7	64114.15
802.2222	270.2267	64885.35	64149.45
802.3649	272.4436	64802.45	64066.85
802.5076	274.6601	64900.2	64151.25
802.6504	276.8759	64928.3	64185.4
802.7931	279.0913	64880.25	64136
802.9359	281.3061	64909.55	64167.3
803.0787	283.5204	64896	64148.65
803.2215	285.7341	64892.3	64142.45
803.3643	287.9473	64986.4	64225.15
803.5071	290.16	64910.1	64153.85
803.6499	292.3721	64944.3	64198.5
803.7928	294.5837	64889.35	64138.3
803.9357	296.7947	64829.9	64080.4
804.0786	299.0052	64970.8	64217.55
804.2215	301.2152	64910.55	64156.75
804.3644	303.4246	64976.25	64225.85
804.5074	305.6334	64966.4	64214.45
804.6503	307.8418	64872.25	64117.35
804.7933	310.0495	64888.3	64131.3
804.9363	312.2568	64876.35	64119.15
805.0793	314.4635	64875.05	64115.6
805.2223	316.6696	64918.75	64156.4
805.3653	318.8752	64976.25	64207.05
805.5084	321.0802	64781.85	64018.65
805.6514	323.2847	64859.6	64093.4
805.7945	325.4887	64863.05	64093.6
805.9376	327.692	64832	64064.8
806.0807	329.8949	64874.7	64104.55
806.2238	332.0972	64835.7	64064.5
806.367	334.2989	64880.6	64107.7
806.5101	336.5001	64945.35	64172.4
806.6533	338.7007	64797.95	64022.25
806.7965	340.9008	64869.25	64094.7
806.9397	343.1003	64889.1	64110.95
807.0829	345.2992	64929.9	64152.55
807.2261	347.4976	64842.35	64064.55
807.3693	349.6955	64894.55	64109.3
807.5126	351.8927	64831.9	64048.75
807.6559	354.0895	64908.95	64114.3
807.7991	356.2856	64902.7	64115.1
807.9424	358.4812	64953	64166.2
808.0857	360.6763	64827.85	64038.65
808.2291	362.8707	64943.8	64152.2
808.3724	365.0646	64874.2	64082.05
808.5158	367.258	64880.35	64085.75
808.6591	369.4508	64808.45	64009.4
808.8025	371.643	64917.25	64121.4
808.9459	373.8346	64862.45	64060.5
809.0893	376.0257	64890.95	64089.45
809.2327	378.2162	64858.4	64059.5
809.3762	380.4062	64775.9	63974.95
809.5196	382.5956	64851.3	64048.8
809.6631	384.7844	64850.95	64053.45
809.8066	386.9726	64883.5	64086.15
809.9501	389.1603	64871.4	64077.7
810.0936	391.3474	64811.05	63972.2
810.2371	393.5339	64885.75	64088.95
810.3806	395.7199	64760.3	63966.55
810.5241	397.9052	64790.45	63996.6
810.6677	400.09	64817.2	64018.65
810.8113	402.2743	64890.9	64096.5
810.9548	404.4579	64793.4	63994.4
811.0984	406.641	64802.6	64002.9
811.2421	408.8235	64835.2	64035.5
811.3857	411.0054	64856.55	64052.65
811.5293	413.1868	64860.2	64054.05
811.673	415.3675	64825.25	64014.6
811.8166	417.5477	64825.6	64016.75
811.9603	419.7273	64822.55	64011.85
812.104	421.9064	64802.4	63979
812.2477	424.0848	64825.35	64010.7
812.3914	426.2627	64887.35	64073.5
812.5351	428.4399	64775.95	63959.9
812.6788	430.6166	64682.1	63861.35
812.8226	432.7928	64802.2	63979.9
812.9663	434.9683	64720.95	63900.55
813.1101	437.1432	64725.2	63904.45
813.2539	439.3176	64798.95	63981.75
813.3977	441.4914	64637.65	63819.95
813.5415	443.6645	64670.1	63850.65
813.6853	445.8371	64705.55	63883.6
813.8291	448.0091	64619.5	63795.45
813.973	450.1806	64569.2	63748.35
814.1168	452.3514	64591.05	63769.1
814.2607	454.5216	64509.4	63679.45
814.4046	456.6913	64618.95	63793.55
814.5485	458.8603	64655.55	63831.45
814.6924	461.0288	64498.45	63678.5
814.8363	463.1967	64629.15	63808.15
814.9802	465.3639	64617.2	63793.45
815.1241	467.5306	64368.45	63544.2
815.2681	469.6967	64532.2	63708.05
815.412	471.8622	64595.45	63771.4
815.556	474.0271	64503.25	63680.1
815.7	476.1914	64541.45	63713.15
815.844	478.3551	64533.8	63705.95
815.988	480.5182	64674.2	63846.6
816.132	482.6807	64473	63648.35
816.276	484.8426	64484.4	63660.35
816.4201	487.0039	64642.65	63816.65
816.5641	489.1647	64635.95	63806.2
816.7082	491.3248	64432.25	63600
816.8522	493.4843	64656.8	63830.5
816.9963	495.6432	64665.6	63837.8
817.1404	497.8015	64443.45	63608.4
817.2845	499.9592	64577.75	63739.5
817.4286	502.1163	64566.15	63728.8
817.5727	504.2728	64554.4	63718.85
817.7168	506.4287	64532.6	63701.1
817.861	508.5839	64438.65	63606.85
818.0051	510.7386	64529.65	63695.2
818.1493	512.8927	64529.55	63689.05
818.2935	515.0461	64484.65	63645.5
818.4377	517.199	64600.05	63762.75
818.5818	519.3512	64494.35	63652.35
818.726	521.5029	64503.4	63660.45
818.8703	523.6539	64511.55	63669.85
819.0145	525.8043	64335.7	63496.3
819.1587	527.9541	64485.3	63641.3
819.303	530.1033	64497.35	63654.4
819.4472	532.2519	64425.95	63583.05
819.5915	534.3999	64523.15	63677.45
819.7357	536.5472	64565.45	63722.15
819.88	538.694	64334.5	63493.85
820.0243	540.8401	64460.9	63618.6
820.1686	542.9856	64495.3	63647.15
820.3129	545.1305	64555.2	63705.55
820.4572	547.2748	64431.5	63580.2
820.6016	549.4185	64411.95	63556.6
820.7459	551.5615	64526.15	63675.4
820.8902	553.704	64481.55	63631.05
821.0346	555.8458	64390	63539.4
821.1789	557.987	64431.4	63582.9
821.3233	560.1276	64480.05	63629.05
821.4677	562.2675	64427.55	63578
821.6121	564.4069	64451.2	63596.95
821.7565	566.5456	64504.55	63653.45
821.9009	568.6837	64343.25	63494.4
822.0453	570.8212	64438.2	63587.5
822.1897	572.958	64218.5	63365.85
822.3342	575.0942	64411.75	63564.6
822.4786	577.2299	64274.1	63423.9
822.6231	579.3648	64256.9	63411.7
822.7675	581.4992	64208.1	63366.65
822.912	583.6329	64191.65	63349.25
823.0565	585.766	64171.2	63326.95
823.201	587.8985	64241.4	63395.3
823.3454	590.0304	64018.9	63146.15
823.4899	592.1616	64174.9	63320.6
823.6345	594.2922	64099.55	63241.95
823.779	596.4222	63986.1	63127.15
823.9235	598.5515	64015.8	63155
824.068	600.6802	64078.8	63220.35
824.2126	602.8083	63930.7	63074.45
824.3571	604.9358	63916.2	63056.65
824.5017	607.0626	64071.7	63212.5
824.6462	609.1888	63837.7	62976.05
824.7908	611.3144	63978.75	63118.95
824.9354	613.4393	63896.55	63035.1
825.08	615.5636	63812.4	62950.8
825.2246	617.6873	63912.6	63052.1
825.3692	619.8103	63774.75	62909.95
825.5138	621.9327	63935.15	63070.4
825.6584	624.0544	63932.75	63074.7
825.803	626.1756	63832.05	62971.15
825.9477	628.2961	63848.65	62985.65
826.0923	630.4159	63775.45	62912.1
826.237	632.5351	63769.1	62904.3
826.3816	634.6537	63990.45	63125.45
826.5263	636.7716	63743.5	62874.65
826.6709	638.8889	63788.4	62920.65
826.8156	641.0056	63766.2	62896.95
826.9603	643.1216	63817.15	62949.2
827.105	645.237	63856.25	62988.1
827.2497	647.3518	63712.35	62844.85
827.3944	649.4659	63744.6	62882.95
827.5391	651.5793	63748.95	62887.1
827.6838	653.6922	63784.85	62921.1
827.8285	655.8043	63595.3	62731.1
827.9733	657.9159	63838.65	62972.55
828.118	660.0268	63414.65	62548.95
828.2627	662.137	63657.2	62788
828.4075	664.2466	63688.65	62813.7
828.5522	666.3556	63603.65	62732.85
828.697	668.4639	63656.25	62786.85
828.8418	670.5716	63545.8	62676.4
828.9865	672.6786	63624.55	62750.55
829.1313	674.785	63509.7	62635
829.2761	676.8907	63527.25	62655.3
829.4209	678.9958	63565.4	62697.4
829.5657	681.1002	63579.95	62706.85
829.7105	683.204	63431.7	62553.55
829.8553	685.3072	63374.6	62500.2
830.0001	687.4097	63445.7	62572.8
830.1449	689.5115	63410.7	62536.25
830.2898	691.6127	63530.25	62657.85
830.4346	693.7132	63353.65	62480.8
830.5794	695.8131	63401.45	62507.3
830.7243	697.9123	63434.5	62559.75
830.8691	700.0109	63449.15	62572.4
831.014	702.1089	63255.2	62377.95
831.1588	704.2061	63324.8	62450.6
831.3037	706.3028	63328.4	62452.65
831.4486	708.3987	63340.15	62463.9
831.5935	710.4941	63274.05	62399.95
831.7383	712.5887	63367.6	62491.25
831.8832	714.6827	63253.2	62371.55
832.0281	716.7761	63341.55	62466.3
832.173	718.8688	63350.65	62473.65
832.3179	720.9608	63230.6	62349.5
832.4628	723.0522	63250.45	62367.3
832.6077	725.1429	63119.85	62240.9
832.7527	727.233	63428.95	62549.05
832.8976	729.3224	63013.3	62132.45
833.0425	731.4112	63132.6	62250.95
833.1874	733.4993	63145.85	62260.2
833.3324	735.5867	63153.85	62271.4
833.4773	737.6735	63056.2	62170.95
833.6222	739.7596	62963.95	62082.7
833.7672	741.845	62973.35	62093
833.9122	743.9298	63092.85	62208.6
834.0571	746.014	62932.5	62051.3
834.2021	748.0974	62843.25	61957.1
834.347	750.1802	62998.95	62113.35
834.492	752.2624	62762.45	61878.7
834.637	754.3439	62782.2	61893.15
834.782	756.4247	62834.4	61938.5
834.9269	758.5048	62698.45	61813.35
835.0719	760.5843	62751.95	61868.75
835.2169	762.6631	62757.45	61871
835.3619	764.7413	62700.05	61815.55
835.5069	766.8188	62716.5	61829.4
835.6519	768.8956	62732.65	61842.1
835.7969	770.9718	62745.65	61861.5
835.9419	773.0473	62674.15	61787.95
836.0869	775.1221	62585.85	61701.25
836.232	777.1962	62550.35	61664.25
836.377	779.2697	62457.6	61569.4
836.522	781.3426	62489.55	61582.9
836.667	783.4147	62518.35	61632.3
836.8121	785.4862	62473.6	61587.85
836.9571	787.557	62404.55	61516.95
837.1021	789.6271	62456.4	61569.75
837.2472	791.6966	62346.05	61457.25
837.3922	793.7654	62271.4	61382.95
837.5373	795.8335	62286.75	61399.4
837.6823	797.901	62263.9	61375.55
837.8274	799.9678	62228.75	61337.4
837.9724	802.0339	62177.4	61288.85
838.1175	804.0993	62186.4	61288.75
838.2626	806.1641	62146.15	61255.45
838.4076	808.2282	62118.2	61228.3
838.5527	810.2916	62124.55	61234
838.6978	812.3544	62136.4	61252.85
838.8428	814.4164	62036.45	61146.95
838.9879	816.4778	62055.15	61161.15
839.133	818.5385	62027	61135.75
839.2781	820.5986	62031.75	61138.85
839.4232	822.658	62050.2	61158.15
839.5682	824.7166	61987.6	61095.4
839.7133	826.7747	61953.4	61061.8
839.8584	828.832	61989.55	61099.25
840.0035	830.8886	61994.4	61099.8
840.1486	832.9446	61991.45	61099.2
840.2937	834.9999	61866.8	60975.8
840.4388	837.0545	61859.85	60961
840.5839	839.1085	61883.05	60989.95
840.729	841.1618	61849.7	60953.1
840.8741	843.2143	61760	60867.8
841.0192	845.2662	61750	60858.65
841.1643	847.3175	61753.4	60859.15
841.3095	849.368	61678.15	60784.95
841.4546	851.4179	61687	60793.45
841.5997	853.467	61615.8	60725.5
841.7448	855.5155	61643.9	60750.25
841.8899	857.5633	61575.4	60683.85
842.0351	859.6105	61542.55	60649.75
842.1802	861.6569	61530.8	60639.4
842.3253	863.7027	61489.25	60593.9
842.4704	865.7478	61509.2	60615.35
842.6156	867.7922	61477.7	60582.3
842.7607	869.8359	61479.7	60585.7
842.9058	871.8789	61416.15	60519.6
843.0509	873.9212	61447	60516.95
843.1961	875.9629	61388.95	60495.05
843.3412	878.0039	61394.85	60496.6
843.4863	880.0441	61342.35	60447.65
843.6315	882.0837	61357	60460.55
843.7766	884.1226	61367.6	60472.45
843.9218	886.1609	61352.8	60460.35
844.0669	888.1984	61326.4	60432.2
844.212	890.2352	61404.5	60507.4
844.3572	892.2714	61299.9	60400.3
844.5023	894.3069	61326.55	60430
844.6475	896.3416	61258.15	60361.7
844.7926	898.3757	61236.6	60340.05
844.9377	900.4091	61203.05	60307.5
845.0829	902.4418	61209.8	60309.75
845.228	904.4739	61131.1	60234.25
845.3732	906.5052	61184.55	60289.9
845.5183	908.5358	61119.7	60222.9
845.6635	910.5658	61098	60198
845.8086	912.595	61040.2	60143.95
845.9538	914.6236	60987.65	60092.55
846.0989	916.6515	61052.9	60152.2
846.2441	918.6786	60947.65	60046.55
846.3892	920.7051	60950.15	60049.6
846.5344	922.7309	60967.75	60070.2
846.6795	924.756	60918.9	60019.3
846.8246	926.7804	60896.05	59994.4
846.9698	928.8041	60764.85	59863
847.1149	930.8272	60812.4	59911.8
847.2601	932.8495	60755.4	59854.5
847.4052	934.8711	60743.2	59840.25
847.5504	936.892	60669.25	59767.75
847.6955	938.9123	60656.65	59756.15
847.8407	940.9318	60623.3	59724.85
847.9858	942.9506	60580.35	59681.2
848.131	944.9688	60559.25	59663.3
848.2761	946.9862	60463.65	59564.25
848.4213	949.003	60451	59552
848.5664	951.019	60344.1	59443.2
848.7115	953.0344	60330.55	59430.05
848.8567	955.0491	60309.05	59409.4
849.0018	957.063	60326.95	59427.35
849.147	959.0763	60352.5	59453
849.2921	961.0888	60259.3	59358.55
849.4373	963.1007	60317.7	59418.2
849.5824	965.1119	60286.95	59388.4
849.7275	967.1223	60216.9	59322.65
849.8727	969.1321	60254.95	59360.8
850.0178	971.1412	60158.15	59262.1
850.1629	973.1495	60085.05	59188.55
850.3081	975.1572	60140.9	59204.05
850.4532	977.1641	60053.15	59153
850.5983	979.1704	60037.2	59137.05
850.7435	981.1759	60024.45	59121.5
850.8886	983.1808	59959.85	59056.2
851.0337	985.1849	59943.6	59034.5
851.1788	987.1884	59920.55	59020.35
851.324	989.1911	59939.45	59034.85
851.4691	991.1932	59774.85	58871.55
851.6142	993.1945	59740.9	58839.4
851.7593	995.1951	59742.8	58841.75
851.9045	997.1951	59653.3	58746.7
852.0496	999.1943	59595.95	58692.4
852.1947	1001.1928	59543.2	58642
852.3398	1003.1906	59516.8	58613.05
852.4849	1005.1877	59402.1	58498.85
852.63	1007.1841	59322	58423.85
852.7751	1009.1798	59325.45	58426.3
852.9202	1011.1748	59289.6	58390.9
853.0653	1013.1691	59279.3	58377.5
853.2104	1015.1627	58989.6	58088.25
853.3555	1017.1556	59048.85	58148.15
853.5006	1019.1477	59052.2	58150.55
853.6457	1021.1392	58910.6	58013.2
853.7908	1023.1299	58748.85	57851.8
853.9359	1025.12	58791.6	57892.15
854.081	1027.1093	58681.45	57790.85
854.2261	1029.0979	58634.15	57743.15
854.3712	1031.0859	58625.85	57734.25
854.5163	1033.0731	58489.5	57591.3
854.6613	1035.0596	58529.2	57633.15
854.8064	1037.0454	58433.1	57534
854.9515	1039.0304	58369.65	57469.85
855.0965	1041.0148	58131.6	57230.55
855.2416	1042.9985	58175.1	57274.75
855.3867	1044.9814	58289.9	57390.95
855.5317	1046.9636	58038.55	57135.75
855.6768	1048.9452	58056.4	57155.85
855.8219	1050.926	57995.55	57095.85
855.9669	1052.9061	57961.85	57061.75
856.112	1054.8855	57961.95	57058.15
856.257	1056.8642	57871.1	56971.4
856.4021	1058.8421	57777.9	56871.6
856.5471	1060.8194	57799.8	56897.3
856.6921	1062.7959	57709.7	56804.8
856.8372	1064.7717	57820.9	56919.7
856.9822	1066.7469	57745.2	56841.2
857.1272	1068.7213	57716.55	56814.4
857.2723	1070.695	57640.95	56740.5
857.4173	1072.6679	57525.45	56621.4
857.5623	1074.6402	57589.75	56684.1
857.7073	1076.6117	57486.2	56578.7
857.8523	1078.5826	57483.75	56577.95
857.9973	1080.5527	57455.55	56549.45
858.1423	1082.5221	57332.25	56430.95
858.2873	1084.4908	57334.8	56434.2
858.4323	1086.4587	57260.7	56357
858.5773	1088.426	57243.85	56340
858.7223	1090.3925	57179.35	56272.6
858.8673	1092.3584	57180.1	56276.85
859.0123	1094.3235	57035.4	56132.85
859.1573	1096.2879	56999.4	56094.45
859.3022	1098.2515	57038.9	56137
859.4472	1100.2145	56974.65	56071.4
859.5922	1102.1767	56892.65	55992.35
859.7371	1104.1382	56954.5	56054.05
859.8821	1106.099	56874.05	55969.45
860.027	1108.0591	56822.5	55920.5
860.172	1110.0185	56672.6	55769.05
860.3169	1111.9771	56802.3	55901.15
860.4619	1113.9351	56700.95	55797.4
860.6068	1115.8923	56613.2	55712.9
860.7517	1117.8488	56475.1	55569.25
860.8967	1119.8045	56350.2	55445.6
861.0416	1121.7596	56399.8	55498.55
861.1865	1123.7139	56322.8	55423.8
861.3314	1125.6675	56313.75	55411.55
861.4763	1127.6204	56285.45	55385.15
861.6212	1129.5726	56112.15	55208.25
861.7661	1131.524	56185	55283.5
861.911	1133.4748	56156.9	55254.1
862.0559	1135.4248	56017.3	55115.5
862.2008	1137.3741	55994.85	55091.45
862.3457	1139.3226	55914.95	55013.1
862.4905	1141.2705	55916.35	55012.75
862.6354	1143.2176	55811.65	54905.3
862.7803	1145.164	55714.35	54810.75
862.9251	1147.1097	55755.75	54853.85
863.07	1149.0546	55723.9	54822.15
863.2148	1150.9989	55737.75	54834.4
863.3597	1152.9424	55554.2	54651.35
863.5045	1154.8852	55666.85	54763.15
863.6493	1156.8272	55497.5	54594.9
863.7942	1158.7686	55651.7	54741.8
863.939	1160.7092	55408.4	54503.1
864.0838	1162.6491	55416.95	54512.35
864.2286	1164.5883	55435.45	54532.35
864.3734	1166.5267	55306.35	54401.2
864.5182	1168.4644	55380.4	54477.9
864.663	1170.4014	55321.45	54415.85
864.8078	1172.3377	55387.5	54486.9
864.9526	1174.2732	55489.65	54587.3
865.0974	1176.2081	55376.3	54476.45
865.2421	1178.1421	55331.7	54426.95
865.3869	1180.0755	55471	54568.95
