Software Version:	3.9.2.0
Unit SN:	10000200
Spectrometer SN:	6960
Date:	3/6/2024 9:44:12 AM
Data Line Index:	25
Spectral Points:	2048
Integration time (ms):	125
Averages:	20
Delay (ms):	30
Sequence Number:	1
Processing:	dark subtract
Laser Power (mW):	305
Laser Current (mA):	823
Laser Diode Temp (C):	25.1
Laser Case Temp (C):	24
System Temp (C):	23.9
Spectrometer Temp (C):	21.4
CCD Temp (C):	-0.027
Secondary Temp (C):	20.01
Heatsink Temp (C):	17.918
CCDPCB Temp (C):	30.927
SecondaryPCB Temp (C):	25.647

Wavelength	RamanShift	Raw Counts	Dark Subtracted
787.061	30.1047	455.65	47.7
787.2016	32.3739	457.25	50.3
787.3422	34.6426	462.5	56.55
787.4828	36.9109	466.1	56.25
787.6235	39.1787	473.4	61.4
787.7642	41.4461	480.4	64.35
787.9049	43.7131	490.45	70.85
788.0456	45.9796	493.3	70.2
788.1863	48.2456	501.8	75.6
788.3271	50.5112	509.45	78.4
788.4679	52.7764	519.15	86.35
788.6087	55.0411	530.25	92.9
788.7496	57.3054	538.9	95.65
788.8904	59.5692	546.6	103.95
789.0313	61.8326	557.8	112.55
789.1722	64.0955	566.1	117.05
789.3132	66.3579	580.9	125.85
789.4541	68.6199	600.75	142.2
789.5951	70.8815	621.2	159.3
789.7361	73.1426	682.3	217.15
789.8771	75.4032	823	354.2
790.0181	77.6634	1167.95	695.55
790.1592	79.9231	1983.35	1507.4
790.3003	82.1824	3710.3	3229.3
790.4414	84.4412	6720.25	6229.8
790.5825	86.6995	10786.15	10284.6
790.7237	88.9574	14771.65	14260.9
790.8648	91.2148	17708.05	17191.85
791.006	93.4717	19335.1	18812.65
791.1472	95.7282	20035.5	19511.8
791.2885	97.9842	20398.25	19872
791.4297	100.2398	20535.55	20004
791.571	102.4949	20587.2	20052.8
791.7123	104.7495	20602.65	20066.15
791.8536	107.0036	20586.35	20047.3
791.9949	109.2573	20618.55	20082.6
792.1363	111.5105	20669.2	20128.6
792.2777	113.7632	20581.3	20042.05
792.4191	116.0154	20661.7	20109.75
792.5605	118.2672	20710.7	20165.8
792.7019	120.5185	20706.1	20159.1
792.8434	122.7693	20759.45	20211.65
792.9849	125.0197	20811.8	20258.2
793.1264	127.2696	20789.3	20231.5
793.2679	129.519	20878.75	20316.25
793.4094	131.7679	20942.55	20377
793.551	134.0163	20975.1	20407.4
793.6926	136.2642	20976.6	20406.55
793.8342	138.5117	21004.65	20431.5
793.9758	140.7587	21012.15	20436.5
794.1175	143.0052	21050.35	20473.9
794.2591	145.2512	21045.3	20466.7
794.4008	147.4967	20999.5	20421.35
794.5425	149.7417	20991	20408.3
794.6842	151.9863	21008.1	20422.75
794.826	154.2304	21036.95	20447.35
794.9677	156.4739	20978.25	20382.2
795.1095	158.717	21038.05	20442.95
795.2513	160.9596	21059.25	20455.15
795.3931	163.2017	21083.75	20478.25
795.535	165.4433	21097.8	20491.25
795.6768	167.6844	21117.85	20511.15
795.8187	169.925	21095.05	20485.6
795.9606	172.1651	21058.85	20446.3
796.1025	174.4047	21077.5	20460.85
796.2445	176.6439	21067.6	20451.45
796.3864	178.8825	21070.45	20450.1
796.5284	181.1206	21116.6	20492.5
796.6704	183.3582	21068.8	20442.7
796.8124	185.5954	21117	20487.1
796.9544	187.832	21163.5	20530.65
797.0965	190.0681	21199.3	20561.55
797.2386	192.3037	21281.85	20640.9
797.3806	194.5388	21271.05	20630.25
797.5228	196.7734	21326.3	20683.5
797.6649	199.0075	21381.55	20737.8
797.807	201.2411	21488.5	20842.4
797.9492	203.4742	21534.5	20887.9
798.0914	205.7068	21645.1	20990.75
798.2336	207.9389	21630.55	20975.6
798.3758	210.1704	21685.9	21038.75
798.518	212.4015	21684.1	21044.9
798.6603	214.632	21753.85	21120.45
798.8025	216.862	21747.3	21116.15
798.9448	219.0915	21767.85	21134.85
799.0871	221.3205	21838.15	21200.4
799.2294	223.549	21859.25	21226.6
799.3718	225.777	21877.85	21243
799.5141	228.0044	21919.15	21274.9
799.6565	230.2314	21963.3	21320.65
799.7989	232.4578	21990.25	21343.95
799.9413	234.6837	21976	21318.75
800.0837	236.909	22028	21369.85
800.2262	239.1339	22046.95	21367.15
800.3687	241.3582	22041.5	21375.8
800.5111	243.582	22065.75	21367.4
800.6536	245.8053	22128.15	21444.15
800.7961	248.0281	22088	21409.55
800.9387	250.2503	22127.7	21446.7
801.0812	252.472	22138.25	21455.95
801.2238	254.6932	22204.75	21519.55
801.3664	256.9139	22163.4	21477.95
801.509	259.134	22205.05	21515.95
801.6516	261.3536	22199.6	21512.3
801.7942	263.5727	22249.85	21559.5
801.9369	265.7912	22229.4	21539.5
802.0795	268.0092	22275.05	21584.25
802.2222	270.2267	22316.85	21623.75
802.3649	272.4436	22353.25	21661.15
802.5076	274.6601	22393.35	21688.75
802.6504	276.8759	22361.6	21665.3
802.7931	279.0913	22408.3	21709.15
802.9359	281.3061	22429.5	21729.25
803.0787	283.5204	22491.35	21787.5
803.2215	285.7341	22482.7	21775.95
803.3643	287.9473	22519.05	21803
803.5071	290.16	22513.1	21805.7
803.6499	292.3721	22501.6	21796.95
803.7928	294.5837	22531.45	21826.6
803.9357	296.7947	22442.8	21737.45
804.0786	299.0052	22444.65	21738.95
804.2215	301.2152	22420.25	21710.25
804.3644	303.4246	22443.25	21737.6
804.5074	305.6334	22395.5	21685
804.6503	307.8418	22391.65	21678.55
804.7933	310.0495	22370.85	21654.75
804.9363	312.2568	22341.45	21627.75
805.0793	314.4635	22254.7	21539.9
805.2223	316.6696	22240.6	21522.05
805.3653	318.8752	22191.7	21463.65
805.5084	321.0802	22159.15	21438.15
805.6514	323.2847	22126.4	21405.2
805.7945	325.4887	22099.5	21377.5
805.9376	327.692	22103.55	21379
806.0807	329.8949	22178.4	21456.3
806.2238	332.0972	22189.4	21463.05
806.367	334.2989	22233.3	21501.6
806.5101	336.5001	22205.45	21474.45
806.6533	338.7007	22195.7	21463.25
806.7965	340.9008	22217.6	21483.4
806.9397	343.1003	22174.35	21440.9
807.0829	345.2992	22166.4	21431.8
807.2261	347.4976	22123.05	21387.25
807.3693	349.6955	22082.05	21339.35
807.5126	351.8927	22149.05	21405.05
807.6559	354.0895	22057	21304.55
807.7991	356.2856	22090.1	21345.4
807.9424	358.4812	22038	21296.6
808.0857	360.6763	22120.1	21372
808.2291	362.8707	22019.4	21271.05
808.3724	365.0646	22083.05	21332.15
808.5158	367.258	22028.7	21276.6
808.6591	369.4508	21991.35	21236.35
808.8025	371.643	22064.6	21306.1
808.9459	373.8346	22008.25	21248.6
809.0893	376.0257	21971.3	21210.6
809.2327	378.2162	21953.75	21195.8
809.3762	380.4062	21975.45	21213.4
809.5196	382.5956	21885.75	21126.2
809.6631	384.7844	21898.25	21144.85
809.8066	386.9726	21787.3	21033.75
809.9501	389.1603	21791.7	21038.15
810.0936	391.3474	21771	20976.7
810.2371	393.5339	21731.5	20974.75
810.3806	395.7199	21689.15	20936.55
810.5241	397.9052	21701.55	20947.65
810.6677	400.09	21698.5	20944.4
810.8113	402.2743	21683.8	20926.7
810.9548	404.4579	21686.9	20929.55
811.0984	406.641	21745.65	20985.7
811.2421	408.8235	21786.25	21024.75
811.3857	411.0054	21813.05	21047.45
811.5293	413.1868	21859.4	21091.55
811.673	415.3675	21899.95	21128
811.8166	417.5477	21904.2	21132.5
811.9603	419.7273	21869.25	21092.35
812.104	421.9064	21737.7	20959.65
812.2477	424.0848	21632.2	20857.05
812.3914	426.2627	21537.05	20759.65
812.5351	428.4399	21530.1	20754.25
812.6788	430.6166	21425.4	20644.85
812.8226	432.7928	21376.6	20595.1
812.9663	434.9683	21306.85	20525.55
813.1101	437.1432	21271.65	20489
813.2539	439.3176	21159.65	20377.75
813.3977	441.4914	21129.6	20347.4
813.5415	443.6645	21113.75	20331.2
813.6853	445.8371	21015.2	20232.95
813.8291	448.0091	20992.55	20208.95
813.973	450.1806	20924.55	20139.25
814.1168	452.3514	20829.35	20043.1
814.2607	454.5216	20848.95	20054.7
814.4046	456.6913	20757.25	19968.95
814.5485	458.8603	20757.25	19973.05
814.6924	461.0288	20767.8	19981.2
814.8363	463.1967	20737.05	19951.65
814.9802	465.3639	20728.55	19941.05
815.1241	467.5306	20677.45	19888.65
815.2681	469.6967	20640.9	19851.75
815.412	471.8622	20581.7	19794.8
815.556	474.0271	20558.5	19770.45
815.7	476.1914	20531.5	19737.75
815.844	478.3551	20547.2	19754.65
815.988	480.5182	20580.3	19790.15
816.132	482.6807	20563.55	19770.35
816.276	484.8426	20581.25	19790.25
816.4201	487.0039	20609.35	19816.3
816.5641	489.1647	20632.25	19835.5
816.7082	491.3248	20695	19899.85
816.8522	493.4843	20650.45	19856.2
816.9963	495.6432	20650.3	19854.5
817.1404	497.8015	20565.95	19765.4
817.2845	499.9592	20593.2	19795.2
817.4286	502.1163	20540.4	19742.55
817.5727	504.2728	20466.95	19666.45
817.7168	506.4287	20529	19732.85
817.861	508.5839	20397.35	19598.3
818.0051	510.7386	20414.9	19615.55
818.1493	512.8927	20431.85	19629.4
818.2935	515.0461	20413.05	19609.9
818.4377	517.199	20368.45	19567.45
818.5818	519.3512	20374.95	19569.45
818.726	521.5029	20413.7	19605.7
818.8703	523.6539	20458.9	19653.6
819.0145	525.8043	20423.65	19617.5
819.1587	527.9541	20367.9	19556.05
819.303	530.1033	20344.65	19538.3
819.4472	532.2519	20273.8	19468.1
819.5915	534.3999	20218.9	19407.75
819.7357	536.5472	20200	19389.65
819.88	538.694	20173.55	19363.3
820.0243	540.8401	20228.7	19417.7
820.1686	542.9856	20203.05	19393.1
820.3129	545.1305	20177.8	19363.5
820.4572	547.2748	20218.65	19403.4
820.6016	549.4185	20219.55	19402.75
820.7459	551.5615	20156.35	19341.15
820.8902	553.704	20145.75	19330.75
821.0346	555.8458	20117.55	19303.2
821.1789	557.987	20109.9	19295.85
821.3233	560.1276	20141.6	19326.2
821.4677	562.2675	20185.25	19372.2
821.6121	564.4069	20145.1	19330.4
821.7565	566.5456	20081.5	19267.95
821.9009	568.6837	20112.75	19299.4
822.0453	570.8212	20027.05	19211.3
822.1897	572.958	19980	19161.15
822.3342	575.0942	19885.65	19071.6
822.4786	577.2299	19845.8	19028.35
822.6231	579.3648	19772.25	18958
822.7675	581.4992	19676.55	18861.85
822.912	583.6329	19647.3	18832.85
823.0565	585.766	19591.9	18777.55
823.201	587.8985	19550.95	18733.95
823.3454	590.0304	19533	18703.2
823.4899	592.1616	19524.95	18703.45
823.6345	594.2922	19469.3	18646.45
823.779	596.4222	19403.45	18579.35
823.9235	598.5515	19334.65	18511.7
824.068	600.6802	19276.25	18454.05
824.2126	602.8083	19205.45	18382.85
824.3571	604.9358	19214.15	18388.4
824.5017	607.0626	19118.4	18293.65
824.6462	609.1888	19137.8	18309.7
824.7908	611.3144	19115.4	18287.9
824.9354	613.4393	19103.75	18278.75
825.08	615.5636	19118.85	18289.6
825.2246	617.6873	19110.65	18283.85
825.3692	619.8103	19124.65	18294.95
825.5138	621.9327	19083.25	18251.4
825.6584	624.0544	19066.6	18237.7
825.803	626.1756	19034.55	18206.4
825.9477	628.2961	18978.4	18147.85
826.0923	630.4159	18915.25	18084.35
826.237	632.5351	18879.65	18048.5
826.3816	634.6537	18880.05	18048.4
826.5263	636.7716	18870.5	18035.25
826.6709	638.8889	18858.3	18028.5
826.8156	641.0056	18858.15	18025.6
826.9603	643.1216	18814	17978.9
827.105	645.237	18867.8	18035.55
827.2497	647.3518	18806.2	17974.05
827.3944	649.4659	18776.95	17945.85
827.5391	651.5793	18755.75	17922.95
827.6838	653.6922	18711.8	17878.75
827.8285	655.8043	18679.3	17846.1
827.9733	657.9159	18637.4	17802.85
828.118	660.0268	18598	17761.65
828.2627	662.137	18539.05	17706.25
828.4075	664.2466	18561.65	17722.45
828.5522	666.3556	18560.75	17721.85
828.697	668.4639	18504.7	17664.85
828.8418	670.5716	18511.35	17675.75
828.9865	672.6786	18491.2	17650.95
829.1313	674.785	18433.5	17591.65
829.2761	676.8907	18373.65	17538.6
829.4209	678.9958	18369.55	17531.6
829.5657	681.1002	18297.65	17457.8
829.7105	683.204	18315.65	17473.5
829.8553	685.3072	18260.75	17420.25
830.0001	687.4097	18233.6	17393.35
830.1449	689.5115	18274.5	17432.4
830.2898	691.6127	18249.85	17409.25
830.4346	693.7132	18191.9	17351.15
830.5794	695.8131	18230.7	17366.65
830.7243	697.9123	18185.8	17344.1
830.8691	700.0109	18159.2	17315.45
831.014	702.1089	18161.65	17319.15
831.1588	704.2061	18110.75	17269.3
831.3037	706.3028	18094.55	17248.05
831.4486	708.3987	18107.3	17260.6
831.5935	710.4941	18070.45	17226.65
831.7383	712.5887	18053.35	17208.15
831.8832	714.6827	18062.65	17212.05
832.0281	716.7761	18023.8	17178.6
832.173	718.8688	18029.65	17182.15
832.3179	720.9608	18011.15	17162.45
832.4628	723.0522	17998.2	17146.25
832.6077	725.1429	17951.8	17105.55
832.7527	727.233	17953	17106.55
832.8976	729.3224	18046.85	17200.1
833.0425	731.4112	18000.45	17153.9
833.1874	733.4993	17930.7	17080
833.3324	735.5867	17921.65	17072.95
833.4773	737.6735	17837.5	16987.3
833.6222	739.7596	17773.15	16923.5
833.7672	741.845	17718.95	16869.6
833.9122	743.9298	17723.9	16871.9
834.0571	746.014	17698.85	16850.55
834.2021	748.0974	17675	16823.6
834.347	750.1802	17641.4	16789
834.492	752.2624	17592.05	16741.7
834.637	754.3439	17499.6	16646.35
834.782	756.4247	17461.8	16600.35
834.9269	758.5048	17382.05	16529.75
835.0719	760.5843	17369.5	16514.9
835.2169	762.6631	17351.65	16499.65
835.3619	764.7413	17312.95	16461.9
835.5069	766.8188	17387.7	16533.85
835.6519	768.8956	17344.75	16488.5
835.7969	770.9718	17363.7	16510.85
835.9419	773.0473	17292.05	16437.75
836.0869	775.1221	17264.25	16409.9
836.232	777.1962	17209.6	16355.2
836.377	779.2697	17177.75	16323.15
836.522	781.3426	17192.65	16318.15
836.667	783.4147	17183.45	16329.75
836.8121	785.4862	17158.95	16305.6
836.9571	787.557	17076.35	16221.85
837.1021	789.6271	17021.7	16165.15
837.2472	791.6966	16957.25	16101.8
837.3922	793.7654	16833.85	15976.15
837.5373	795.8335	16822.1	15965.8
837.6823	797.901	16737.75	15881.05
837.8274	799.9678	16729.85	15871.5
837.9724	802.0339	16689.1	15833.95
838.1175	804.0993	16694.35	15827
838.2626	806.1641	16635.95	15777.25
838.4076	808.2282	16596.85	15740.3
838.5527	810.2916	16578.05	15717.05
838.6978	812.3544	16541.05	15685.95
838.8428	814.4164	16535.85	15679.15
838.9879	816.4778	16535.9	15674
839.133	818.5385	16481.05	15621.05
839.2781	820.5986	16506	15646
839.4232	822.658	16498.25	15637.5
839.5682	824.7166	16499.7	15642.2
839.7133	826.7747	16549.6	15690.9
839.8584	828.832	16536.85	15676.9
840.0035	830.8886	16504.25	15641.9
840.1486	832.9446	16511	15650.2
840.2937	834.9999	16461.55	15602.8
840.4388	837.0545	16433.15	15570.7
840.5839	839.1085	16336.55	15475.05
840.729	841.1618	16283.6	15419.05
840.8741	843.2143	16242.65	15382.65
841.0192	845.2662	16146.4	15285.9
841.1643	847.3175	16149.05	15288.8
841.3095	849.368	16128.95	15267.7
841.4546	851.4179	16056.55	15195.1
841.5997	853.467	16012.4	15150.3
841.7448	855.5155	16027.95	15164.95
841.8899	857.5633	15979.8	15116.9
842.0351	859.6105	15913.4	15048.9
842.1802	861.6569	15946.85	15081.8
842.3253	863.7027	15883.2	15018
842.4704	865.7478	15845.8	14979.95
842.6156	867.7922	15848.35	14983.05
842.7607	869.8359	15796.95	14931
842.9058	871.8789	15808.65	14943.35
843.0509	873.9212	15804.75	14909.1
843.1961	875.9629	15731.8	14868.45
843.3412	878.0039	15736.5	14870.3
843.4863	880.0441	15724.2	14861.7
843.6315	882.0837	15734.3	14868.85
843.7766	884.1226	15747.7	14882.05
843.9218	886.1609	15739.2	14874.45
844.0669	888.1984	15734.75	14868.45
844.212	890.2352	15799.9	14936.45
844.3572	892.2714	15772.7	14902.15
844.5023	894.3069	15753.4	14887.5
844.6475	896.3416	15624.6	14757.05
844.7926	898.3757	15602.45	14735.55
844.9377	900.4091	15587.35	14719.8
845.0829	902.4418	15573.4	14701.95
845.228	904.4739	15512.95	14643.85
845.3732	906.5052	15517.9	14649.9
845.5183	908.5358	15477.1	14609
845.6635	910.5658	15448.3	14577.1
845.8086	912.595	15373.55	14503.95
845.9538	914.6236	15333.05	14467.35
846.0989	916.6515	15273.4	14405.4
846.2441	918.6786	15276.1	14407.1
846.3892	920.7051	15268.15	14397.75
846.5344	922.7309	15242.25	14373.65
846.6795	924.756	15188.75	14319.9
846.8246	926.7804	15192.9	14320.7
846.9698	928.8041	15107.7	14238.55
847.1149	930.8272	15103.95	14237.4
847.2601	932.8495	15027.1	14156.8
847.4052	934.8711	15059.1	14187.95
847.5504	936.892	14998.7	14128.9
847.6955	938.9123	14963.4	14094.4
847.8407	940.9318	14933.25	14065.15
847.9858	942.9506	14894.25	14023.8
848.131	944.9688	14878.35	14009.2
848.2761	946.9862	14828.6	13956.8
848.4213	949.003	14710.45	13840.85
848.5664	951.019	14681.3	13810.85
848.7115	953.0344	14652.6	13780.75
848.8567	955.0491	14627.9	13756.05
849.0018	957.063	14619	13747.4
849.147	959.0763	14632.1	13761.35
849.2921	961.0888	14558.9	13688.1
849.4373	963.1007	14557.45	13686.15
849.5824	965.1119	14517.35	13648.05
849.7275	967.1223	14503.3	13633
849.8727	969.1321	14486.3	13617.4
850.0178	971.1412	14486.55	13615.8
850.1629	973.1495	14383.35	13512.65
850.3081	975.1572	14427.75	13513.45
850.4532	977.1641	14419.3	13550
850.5983	979.1704	14362.95	13490.4
850.7435	981.1759	14327.1	13451.95
850.8886	983.1808	14294.4	13422.5
851.0337	985.1849	14276.9	13393.5
851.1788	987.1884	14224.4	13349.4
851.324	989.1911	14204.3	13330.45
851.4691	991.1932	14184.55	13310.9
851.6142	993.1945	14145.55	13274.05
851.7593	995.1951	14048.7	13175.95
851.9045	997.1951	14067.95	13190.6
852.0496	999.1943	13979.55	13107.95
852.1947	1001.1928	13926.05	13053.55
852.3398	1003.1906	13878.9	13005.1
852.4849	1005.1877	13896.15	13023.7
852.63	1007.1841	13863.05	12989.55
852.7751	1009.1798	13816.2	12941.55
852.9202	1011.1748	13755.15	12881.45
853.0653	1013.1691	13723.4	12849.45
853.2104	1015.1627	13631.05	12757.95
853.3555	1017.1556	13566.6	12692.35
853.5006	1019.1477	13527.55	12654
853.6457	1021.1392	13434.05	12562.45
853.7908	1023.1299	13391.75	12517.35
853.9359	1025.12	13358.55	12484.9
854.081	1027.1093	13287.75	12416.15
854.2261	1029.0979	13306.8	12437.25
854.3712	1031.0859	13237.35	12367.45
854.5163	1033.0731	13214.45	12339.2
854.6613	1035.0596	13180.8	12308.35
854.8064	1037.0454	13100.65	12226.9
854.9515	1039.0304	13082.3	12209.05
855.0965	1041.0148	13013.35	12139.3
855.2416	1042.9985	13011.1	12135.55
855.3867	1044.9814	12990.1	12116.2
855.5317	1046.9636	12917.95	12042.7
855.6768	1048.9452	12863.7	11989.1
855.8219	1050.926	12872.15	11998.6
855.9669	1052.9061	12823.25	11947.15
856.112	1054.8855	12777.55	11903.85
856.257	1056.8642	12784.8	11911.4
856.4021	1058.8421	12791.95	11913.85
856.5471	1060.8194	12748.35	11873.4
856.6921	1062.7959	12700.55	11824.25
856.8372	1064.7717	12671.95	11794.8
856.9822	1066.7469	12660.45	11782
857.1272	1068.7213	12628.45	11748.9
857.2723	1070.695	12611.95	11735.15
857.4173	1072.6679	12564.25	11688
857.5623	1074.6402	12546.25	11670.55
857.7073	1076.6117	12567.4	11686.35
857.8523	1078.5826	12530.55	11654.85
857.9973	1080.5527	12487.8	11608.8
858.1423	1082.5221	12420.3	11544.55
858.2873	1084.4908	12393.25	11515.75
858.4323	1086.4587	12359.15	11479.85
858.5773	1088.426	12326.55	11449.9
858.7223	1090.3925	12265	11382.7
858.8673	1092.3584	12281.8	11404.9
859.0123	1094.3235	12224.85	11350.35
859.1573	1096.2879	12206.5	11327.2
859.3022	1098.2515	12185.6	11310.85
859.4472	1100.2145	12189.45	11313.9
859.5922	1102.1767	12168.9	11287
859.7371	1104.1382	12150.3	11275.2
859.8821	1106.099	12147.65	11268.2
860.027	1108.0591	12159	11282.5
860.172	1110.0185	12160.45	11282.65
860.3169	1111.9771	12192.3	11313.25
860.4619	1113.9351	12149.05	11270.35
860.6068	1115.8923	12140.35	11263.1
860.7517	1117.8488	12131.45	11252.45
860.8967	1119.8045	12101.8	11226.9
861.0416	1121.7596	12028.95	11151.85
861.1865	1123.7139	11908.3	11031.3
861.3314	1125.6675	11861.8	10983.2
861.4763	1127.6204	11870.05	10992.75
861.6212	1129.5726	11841.1	10960.7
861.7661	1131.524	11823.05	10944.7
861.911	1133.4748	11777.45	10899.05
862.0559	1135.4248	11724.85	10845.35
862.2008	1137.3741	11674.95	10796.95
862.3457	1139.3226	11614.4	10734.35
862.4905	1141.2705	11622.65	10742.05
862.6354	1143.2176	11568.25	10684.5
862.7803	1145.164	11588.95	10710.95
862.9251	1147.1097	11568.95	10687.75
863.07	1149.0546	11512.55	10632
863.2148	1150.9989	11490.65	10610.7
863.3597	1152.9424	11468.3	10588.7
863.5045	1154.8852	11444.15	10566.8
863.6493	1156.8272	11437.3	10561.6
863.7942	1158.7686	11447.85	10562.85
863.939	1160.7092	11399.45	10519.45
864.0838	1162.6491	11379.65	10496.65
864.2286	1164.5883	11373.3	10494
864.3734	1166.5267	11347.7	10467.3
864.5182	1168.4644	11335.2	10454.5
864.663	1170.4014	11341.75	10457.75
864.8078	1172.3377	11361.95	10483.4
864.9526	1174.2732	11366.85	10487.05
865.0974	1176.2081	11389.2	10509.25
865.2421	1178.1421	11452.05	10569.8
865.3869	1180.0755	11496.6	10618.8
865.5317	1182.0082	11473.5	10593.9
