Software Version:	3.9.2.0
Unit SN:	10000200
Spectrometer SN:	6960
Date:	3/6/2024 9:55:59 AM
Data Line Index:	25
Spectral Points:	2048
Integration time (ms):	125
Averages:	20
Delay (ms):	30
Sequence Number:	1
Processing:	dark subtract
Laser Power (mW):	305
Laser Current (mA):	826
Laser Diode Temp (C):	25.1
Laser Case Temp (C):	24.5
System Temp (C):	24.3
Spectrometer Temp (C):	22
CCD Temp (C):	-0.006
Secondary Temp (C):	20.008
Heatsink Temp (C):	18.329
CCDPCB Temp (C):	31.094
SecondaryPCB Temp (C):	26.191

Wavelength	RamanShift	Raw Counts	Dark Subtracted
787.061	30.1047	561.15	151.65
787.2016	32.3739	565.8	158.7
787.3422	34.6426	572.35	163.85
787.4828	36.9109	588.25	179.1
787.6235	39.1787	602.65	189.1
787.7642	41.4461	621.55	204
787.9049	43.7131	631.7	210.7
788.0456	45.9796	646.7	224.2
788.1863	48.2456	664.75	236.8
788.3271	50.5112	682.65	250.6
788.4679	52.7764	701.4	267.85
788.6087	55.0411	721.05	281.65
788.7496	57.3054	741.4	299.4
788.8904	59.5692	763.1	321.3
789.0313	61.8326	786.6	340.3
789.1722	64.0955	808.85	358.3
789.3132	66.3579	844.65	388.35
789.4541	68.6199	881.3	422.45
789.5951	70.8815	953	490
789.7361	73.1426	1094	627.35
789.8771	75.4032	1476.85	1005.85
790.0181	77.6634	2383.5	1908.9
790.1592	79.9231	4651.7	4174.75
790.3003	82.1824	9615.6	9128.05
790.4414	84.4412	18688.45	18187.3
790.5825	86.6995	32090.7	31573.4
790.7237	88.9574	42802.65	42272.6
790.8648	91.2148	49661.25	49124.45
791.006	93.4717	51923.6	51376.9
791.1472	95.7282	53039	52491.2
791.2885	97.9842	53601.8	53048.75
791.4297	100.2398	53673.4	53119.45
791.571	102.4949	53642.6	53084.45
791.7123	104.7495	53816.25	53256.35
791.8536	107.0036	53533.55	52973.45
791.9949	109.2573	54014.55	53456.35
792.1363	111.5105	53673.35	53110.45
792.2777	113.7632	53879.2	53313.7
792.4191	116.0154	54040.7	53465.6
792.5605	118.2672	54404.75	53835.65
792.7019	120.5185	54406.9	53835.85
792.8434	122.7693	54431.9	53856.8
792.9849	125.0197	54060.85	53481.6
793.1264	127.2696	54958.15	54373.8
793.2679	129.519	54875.65	54290.2
793.4094	131.7679	55273.45	54684.6
793.551	134.0163	54359.8	53767.95
793.6926	136.2642	54788.95	54193
793.8342	138.5117	55360.45	54759.95
793.9758	140.7587	55153.2	54556.1
794.1175	143.0052	55210.35	54606.9
794.2591	145.2512	54764	54164.2
794.4008	147.4967	55334.75	54731.15
794.5425	149.7417	55183.25	54578.5
794.6842	151.9863	55248.2	54635.75
794.826	154.2304	54890.6	54280.1
794.9677	156.4739	55211.5	54590.55
795.1095	158.717	55602.45	54982.2
795.2513	160.9596	55370.55	54747.8
795.3931	163.2017	54941.65	54314.45
795.535	165.4433	55473.95	54845.5
795.6768	167.6844	55234.9	54606.8
795.8187	169.925	55551.35	54919.45
795.9606	172.1651	55283.95	54648.8
796.1025	174.4047	55434.05	54792.85
796.2445	176.6439	55454.55	54810.45
796.3864	178.8825	55371.3	54725.2
796.5284	181.1206	55775.3	55125.4
796.6704	183.3582	55764.9	55111.75
796.8124	185.5954	55565.2	54911.4
796.9544	187.832	55700.15	55038.05
797.0965	190.0681	55414.2	54753.35
797.2386	192.3037	55977.65	55315
797.3806	194.5388	56550.55	55884.8
797.5228	196.7734	55247.8	54580.2
797.6649	199.0075	56448.2	55775.85
797.807	201.2411	56057.5	55387.8
797.9492	203.4742	56775.6	56102.75
798.0914	205.7068	56622.3	55940.75
798.2336	207.9389	56590.45	55910.5
798.3758	210.1704	56569.25	55897.85
798.518	212.4015	57044.8	56381.6
798.6603	214.632	56443.5	55783.05
798.8025	216.862	57139.9	56483.05
798.9448	219.0915	56874.75	56215.25
799.0871	221.3205	56757.5	56096.95
799.2294	223.549	57271.45	56615.5
799.3718	225.777	57240.75	56583.45
799.5141	228.0044	57507.45	56838.65
799.6565	230.2314	57272.85	56604.75
799.7989	232.4578	57289.35	56617.6
799.9413	234.6837	57380.35	56703.2
800.0837	236.909	58391.45	57712.1
800.2262	239.1339	57057.8	56351.9
800.3687	241.3582	57677.8	56987.8
800.5111	243.582	57711.85	56986.3
800.6536	245.8053	57732.3	57022.05
800.7961	248.0281	57818.75	57112.95
800.9387	250.2503	58014.25	57307.6
801.0812	252.472	57604.1	56892.85
801.2238	254.6932	57954.8	57247.75
801.3664	256.9139	57785.85	57074.9
801.509	259.134	58701.75	57985.35
801.6516	261.3536	57687.15	56973.7
801.7942	263.5727	58251	57536.1
801.9369	265.7912	57988.2	57274.3
802.0795	268.0092	58181.65	57464.8
802.2222	270.2267	58333.6	57616.6
802.3649	272.4436	57882.95	57166
802.5076	274.6601	58364.15	57636.95
802.6504	276.8759	58529.05	57806.8
802.7931	279.0913	58276.05	57552.8
802.9359	281.3061	58476.05	57748.7
803.0787	283.5204	58483.75	57752.55
803.2215	285.7341	58446.6	57715.7
803.3643	287.9473	58866.15	58124.6
803.5071	290.16	58541.3	57806.35
803.6499	292.3721	58725.85	57997.85
803.7928	294.5837	58396.55	57665.4
803.9357	296.7947	58105.6	57374.05
804.0786	299.0052	58803.65	58071.6
804.2215	301.2152	58514.05	57778
804.3644	303.4246	58774.2	58038.95
804.5074	305.6334	58785.35	58052.55
804.6503	307.8418	58335.35	57597.85
804.7933	310.0495	58379.35	57638.5
804.9363	312.2568	58377.7	57638.75
805.0793	314.4635	58393.6	57651.55
805.2223	316.6696	58623	57878.3
805.3653	318.8752	58784.1	58029.65
805.5084	321.0802	57835.1	57089.05
805.6514	323.2847	58297.15	57550.7
805.7945	325.4887	58213.25	57462.95
805.9376	327.692	58047.7	57296.7
806.0807	329.8949	58358.35	57607.8
806.2238	332.0972	58129.3	57373.65
806.367	334.2989	58352.7	57595.05
806.5101	336.5001	58667.8	57908.45
806.6533	338.7007	57963.65	57204.8
806.7965	340.9008	58388.2	57630.6
806.9397	343.1003	58418.3	57657.35
807.0829	345.2992	58626.7	57866.8
807.2261	347.4976	58244.15	57481.3
807.3693	349.6955	58454.65	57685.45
807.5126	351.8927	58148.5	57380.45
807.6559	354.0895	58480.4	57702
807.7991	356.2856	58439.8	57669.95
807.9424	358.4812	58689.6	57919
808.0857	360.6763	58152.4	57378.65
808.2291	362.8707	58698.5	57924.2
808.3724	365.0646	58340.55	57563.45
808.5158	367.258	58340.35	57562.45
808.6591	369.4508	57980.1	57197.2
808.8025	371.643	58590.95	57807.4
808.9459	373.8346	58320.55	57538.3
809.0893	376.0257	58414.25	57627
809.2327	378.2162	58279.9	57496.4
809.3762	380.4062	57844.45	57057.2
809.5196	382.5956	58242.1	57458.55
809.6631	384.7844	58191.15	57412.85
809.8066	386.9726	58365.75	57587.3
809.9501	389.1603	58328.15	57552.8
810.0936	391.3474	57942.15	57134.95
810.2371	393.5339	58278.9	57498.9
810.3806	395.7199	57727.35	56950.25
810.5241	397.9052	57850.5	57074.3
810.6677	400.09	57977.65	57197.95
810.8113	402.2743	58347.55	57566.8
810.9548	404.4579	57865.85	57083.85
811.0984	406.641	57884.2	57101.5
811.2421	408.8235	58081.1	57295.85
811.3857	411.0054	58127.95	57342.2
811.5293	413.1868	58176.6	57387.55
811.673	415.3675	58000.55	57204.75
811.8166	417.5477	58034.75	57241.1
811.9603	419.7273	57998.75	57201.45
812.104	421.9064	57871.75	57064.45
812.2477	424.0848	57904	57107.45
812.3914	426.2627	58189	57392.15
812.5351	428.4399	57676.2	56875.55
812.6788	430.6166	57269.85	56463.15
812.8226	432.7928	57783.35	56975.8
812.9663	434.9683	57356.7	56552.2
813.1101	437.1432	57383.75	56577.4
813.2539	439.3176	57707.35	56905.3
813.3977	441.4914	57076.6	56274.3
813.5415	443.6645	57166.9	56362.15
813.6853	445.8371	57224.4	56421.45
813.8291	448.0091	56948.2	56143.7
813.973	450.1806	56780.6	55974.65
814.1168	452.3514	56841.85	56034.3
814.2607	454.5216	56531.95	55718.2
814.4046	456.6913	56797.55	55989.5
814.5485	458.8603	56897.65	56089.25
814.6924	461.0288	56492.15	55686
814.8363	463.1967	56848.8	56039.5
814.9802	465.3639	56778.55	55969.65
815.1241	467.5306	56126.35	55314.1
815.2681	469.6967	56518	55708.95
815.412	471.8622	56656.7	55847.15
815.556	474.0271	56403.1	55593.4
815.7	476.1914	56423.05	55609.05
815.844	478.3551	56479.9	55667.5
815.988	480.5182	56849.1	56037.65
816.132	482.6807	56261.85	55450.45
816.276	484.8426	56365.05	55557.25
816.4201	487.0039	56853.35	56042.4
816.5641	489.1647	56768.4	55953.45
816.7082	491.3248	56212.9	55398.75
816.8522	493.4843	56815.7	56002.75
816.9963	495.6432	56827.8	56012.95
817.1404	497.8015	56209.45	55389.15
817.2845	499.9592	56518.2	55695.9
817.4286	502.1163	56486.55	55662.55
817.5727	504.2728	56446.1	55623.25
817.7168	506.4287	56445.8	55628.5
817.861	508.5839	56132.95	55312.6
818.0051	510.7386	56336.05	55515.7
818.1493	512.8927	56442.35	55618.2
818.2935	515.0461	56283.75	55459.95
818.4377	517.199	56562.9	55736.65
818.5818	519.3512	56285.2	55459.85
818.726	521.5029	56238.75	55408.65
818.8703	523.6539	56356	55529.65
819.0145	525.8043	55906.85	55077.2
819.1587	527.9541	56225.55	55395.75
819.303	530.1033	56169.4	55339.1
819.4472	532.2519	55966.3	55135.3
819.5915	534.3999	56204.95	55373.6
819.7357	536.5472	56355.05	55522.4
819.88	538.694	55772.8	54946.8
820.0243	540.8401	56057.55	55222.7
820.1686	542.9856	56056.5	55220.5
820.3129	545.1305	56190.95	55348.55
820.4572	547.2748	55915.75	55078
820.6016	549.4185	55931.9	55090.85
820.7459	551.5615	56132.4	55294.7
820.8902	553.704	56012.65	55175.9
821.0346	555.8458	55802.65	54969.25
821.1789	557.987	55914.5	55079.55
821.3233	560.1276	56028.2	55193.55
821.4677	562.2675	55851.9	55017.95
821.6121	564.4069	55894.1	55058.9
821.7565	566.5456	56131.85	55293.45
821.9009	568.6837	55700.75	54865.45
822.0453	570.8212	55897.2	55060.5
822.1897	572.958	55315.15	54475.95
822.3342	575.0942	55735.85	54899.35
822.4786	577.2299	55392.2	54556.85
822.6231	579.3648	55256.35	54424.55
822.7675	581.4992	55116.2	54285
822.912	583.6329	55052.25	54221.1
823.0565	585.766	55026.35	54193.4
823.201	587.8985	55125.35	54292.45
823.3454	590.0304	54609.85	53758.35
823.4899	592.1616	55019.35	54174.35
823.6345	594.2922	54798.65	53956.35
823.779	596.4222	54538.4	53695
823.9235	598.5515	54534.3	53688.45
824.068	600.6802	54646.15	53801.75
824.2126	602.8083	54195.2	53351.75
824.3571	604.9358	54215.65	53370.85
824.5017	607.0626	54441.55	53591.85
824.6462	609.1888	54007.05	53158.65
824.7908	611.3144	54286	53435.8
824.9354	613.4393	54057.65	53208.8
825.08	615.5636	53896.75	53048.45
825.2246	617.6873	54099	53250.3
825.3692	619.8103	53870.65	53018.85
825.5138	621.9327	54073.25	53218.25
825.6584	624.0544	54104	53259.35
825.803	626.1756	53874.5	53026.75
825.9477	628.2961	53870.95	53017.45
826.0923	630.4159	53640.55	52787.35
826.237	632.5351	53608.65	52755.6
826.3816	634.6537	53988.45	53134.35
826.5263	636.7716	53475.15	52620.15
826.6709	638.8889	53638.65	52780.25
826.8156	641.0056	53563.4	52706.7
826.9603	643.1216	53677.2	52820.2
827.105	645.237	53771.7	52915.05
827.2497	647.3518	53442.75	52591
827.3944	649.4659	53517.65	52664.8
827.5391	651.5793	53455.75	52603.1
827.6838	653.6922	53490.7	52637.15
827.8285	655.8043	53231.15	52378.6
827.9733	657.9159	53650.25	52795.9
828.118	660.0268	52849.6	51994.55
828.2627	662.137	53163.05	52308
828.4075	664.2466	53231.3	52371.05
828.5522	666.3556	53104.65	52246
828.697	668.4639	53083.55	52224.85
828.8418	670.5716	53006.5	52152.8
828.9865	672.6786	53095.5	52235.9
829.1313	674.785	52774.3	51911.8
829.2761	676.8907	52764.9	51905.5
829.4209	678.9958	52806	51949.65
829.5657	681.1002	52870.05	52011.45
829.7105	683.204	52574.25	51708.8
829.8553	685.3072	52472.9	51608.9
830.0001	687.4097	52478.25	51614.2
830.1449	689.5115	52480	51614.4
830.2898	691.6127	52624.95	51766
830.4346	693.7132	52381.3	51522.3
830.5794	695.8131	52435.85	51551.85
830.7243	697.9123	52447.05	51586.15
830.8691	700.0109	52476.4	51610.1
831.014	702.1089	52182.15	51316.6
831.1588	704.2061	52294.6	51430.1
831.3037	706.3028	52262.1	51397.85
831.4486	708.3987	52247.35	51381.95
831.5935	710.4941	52110.75	51247.9
831.7383	712.5887	52189.75	51325.25
831.8832	714.6827	52098.75	51230.2
832.0281	716.7761	52161.55	51296.35
832.173	718.8688	52182.3	51316
832.3179	720.9608	51966.45	51094.1
832.4628	723.0522	52033.55	51160.4
832.6077	725.1429	51819.35	50950.5
832.7527	727.233	52202.6	51330.6
832.8976	729.3224	51650.35	50781.2
833.0425	731.4112	51806.1	50937.4
833.1874	733.4993	51738.75	50865.1
833.3324	735.5867	51649.9	50782.6
833.4773	737.6735	51506.7	50634.1
833.6222	739.7596	51310.8	50438.15
833.7672	741.845	51265.05	50393
833.9122	743.9298	51364.1	50488.25
834.0571	746.014	51156.1	50285.75
834.2021	748.0974	50976.5	50102
834.347	750.1802	51182.95	50309.8
834.492	752.2624	50730.7	49856.55
834.637	754.3439	50695.25	49819.6
834.782	756.4247	50691.7	49808
834.9269	758.5048	50425.35	49549.55
835.0719	760.5843	50475.3	49598.35
835.2169	762.6631	50486.95	49614.45
835.3619	764.7413	50377.65	49501.4
835.5069	766.8188	50415.65	49541.05
835.6519	768.8956	50428.45	49548.3
835.7969	770.9718	50439.3	49562.45
835.9419	773.0473	50261.15	49384.1
836.0869	775.1221	49997.4	49124.5
836.232	777.1962	49946.4	49068.4
836.377	779.2697	49722.95	48846.05
836.522	781.3426	49846.5	48949.25
836.667	783.4147	49811.9	48934.6
836.8121	785.4862	49702.35	48825.25
836.9571	787.557	49433.95	48557.3
837.1021	789.6271	49578.15	48700.3
837.2472	791.6966	49315.9	48439.3
837.3922	793.7654	49049.85	48172.85
837.5373	795.8335	49020.8	48143
837.6823	797.901	49006.9	48130.9
837.8274	799.9678	48803.4	47921.1
837.9724	802.0339	48748.3	47871.4
838.1175	804.0993	48761.65	47870.75
838.2626	806.1641	48555.35	47675.25
838.4076	808.2282	48488.75	47608.55
838.5527	810.2916	48469.8	47588.05
838.6978	812.3544	48585.55	47707.95
838.8428	814.4164	48254.55	47375.35
838.9879	816.4778	48266.75	47384.85
839.133	818.5385	48156.75	47273.6
839.2781	820.5986	48138.1	47258.15
839.4232	822.658	48218.65	47335
839.5682	824.7166	48139.75	47260.6
839.7133	826.7747	48076.25	47195.75
839.8584	828.832	48130.4	47248.65
840.0035	830.8886	48135.6	47250.95
840.1486	832.9446	48131.1	47246.1
840.2937	834.9999	47758.85	46877.75
840.4388	837.0545	47843.2	46953.25
840.5839	839.1085	47770.5	46884.6
840.729	841.1618	47612.65	46727.1
840.8741	843.2143	47402.25	46519.45
841.0192	845.2662	47329.25	46447.45
841.1643	847.3175	47408.95	46527.8
841.3095	849.368	47115.05	46231.75
841.4546	851.4179	47249.55	46366.15
841.5997	853.467	46933.35	46050.85
841.7448	855.5155	46985.5	46101.35
841.8899	857.5633	46767.6	45883.25
842.0351	859.6105	46681.4	45794.45
842.1802	861.6569	46733.7	45847.15
842.3253	863.7027	46542.3	45653.9
842.4704	865.7478	46587.15	45700.65
842.6156	867.7922	46488.35	45602.4
842.7607	869.8359	46486.35	45600.4
842.9058	871.8789	46227	45340.85
843.0509	873.9212	46289.45	45371.3
843.1961	875.9629	46212.2	45325.25
843.3412	878.0039	46227.45	45341.6
843.4863	880.0441	46153.55	45267.45
843.6315	882.0837	46146.6	45258.8
843.7766	884.1226	46165	45278.5
843.9218	886.1609	46114.55	45228.15
844.0669	888.1984	46053.95	45168.2
844.212	890.2352	46215.8	45327.8
844.3572	892.2714	45991.05	45101.95
844.5023	894.3069	46006.05	45119.45
844.6475	896.3416	45854.3	44966.35
844.7926	898.3757	45824.8	44936.5
844.9377	900.4091	45599.7	44711.9
845.0829	902.4418	45708	44814.5
845.228	904.4739	45484.95	44595.4
845.3732	906.5052	45532.15	44644
845.5183	908.5358	45393.45	44504.85
845.6635	910.5658	45274	44382.75
845.8086	912.595	45224.25	44335.3
845.9538	914.6236	44998.8	44110.65
846.0989	916.6515	45169.35	44279.05
846.2441	918.6786	44839.8	43949.65
846.3892	920.7051	44853	43960.35
846.5344	922.7309	44886	43997.8
846.6795	924.756	44783.8	43896
846.8246	926.7804	44703.7	43812.2
846.9698	928.8041	44377.75	43485.75
847.1149	930.8272	44491.75	43604
847.2601	932.8495	44321.55	43429.6
847.4052	934.8711	44266.65	43374.65
847.5504	936.892	44131.65	43242
847.6955	938.9123	44066.1	43174.2
847.8407	940.9318	43976.9	43086.2
847.9858	942.9506	43839.3	42947.25
848.131	944.9688	43720.35	42828.5
848.2761	946.9862	43566.6	42675.75
848.4213	949.003	43462.45	42569.85
848.5664	951.019	43284.15	42390.45
848.7115	953.0344	43181.2	42288.75
848.8567	955.0491	43116.55	42224.85
849.0018	957.063	43177.8	42285.75
849.147	959.0763	43189.2	42298.1
849.2921	961.0888	43015.6	42120.45
849.4373	963.1007	43077.4	42185.35
849.5824	965.1119	43008.15	42119.65
849.7275	967.1223	42919.95	42032.4
849.8727	969.1321	42856.1	41968.25
850.0178	971.1412	42728.95	41840.1
850.1629	973.1495	42622.95	41730.05
850.3081	975.1572	42627.15	41701.35
850.4532	977.1641	42602.65	41708.6
850.5983	979.1704	42446.4	41551.85
850.7435	981.1759	42418.85	41523
850.8886	983.1808	42297	41401.15
851.0337	985.1849	42206.7	41303.3
851.1788	987.1884	42160.75	41265.9
851.324	989.1911	42144.55	41249.6
851.4691	991.1932	41896.75	41002.85
851.6142	993.1945	41835.5	40943.75
851.7593	995.1951	41702.95	40812.95
851.9045	997.1951	41581.7	40683.4
852.0496	999.1943	41479.5	40586.65
852.1947	1001.1928	41303.4	40408.1
852.3398	1003.1906	41184.1	40290
852.4849	1005.1877	41006.7	40111.45
852.63	1007.1841	40869.15	39972.3
852.7751	1009.1798	40831.1	39941.15
852.9202	1011.1748	40727.6	39833.45
853.0653	1013.1691	40599.55	39706.05
853.2104	1015.1627	40229.15	39336.3
853.3555	1017.1556	40153.65	39259.4
853.5006	1019.1477	40076.3	39183.7
853.6457	1021.1392	39819.9	38929.1
853.7908	1023.1299	39593.55	38702.2
853.9359	1025.12	39543.9	38654.65
854.081	1027.1093	39318.9	38431.45
854.2261	1029.0979	39249.15	38365.25
854.3712	1031.0859	39154.2	38267.5
854.5163	1033.0731	38978.15	38087.35
854.6613	1035.0596	38949.65	38059.6
854.8064	1037.0454	38721.15	37829.3
854.9515	1039.0304	38652.3	37758.55
855.0965	1041.0148	38400.8	37507.55
855.2416	1042.9985	38346	37451.05
855.3867	1044.9814	38388.9	37496.75
855.5317	1046.9636	38103.1	37207.8
855.6768	1048.9452	38005.95	37114.1
855.8219	1050.926	37900.2	37006.9
855.9669	1052.9061	37909.25	37014.4
856.112	1054.8855	37842.1	36946.35
856.257	1056.8642	37708.3	36813.6
856.4021	1058.8421	37628.2	36732.55
856.5471	1060.8194	37520.35	36626.25
856.6921	1062.7959	37439.15	36546.25
856.8372	1064.7717	37439.25	36544.55
856.9822	1066.7469	37363.35	36467.1
857.1272	1068.7213	37282.95	36386.45
857.2723	1070.695	37228.3	36334.1
857.4173	1072.6679	37026.8	36131.2
857.5623	1074.6402	37093.25	36197.35
857.7073	1076.6117	36995.15	36094.85
857.8523	1078.5826	36944.75	36049.7
857.9973	1080.5527	36832.6	35933.45
858.1423	1082.5221	36669.4	35773.9
858.2873	1084.4908	36645.4	35749.75
858.4323	1086.4587	36480.4	35583.7
858.5773	1088.426	36463.5	35566.9
858.7223	1090.3925	36307.6	35405.9
858.8673	1092.3584	36308.35	35408.9
859.0123	1094.3235	36073.25	35178.5
859.1573	1096.2879	36041.1	35143.6
859.3022	1098.2515	36063.6	35169.3
859.4472	1100.2145	36060.4	35165.9
859.5922	1102.1767	35944.15	35046.45
859.7371	1104.1382	35919.95	35023.75
859.8821	1106.099	35876.95	34980.05
860.027	1108.0591	35767.4	34871.25
860.172	1110.0185	35651.95	34755.65
860.3169	1111.9771	35690.1	34795.85
860.4619	1113.9351	35505.35	34608.7
860.6068	1115.8923	35478.5	34582.4
860.7517	1117.8488	35320.15	34422.9
860.8967	1119.8045	35151.75	34255.65
861.0416	1121.7596	35077.75	34182.75
861.1865	1123.7139	34914.6	34019.1
861.3314	1125.6675	34821.15	33924.6
861.4763	1127.6204	34825	33930
861.6212	1129.5726	34703.9	33807.55
861.7661	1131.524	34695.6	33798.65
861.911	1133.4748	34652.05	33755.3
862.0559	1135.4248	34495.85	33596.15
862.2008	1137.3741	34352.25	33457.25
862.3457	1139.3226	34305.3	33406.85
862.4905	1141.2705	34305.85	33408.45
862.6354	1143.2176	34053.65	33153.9
862.7803	1145.164	34070.3	33171.65
862.9251	1147.1097	33961.25	33064.9
863.07	1149.0546	33936	33038.25
863.2148	1150.9989	33911.2	33013.1
863.3597	1152.9424	33818.05	32920.8
863.5045	1154.8852	33721.8	32825.4
863.6493	1156.8272	33686.65	32791
863.7942	1158.7686	33751.35	32848.65
863.939	1160.7092	33558.45	32660.75
864.0838	1162.6491	33471.9	32575.3
864.2286	1164.5883	33467.6	32570.2
864.3734	1166.5267	33448.55	32551.6
864.5182	1168.4644	33421.1	32524.15
864.663	1170.4014	33376.5	32474.4
864.8078	1172.3377	33465.1	32569.65
864.9526	1174.2732	33455.95	32561.5
865.0974	1176.2081	33462.95	32566.55
865.2421	1178.1421	33513.25	32613.25
865.3869	1180.0755	33572.8	32676.5
865.5317	1182.0082	33481.9	32584.95
