Software Version:	3.9.2.0
Unit SN:	10000200
Spectrometer SN:	6960
Date:	3/8/2024 12:57:20 PM
Data Line Index:	25
Spectral Points:	2048
Integration time (ms):	125
Averages:	20
Delay (ms):	30000
Sequence Number:	1
Processing:	dark subtract
Laser Power (mW):	300
Laser Current (mA):	824
Laser Diode Temp (C):	25.1
Laser Case Temp (C):	26.1
System Temp (C):	26.1
Spectrometer Temp (C):	23.9
CCD Temp (C):	0.005
Secondary Temp (C):	20.01
Heatsink Temp (C):	20.351
CCDPCB Temp (C):	36.018
SecondaryPCB Temp (C):	28.926

Wavelength	RamanShift	Raw Counts	Dark Subtracted
787.061	30.1047	452.15	45.1
787.2016	32.3739	451.5	46.2
787.3422	34.6426	459	51
787.4828	36.9109	464.55	57.25
787.6235	39.1787	471.8	58.75
787.7642	41.4461	482.4	64.7
787.9049	43.7131	489.6	66.25
788.0456	45.9796	496.9	74.8
788.1863	48.2456	505	75.8
788.3271	50.5112	517.8	84.15
788.4679	52.7764	524.65	90.6
788.6087	55.0411	535.35	96.2
788.7496	57.3054	546.35	101.2
788.8904	59.5692	554.5	108.85
789.0313	61.8326	562.65	114
789.1722	64.0955	576.45	124.8
789.3132	66.3579	593.35	136.6
789.4541	68.6199	612.6	149.3
789.5951	70.8815	644.6	178
789.7361	73.1426	726.25	255.25
789.8771	75.4032	931.9	456.85
790.0181	77.6634	1425.45	947.35
790.1592	79.9231	2620.3	2131.95
790.3003	82.1824	5166.55	4661.85
790.4414	84.4412	9715.95	9172.2
790.5825	86.6995	15921	15335.95
790.7237	88.9574	21902.7	21280.25
790.8648	91.2148	26002.3	25355.05
791.006	93.4717	27806.8	27141.3
791.1472	95.7282	28113.15	27440.1
791.2885	97.9842	27834.45	27156
791.4297	100.2398	27099.05	26422.25
791.571	102.4949	26292.5	25608.35
791.7123	104.7495	25426.85	24741.9
791.8536	107.0036	24517.5	23828.7
791.9949	109.2573	23680	22989.85
792.1363	111.5105	22953	22264.1
792.2777	113.7632	22262.7	21573.1
792.4191	116.0154	21673.4	20970.15
792.5605	118.2672	21258.9	20560.55
792.7019	120.5185	20852.9	20150.65
792.8434	122.7693	20538.1	19837.35
792.9849	125.0197	20234.8	19529.95
793.1264	127.2696	19948.35	19240.1
793.2679	129.519	19775.25	19058.4
793.4094	131.7679	19536.35	18824.65
793.551	134.0163	19259.1	18536.75
793.6926	136.2642	18939.95	18219.2
793.8342	138.5117	18609.7	17882.95
793.9758	140.7587	18283.5	17558
794.1175	143.0052	17970.35	17238.2
794.2591	145.2512	17655.05	16926.45
794.4008	147.4967	17354.2	16623.2
794.5425	149.7417	17153.85	16419.95
794.6842	151.9863	16995.5	16253.2
794.826	154.2304	16882.55	16139.85
794.9677	156.4739	16725	15981.05
795.1095	158.717	16609.9	15862.3
795.2513	160.9596	16455.5	15704.2
795.3931	163.2017	16181.9	15433.45
795.535	165.4433	15912.45	15154.65
795.6768	167.6844	15565.2	14810.4
795.8187	169.925	15293.05	14530.95
795.9606	172.1651	14929.3	14168.2
796.1025	174.4047	14651	13885.95
796.2445	176.6439	14432.3	13672.55
796.3864	178.8825	14204.25	13437.3
796.5284	181.1206	14049.2	13275.9
796.6704	183.3582	13911.3	13131.35
796.8124	185.5954	13830.15	13049.7
796.9544	187.832	13748.25	12965.95
797.0965	190.0681	13708.55	12921
797.2386	192.3037	13695.4	12906.8
797.3806	194.5388	13695.25	12902.75
797.5228	196.7734	13718	12926.3
797.6649	199.0075	13800.05	13003.45
797.807	201.2411	13915.15	13118.7
797.9492	203.4742	13977.45	13179
798.0914	205.7068	14134.8	13329.3
798.2336	207.9389	14264.4	13459.15
798.3758	210.1704	14426.3	13630.3
798.518	212.4015	14493.15	13711.5
798.6603	214.632	14645.85	13868.8
798.8025	216.862	14813.45	14029.6
798.9448	219.0915	14929.15	14146.15
799.0871	221.3205	15031.45	14247.45
799.2294	223.549	15183.45	14405.5
799.3718	225.777	15347.8	14566
799.5141	228.0044	15518.95	14735.5
799.6565	230.2314	15780.85	14992.45
799.7989	232.4578	15932.8	15144.1
799.9413	234.6837	16145.55	15349.45
800.0837	236.909	16284.55	15482
800.2262	239.1339	16284.85	15455.65
800.3687	241.3582	16163.7	15347
800.5111	243.582	15972.5	15126.05
800.6536	245.8053	15837.55	15006.85
800.7961	248.0281	15701.05	14874.3
800.9387	250.2503	15639.85	14814.95
801.0812	252.472	15616.4	14788
801.2238	254.6932	15711.5	14883.05
801.3664	256.9139	15769.95	14937.8
801.509	259.134	15904.8	15065.65
801.6516	261.3536	16050.55	15216.3
801.7942	263.5727	16334.55	15495.45
801.9369	265.7912	16518.05	15685.95
802.0795	268.0092	16732.55	15898.55
802.2222	270.2267	16888.55	16054.5
802.3649	272.4436	16947.8	16108.15
802.5076	274.6601	16909.15	16065.4
802.6504	276.8759	16807.55	15967.35
802.7931	279.0913	16743.7	15907.05
802.9359	281.3061	16636	15788.3
803.0787	283.5204	16592.3	15744.2
803.2215	285.7341	16596.3	15746.5
803.3643	287.9473	16650.6	15794.95
803.5071	290.16	16783.3	15929.4
803.6499	292.3721	16938.55	16090.45
803.7928	294.5837	17206.55	16359.6
803.9357	296.7947	17466.35	16616.2
804.0786	299.0052	17633.25	16782.45
804.2215	301.2152	17545.95	16694.1
804.3644	303.4246	17324.9	16480.65
804.5074	305.6334	16943.9	16100.4
804.6503	307.8418	16503.8	15655.45
804.7933	310.0495	16068.3	15214.85
804.9363	312.2568	15729.1	14879.35
805.0793	314.4635	15373	14515.3
805.2223	316.6696	15141.7	14281.95
805.3653	318.8752	14979.1	14111.9
805.5084	321.0802	14931.85	14071.85
805.6514	323.2847	14980.3	14118.5
805.7945	325.4887	15020.2	14159.1
805.9376	327.692	14992.7	14125.1
806.0807	329.8949	14918.2	14052.95
806.2238	332.0972	14695.45	13827.6
806.367	334.2989	14493.55	13623.55
806.5101	336.5001	14240.65	13368.6
806.6533	338.7007	14038.35	13169.35
806.7965	340.9008	13931.9	13055.8
806.9397	343.1003	13746.25	12874.6
807.0829	345.2992	13671	12797.2
807.2261	347.4976	13592.75	12718.15
807.3693	349.6955	13529.55	12649.55
807.5126	351.8927	13549.45	12670.1
807.6559	354.0895	13516.2	12627.8
807.7991	356.2856	13509.95	12630.35
807.9424	358.4812	13455.8	12571.85
808.0857	360.6763	13468.25	12579.75
808.2291	362.8707	13450.5	12565.95
808.3724	365.0646	13483.3	12597.95
808.5158	367.258	13503.65	12613.35
808.6591	369.4508	13576.85	12684.65
808.8025	371.643	13701	12809.6
808.9459	373.8346	13745.5	12853.05
809.0893	376.0257	13814.8	12921.05
809.2327	378.2162	13808.1	12914.95
809.3762	380.4062	13764.85	12871.4
809.5196	382.5956	13631.25	12737.75
809.6631	384.7844	13544.6	12660.6
809.8066	386.9726	13399.4	12517.5
809.9501	389.1603	13361.9	12481.9
810.0936	391.3474	13306.55	12400.55
810.2371	393.5339	13274.15	12383
810.3806	395.7199	13227.55	12342.1
810.5241	397.9052	13260.6	12376.55
810.6677	400.09	13314.35	12429.8
810.8113	402.2743	13473.3	12590.5
810.9548	404.4579	13583.35	12694.55
811.0984	406.641	13798.2	12905.95
811.2421	408.8235	13970.6	13080.5
811.3857	411.0054	14159.2	13269.2
811.5293	413.1868	14418.3	13516.95
811.673	415.3675	14547.55	13646.5
811.8166	417.5477	14614.75	13714.1
811.9603	419.7273	14581.7	13678.7
812.104	421.9064	14505.6	13598.8
812.2477	424.0848	14444.25	13543.5
812.3914	426.2627	14273.6	13374.3
812.5351	428.4399	14050.75	13150.95
812.6788	430.6166	13730.8	12826.8
812.8226	432.7928	13372.15	12466.15
812.9663	434.9683	13074.85	12170.1
813.1101	437.1432	12860.05	11958.2
813.2539	439.3176	12659.25	11762.5
813.3977	441.4914	12564.95	11675.8
813.5415	443.6645	12569.55	11673.4
813.6853	445.8371	12493.95	11596.5
813.8291	448.0091	12433.9	11530.05
813.973	450.1806	12428.5	11531.2
814.1168	452.3514	12417.1	11522.8
814.2607	454.5216	12449.2	11545.55
814.4046	456.6913	12425.6	11526.85
814.5485	458.8603	12467.25	11569.35
814.6924	461.0288	12507.4	11613.75
814.8363	463.1967	12476.75	11583.95
814.9802	465.3639	12553.4	11655.05
815.1241	467.5306	12582.5	11684.05
815.2681	469.6967	12622.1	11728.2
815.412	471.8622	12682.7	11789.2
815.556	474.0271	12757.8	11860.7
815.7	476.1914	12825.45	11921.65
815.844	478.3551	12791.7	11889.2
815.988	480.5182	12836.6	11942.6
816.132	482.6807	12879.75	11990.9
816.276	484.8426	13066.95	12183.15
816.4201	487.0039	13352.45	12463.6
816.5641	489.1647	13757.05	12858.8
816.7082	491.3248	14084.1	13182.75
816.8522	493.4843	14248	13352.35
816.9963	495.6432	14194.85	13296.1
817.1404	497.8015	14089.6	13181.05
817.2845	499.9592	13996.5	13080.25
817.4286	502.1163	13835.6	12922.15
817.5727	504.2728	13565.05	12662.95
817.7168	506.4287	13284.95	12393.65
817.861	508.5839	12939.25	12047.85
818.0051	510.7386	12710.25	11812.5
818.1493	512.8927	12606.8	11692.45
818.2935	515.0461	12551.85	11640.2
818.4377	517.199	12587.05	11674.7
818.5818	519.3512	12760.5	11846.5
818.726	521.5029	12930.95	12013.6
818.8703	523.6539	13143.9	12233.05
819.0145	525.8043	13229.35	12316.95
819.1587	527.9541	13179.65	12263.3
819.303	530.1033	13077.2	12168.5
819.4472	532.2519	12943.95	12033.4
819.5915	534.3999	12915.6	11999.1
819.7357	536.5472	13047.85	12136.9
819.88	538.694	13319.65	12412.05
820.0243	540.8401	13717.85	12806.65
820.1686	542.9856	14005.7	13081.35
820.3129	545.1305	14082.5	13152.75
820.4572	547.2748	13992.15	13059.85
820.6016	549.4185	13751.65	12818.8
820.7459	551.5615	13564.05	12637.4
820.8902	553.704	13519.45	12589.25
821.0346	555.8458	13552.95	12632.5
821.1789	557.987	13684.25	12767.15
821.3233	560.1276	13854.6	12936.3
821.4677	562.2675	14111.6	13188.3
821.6121	564.4069	14501.4	13577.15
821.7565	566.5456	14836.1	13914.3
821.9009	568.6837	14935.15	14015.25
822.0453	570.8212	14564.05	13645.6
822.1897	572.958	14007.15	13086.5
822.3342	575.0942	13448.2	12528.65
822.4786	577.2299	13112.75	12198.1
822.6231	579.3648	12924.15	12025.05
822.7675	581.4992	12894.95	12006.25
822.912	583.6329	13030.45	12143.95
823.0565	585.766	13211.65	12316.85
823.201	587.8985	13326.2	12419.65
823.3454	590.0304	13404.15	12466.4
823.4899	592.1616	13344.55	12420.45
823.6345	594.2922	13223.4	12298.25
823.779	596.4222	13042.3	12114.2
823.9235	598.5515	12848.15	11919.35
824.068	600.6802	12687.35	11760.05
824.2126	602.8083	12521.55	11597.9
824.3571	604.9358	12514	11586.8
824.5017	607.0626	12504.65	11575.65
824.6462	609.1888	12583.65	11645.65
824.7908	611.3144	12652.75	11719.1
824.9354	613.4393	12710	11776.75
825.08	615.5636	12782.5	11847.4
825.2246	617.6873	12764.25	11830.65
825.3692	619.8103	12697	11762.35
825.5138	621.9327	12539.8	11610.35
825.6584	624.0544	12384.85	11459.2
825.803	626.1756	12242.35	11318.1
825.9477	628.2961	12135	11203.95
826.0923	630.4159	12034.45	11102.3
826.237	632.5351	12022.1	11086.9
826.3816	634.6537	11983.5	11049.6
826.5263	636.7716	11975.85	11034.3
826.6709	638.8889	12025.65	11085.2
826.8156	641.0056	12011.15	11072.7
826.9603	643.1216	12018.05	11077.85
827.105	645.237	11994.25	11056.45
827.2497	647.3518	11941.7	11011.25
827.3944	649.4659	11882.85	10957.1
827.5391	651.5793	11853.1	10929.95
827.6838	653.6922	11833.8	10905.2
827.8285	655.8043	11839.95	10907.6
827.9733	657.9159	11811.8	10882.6
828.118	660.0268	11793.95	10862.45
828.2627	662.137	11746.55	10812.35
828.4075	664.2466	11747.1	10805.35
828.5522	666.3556	11763.45	10824.75
828.697	668.4639	11726.5	10791.25
828.8418	670.5716	11722.2	10796.1
828.9865	672.6786	11706.9	10774.65
829.1313	674.785	11707.65	10768.3
829.2761	676.8907	11709.8	10777.35
829.4209	678.9958	11734.55	10808.3
829.5657	681.1002	11705.5	10769.25
829.7105	683.204	11671.6	10725.9
829.8553	685.3072	11650.4	10710.55
830.0001	687.4097	11618.05	10676.6
830.1449	689.5115	11601.55	10659.15
830.2898	691.6127	11618.75	10680.15
830.4346	693.7132	11577.15	10643.95
830.5794	695.8131	11587.15	10637.65
830.7243	697.9123	11608.45	10664.05
830.8691	700.0109	11616.6	10674.15
831.014	702.1089	11618.3	10675.5
831.1588	704.2061	11667.35	10724.95
831.3037	706.3028	11699	10755.9
831.4486	708.3987	11754.3	10809.6
831.5935	710.4941	11781.35	10841.75
831.7383	712.5887	11858.75	10917.25
831.8832	714.6827	12008.1	11062.2
832.0281	716.7761	12188.6	11248.65
832.173	718.8688	12425.5	11483.65
832.3179	720.9608	12570	11622.4
832.4628	723.0522	12674.9	11721.45
832.6077	725.1429	12660.65	11717.3
832.7527	727.233	12645.15	11702.4
832.8976	729.3224	12630.3	11690.05
833.0425	731.4112	12502.1	11562.5
833.1874	733.4993	12363.15	11417.85
833.3324	735.5867	12161.75	11218.45
833.4773	737.6735	11976.45	11033.6
833.6222	739.7596	11851.7	10905.75
833.7672	741.845	11741.25	10797.2
833.9122	743.9298	11671.2	10729.15
834.0571	746.014	11634.65	10689.1
834.2021	748.0974	11617.35	10665.55
834.347	750.1802	11611.55	10660.6
834.492	752.2624	11636.55	10686.35
834.637	754.3439	11710.85	10760.35
834.782	756.4247	11795.75	10834.85
834.9269	758.5048	11931	10984.9
835.0719	760.5843	12222.55	11267.8
835.2169	762.6631	12589.75	11636.65
835.3619	764.7413	13127.3	12176.1
835.5069	766.8188	13770.5	12817.65
835.6519	768.8956	14308.15	13360.85
835.7969	770.9718	14671.35	13722.7
835.9419	773.0473	14563.85	13611.85
836.0869	775.1221	14287.15	13337.95
836.232	777.1962	14033.3	13082.9
836.377	779.2697	13901.95	12950.65
836.522	781.3426	13963.65	13001.5
836.667	783.4147	14084.05	13130
836.8121	785.4862	14220.25	13268.65
836.9571	787.557	14076.15	13118.5
837.1021	789.6271	13699.75	12744
837.2472	791.6966	13081.35	12126.65
837.3922	793.7654	12517.95	11565.4
837.5373	795.8335	12163.3	11212.3
837.6823	797.901	11880.5	10929.25
837.8274	799.9678	11755.85	10800.5
837.9724	802.0339	11665.4	10709.95
838.1175	804.0993	11656.05	10689.55
838.2626	806.1641	11596.15	10640.25
838.4076	808.2282	11528.4	10574.6
838.5527	810.2916	11452.35	10498.15
838.6978	812.3544	11374.2	10422.5
838.8428	814.4164	11304.5	10352.25
838.9879	816.4778	11364.45	10409.85
839.133	818.5385	11382.9	10427.2
839.2781	820.5986	11513.35	10558.15
839.4232	822.658	11711.65	10753.5
839.5682	824.7166	11977	11024
839.7133	826.7747	12402	11443.5
839.8584	828.832	12841.8	11886.8
840.0035	830.8886	13134.7	12177.35
840.1486	832.9446	13343.9	12386.15
840.2937	834.9999	13219.35	12264.05
840.4388	837.0545	13024.45	12064.45
840.5839	839.1085	12776.1	11816.3
840.729	841.1618	12545.7	11584.4
840.8741	843.2143	12333.9	11379.45
841.0192	845.2662	12167.2	11211.7
841.1643	847.3175	12077.05	11119.05
841.3095	849.368	11974.45	11014.1
841.4546	851.4179	11847.9	10891.25
841.5997	853.467	11747.2	10789.05
841.7448	855.5155	11682.65	10723.55
841.8899	857.5633	11622.45	10664.6
842.0351	859.6105	11511.25	10554.45
842.1802	861.6569	11409.4	10451.4
842.3253	863.7027	11366.4	10407.45
842.4704	865.7478	11330.35	10370.9
842.6156	867.7922	11292.85	10335.6
842.7607	869.8359	11304.7	10347.1
842.9058	871.8789	11351.4	10390.65
843.0509	873.9212	11462.95	10472.7
843.1961	875.9629	11568	10607.2
843.3412	878.0039	11697.5	10740.55
843.4863	880.0441	11769.75	10817.95
843.6315	882.0837	11815.35	10859.3
843.7766	884.1226	11834.45	10877.9
843.9218	886.1609	11816.65	10859.2
844.0669	888.1984	11879.3	10920.1
844.212	890.2352	11975.35	11016.35
844.3572	892.2714	12014.15	11047.9
844.5023	894.3069	11928.05	10967.55
844.6475	896.3416	11771.15	10811.65
844.7926	898.3757	11718.95	10759.25
844.9377	900.4091	11637.65	10674.9
845.0829	902.4418	11616.7	10650.3
845.228	904.4739	11662.5	10698.7
845.3732	906.5052	11717.95	10754.65
845.5183	908.5358	11646.1	10683.6
845.6635	910.5658	11520.95	10558.85
845.8086	912.595	11307.2	10345.5
845.9538	914.6236	11109.2	10146.05
846.0989	916.6515	11013.75	10050.75
846.2441	918.6786	10936.2	9974.05
846.3892	920.7051	10962.7	9999.1
846.5344	922.7309	11023.65	10064.25
846.6795	924.756	11053.85	10093.15
846.8246	926.7804	11149.75	10183.95
846.9698	928.8041	11127.75	10164.7
847.1149	930.8272	11170.1	10207
847.2601	932.8495	11157.05	10195.6
847.4052	934.8711	11144.95	10181.2
847.5504	936.892	11049.65	10088.3
847.6955	938.9123	11016.15	10052.25
847.8407	940.9318	10977.2	10011
847.9858	942.9506	10964.15	10002.25
848.131	944.9688	10900.95	9940.95
848.2761	946.9862	10830.1	9869.15
848.4213	949.003	10695.75	9733.45
848.5664	951.019	10651.25	9684.95
848.7115	953.0344	10603.95	9645.1
848.8567	955.0491	10599.35	9634.15
849.0018	957.063	10632.2	9668.7
849.147	959.0763	10739.45	9778.5
849.2921	961.0888	10764.2	9802.2
849.4373	963.1007	10835.3	9874.3
849.5824	965.1119	10825.45	9872.6
849.7275	967.1223	10827.7	9883.65
849.8727	969.1321	10840.95	9897.25
850.0178	971.1412	10830.7	9880.1
850.1629	973.1495	10827.85	9871.2
850.3081	975.1572	10889.6	9884.15
850.4532	977.1641	10902.55	9939.2
850.5983	979.1704	10872.2	9911.55
850.7435	981.1759	10851.4	9883.85
850.8886	983.1808	10851.8	9886.55
851.0337	985.1849	10868.65	9897.25
851.1788	987.1884	10990.15	10029.2
851.324	989.1911	11072.75	10110.4
851.4691	991.1932	11173.9	10216.8
851.6142	993.1945	11194.2	10232.45
851.7593	995.1951	11164.7	10199.8
851.9045	997.1951	11132.45	10163.55
852.0496	999.1943	11085.55	10121.45
852.1947	1001.1928	11048.5	10085.2
852.3398	1003.1906	11108.85	10147.5
852.4849	1005.1877	11218.75	10257.45
852.63	1007.1841	11259.65	10300.9
852.7751	1009.1798	11252.25	10288.3
852.9202	1011.1748	11143.4	10180.35
853.0653	1013.1691	10989.2	10028.3
853.2104	1015.1627	10796.55	9834.8
853.3555	1017.1556	10585.15	9624.55
853.5006	1019.1477	10467.85	9509.35
853.6457	1021.1392	10403.8	9453.45
853.7908	1023.1299	10358.6	9411.95
853.9359	1025.12	10359.4	9418.6
854.081	1027.1093	10423.8	9495.3
854.2261	1029.0979	10528.8	9604.1
854.3712	1031.0859	10596.3	9664.6
854.5163	1033.0731	10625.85	9681.15
854.6613	1035.0596	10581.3	9631.1
854.8064	1037.0454	10472.7	9520.05
854.9515	1039.0304	10378.85	9423.8
855.0965	1041.0148	10257.6	9298.75
855.2416	1042.9985	10153.25	9196.25
855.3867	1044.9814	10127.1	9170.95
855.5317	1046.9636	10078.3	9118.45
855.6768	1048.9452	10061.95	9105.75
855.8219	1050.926	10084.25	9125.75
855.9669	1052.9061	10121.55	9167.35
856.112	1054.8855	10141.35	9184.1
856.257	1056.8642	10173.45	9217.1
856.4021	1058.8421	10210.85	9247.8
856.5471	1060.8194	10256.7	9297.9
856.6921	1062.7959	10302.8	9346.3
856.8372	1064.7717	10361.55	9402.65
856.9822	1066.7469	10417.3	9458.8
857.1272	1068.7213	10466.05	9507.1
857.2723	1070.695	10511.5	9553.2
857.4173	1072.6679	10532.1	9574.85
857.5623	1074.6402	10530.4	9571.85
857.7073	1076.6117	10485.7	9521.35
857.8523	1078.5826	10437.65	9477.05
857.9973	1080.5527	10322.85	9363.15
858.1423	1082.5221	10253.55	9296.5
858.2873	1084.4908	10308.25	9350.8
858.4323	1086.4587	10355.15	9398.55
858.5773	1088.426	10449.75	9489.55
858.7223	1090.3925	10471.9	9509.4
858.8673	1092.3584	10475.25	9514.75
859.0123	1094.3235	10451.65	9491.3
859.1573	1096.2879	10475.35	9518.55
859.3022	1098.2515	10545.05	9588.5
859.4472	1100.2145	10708.8	9753.4
859.5922	1102.1767	10866.35	9907.05
859.7371	1104.1382	11044.65	10091
859.8821	1106.099	11306.05	10348.2
860.027	1108.0591	11504.6	10547.85
860.172	1110.0185	11664.1	10706
860.3169	1111.9771	11714.45	10757.7
860.4619	1113.9351	11610.15	10653.85
860.6068	1115.8923	11449.7	10492.45
860.7517	1117.8488	11295.65	10337.4
860.8967	1119.8045	11062.7	10105.25
861.0416	1121.7596	10944.5	9985.4
861.1865	1123.7139	10822.35	9863.1
861.3314	1125.6675	10800.7	9843.75
861.4763	1127.6204	10841.35	9888.45
861.6212	1129.5726	10801.85	9841.5
861.7661	1131.524	10720.45	9767.2
861.911	1133.4748	10603.55	9647.2
862.0559	1135.4248	10465.55	9507
862.2008	1137.3741	10361.9	9405.7
862.3457	1139.3226	10264.95	9308.2
862.4905	1141.2705	10229.35	9274.15
862.6354	1143.2176	10123	9160.15
862.7803	1145.164	10089.95	9130.1
862.9251	1147.1097	10039.85	9081.4
863.07	1149.0546	9962.65	9004.1
863.2148	1150.9989	9895.5	8938.3
863.3597	1152.9424	9812.85	8856.5
863.5045	1154.8852	9699.1	8742.4
863.6493	1156.8272	9623.6	8665.9
863.7942	1158.7686	9629.5	8667.85
863.939	1160.7092	9625.1	8667.45
864.0838	1162.6491	9657.95	8697.4
864.2286	1164.5883	9736.35	8780.45
864.3734	1166.5267	9857.85	8897.4
864.5182	1168.4644	10025.4	9070
864.663	1170.4014	10203.15	9246.95
864.8078	1172.3377	10424.6	9474.55
864.9526	1174.2732	10744.95	9793.5
865.0974	1176.2081	11121.05	10168.5
865.2421	1178.1421	11532.65	10575.2
865.3869	1180.0755	11987.25	11035.1
865.5317	1182.0082	12259.45	11308.35
865.6764	1183.9401	12419.25	11467.65
865.8212	1185.8713	12284.55	11339.5
