Software Version:	3.9.2.0
Unit SN:	10000200
Spectrometer SN:	6960
Date:	3/8/2024 1:22:34 PM
Data Line Index:	25
Spectral Points:	2048
Integration time (ms):	125
Averages:	20
Delay (ms):	30000
Sequence Number:	1
Processing:	dark subtract
Laser Power (mW):	300
Laser Current (mA):	822
Laser Diode Temp (C):	25
Laser Case Temp (C):	26.2
System Temp (C):	26.2
Spectrometer Temp (C):	23.9
CCD Temp (C):	0.013
Secondary Temp (C):	20.014
Heatsink Temp (C):	21.237
CCDPCB Temp (C):	36.274
SecondaryPCB Temp (C):	29.837

Wavelength	RamanShift	Raw Counts	Dark Subtracted
787.061	30.1047	453.35	46.8
787.2016	32.3739	452.75	49.9
787.3422	34.6426	455.45	49.3
787.4828	36.9109	465.6	57.75
787.6235	39.1787	469.05	57.2
787.7642	41.4461	481.05	63.5
787.9049	43.7131	490.7	70.25
788.0456	45.9796	496.15	73.35
788.1863	48.2456	509.1	83.45
788.3271	50.5112	517.65	86.45
788.4679	52.7764	522.7	87.85
788.6087	55.0411	535.75	96.6
788.7496	57.3054	544.75	100.55
788.8904	59.5692	550	102.65
789.0313	61.8326	567.3	117.1
789.1722	64.0955	575.5	122.75
789.3132	66.3579	591.15	132.6
789.4541	68.6199	608.3	145.9
789.5951	70.8815	640.65	173.05
789.7361	73.1426	723.45	252.85
789.8771	75.4032	922.45	449.9
790.0181	77.6634	1409.5	929.55
790.1592	79.9231	2529.45	2040.15
790.3003	82.1824	5004.25	4497.7
790.4414	84.4412	9410.95	8875.25
790.5825	86.6995	15504.2	14925.1
790.7237	88.9574	21427.1	20817.4
790.8648	91.2148	25477.4	24840.4
791.006	93.4717	27316.85	26669
791.1472	95.7282	27627.2	26967.05
791.2885	97.9842	27439.2	26771.45
791.4297	100.2398	26819.3	26148.15
791.571	102.4949	26151.55	25485
791.7123	104.7495	25342.1	24671.65
791.8536	107.0036	24514.85	23843
791.9949	109.2573	23733.95	23060.5
792.1363	111.5105	22968.85	22291.9
792.2777	113.7632	22239.5	21565.8
792.4191	116.0154	21688.25	20999.55
792.5605	118.2672	21202.9	20520.1
792.7019	120.5185	20759.85	20075.75
792.8434	122.7693	20407.15	19715.5
792.9849	125.0197	20110.4	19421.9
793.1264	127.2696	19781.25	19087.65
793.2679	129.519	19663	18964.2
793.4094	131.7679	19405.9	18705.4
793.551	134.0163	19184.8	18475.75
793.6926	136.2642	18969.35	18262.15
793.8342	138.5117	18699.45	17988.1
793.9758	140.7587	18390.2	17677.6
794.1175	143.0052	18135.7	17420.1
794.2591	145.2512	17849.4	17135.65
794.4008	147.4967	17594	16882.85
794.5425	149.7417	17420.6	16703.35
794.6842	151.9863	17284.9	16559.65
794.826	154.2304	17217.9	16487.95
794.9677	156.4739	17058.5	16324.75
795.1095	158.717	16965.5	16234.15
795.2513	160.9596	16821	16086.35
795.3931	163.2017	16576.8	15837.85
795.535	165.4433	16287.15	15546.35
795.6768	167.6844	15953.65	15210.9
795.8187	169.925	15634.1	14887.2
795.9606	172.1651	15265.05	14514.85
796.1025	174.4047	14958.75	14208.2
796.2445	176.6439	14731.75	13977.1
796.3864	178.8825	14486.5	13731.5
796.5284	181.1206	14330.75	13567.75
796.6704	183.3582	14174.45	13408.8
796.8124	185.5954	14051.25	13286.75
796.9544	187.832	13988.85	13216.9
797.0965	190.0681	13941.9	13168.5
797.2386	192.3037	13957.85	13177.15
797.3806	194.5388	13945	13163
797.5228	196.7734	13960.6	13180.9
797.6649	199.0075	14021.8	13237.55
797.807	201.2411	14151.15	13367.4
797.9492	203.4742	14224.1	13439.5
798.0914	205.7068	14397.1	13607.4
798.2336	207.9389	14503.95	13712.75
798.3758	210.1704	14639.9	13854.3
798.518	212.4015	14761.3	13986
798.6603	214.632	14913.15	14145
798.8025	216.862	15068.85	14300.65
798.9448	219.0915	15223.3	14449.15
799.0871	221.3205	15432.75	14657.9
799.2294	223.549	15600.2	14835.55
799.3718	225.777	15856.5	15089.1
799.5141	228.0044	16144.6	15369.3
799.6565	230.2314	16479.7	15698.75
799.7989	232.4578	16803.7	16027.6
799.9413	234.6837	17102.5	16319.75
800.0837	236.909	17265.35	16480.35
800.2262	239.1339	17256.35	16440.15
800.3687	241.3582	17108.4	16309.45
800.5111	243.582	16836.6	16001.45
800.6536	245.8053	16576.5	15757.35
800.7961	248.0281	16293.55	15483.05
800.9387	250.2503	16132.8	15313.4
801.0812	252.472	16041.6	15222.05
801.2238	254.6932	16038.05	15223.9
801.3664	256.9139	16026.2	15210.05
801.509	259.134	16085.7	15265.1
801.6516	261.3536	16144.95	15325.8
801.7942	263.5727	16285.05	15465.15
801.9369	265.7912	16372.1	15550.6
802.0795	268.0092	16475.55	15653.05
802.2222	270.2267	16499.15	15675
802.3649	272.4436	16527.55	15705
802.5076	274.6601	16494.85	15659.8
802.6504	276.8759	16387.6	15562.75
802.7931	279.0913	16282.7	15452.9
802.9359	281.3061	16201.5	15369.8
803.0787	283.5204	16243.55	15408
803.2215	285.7341	16246.9	15410.15
803.3643	287.9473	16385.05	15533.5
803.5071	290.16	16537.65	15696.5
803.6499	292.3721	16816.65	15984.15
803.7928	294.5837	17186.55	16352.5
803.9357	296.7947	17481.1	16643.85
804.0786	299.0052	17695.1	16858.15
804.2215	301.2152	17578.9	16739.85
804.3644	303.4246	17280.2	16447.3
804.5074	305.6334	16801.2	15965.3
804.6503	307.8418	16294.1	15450.75
804.7933	310.0495	15887.8	15046.5
804.9363	312.2568	15525.1	14682.95
805.0793	314.4635	15240.5	14397.8
805.2223	316.6696	15074.3	14224.3
805.3653	318.8752	15004.85	14147.45
805.5084	321.0802	15048.8	14199.65
805.6514	323.2847	15099.4	14246.9
805.7945	325.4887	15163	14309.05
805.9376	327.692	15085.35	14234.25
806.0807	329.8949	15002.75	14148.25
806.2238	332.0972	14742.95	13889.25
806.367	334.2989	14533.9	13673.8
806.5101	336.5001	14251.1	13391
806.6533	338.7007	14054.15	13191.9
806.7965	340.9008	13929.55	13065.2
806.9397	343.1003	13781.9	12923.35
807.0829	345.2992	13707	12842.7
807.2261	347.4976	13662.3	12798.9
807.3693	349.6955	13667.95	12805.1
807.5126	351.8927	13722.45	12854.7
807.6559	354.0895	13659	12774.45
807.7991	356.2856	13678	12806.2
807.9424	358.4812	13668.15	12793.25
808.0857	360.6763	13706.2	12831.95
808.2291	362.8707	13675.35	12803.25
808.3724	365.0646	13723.15	12843.45
808.5158	367.258	13713.95	12836.95
808.6591	369.4508	13753.3	12874.1
808.8025	371.643	13850.2	12967.2
808.9459	373.8346	13881.75	12999.25
809.0893	376.0257	13878.95	12995.7
809.2327	378.2162	13861.95	12983.6
809.3762	380.4062	13742.05	12863.35
809.5196	382.5956	13627.7	12750.25
809.6631	384.7844	13546.95	12674.35
809.8066	386.9726	13404.15	12530.9
809.9501	389.1603	13363.65	12492.65
810.0936	391.3474	13333.4	12424.75
810.2371	393.5339	13298.95	12419.6
810.3806	395.7199	13252.4	12375.5
810.5241	397.9052	13279.95	12406.3
810.6677	400.09	13288.6	12417
810.8113	402.2743	13366.85	12493.05
810.9548	404.4579	13493.45	12616.8
811.0984	406.641	13695.4	12818.7
811.2421	408.8235	13841.85	12963.75
811.3857	411.0054	14104.4	13220.3
811.5293	413.1868	14468.5	13583.6
811.673	415.3675	14753.2	13863.15
811.8166	417.5477	14913.35	14022.2
811.9603	419.7273	14934.95	14046.55
812.104	421.9064	14823.05	13926.45
812.2477	424.0848	14681.55	13792.2
812.3914	426.2627	14519.3	13630.65
812.5351	428.4399	14233.15	13342.6
812.6788	430.6166	13893.5	12999.05
812.8226	432.7928	13579.1	12680.8
812.9663	434.9683	13245.1	12354.55
813.1101	437.1432	13003.05	12112.45
813.2539	439.3176	12850.75	11963.55
813.3977	441.4914	12730.3	11847.25
813.5415	443.6645	12720.2	11834.35
813.6853	445.8371	12670.7	11776.65
813.8291	448.0091	12625.95	11734
813.973	450.1806	12590.3	11700.5
814.1168	452.3514	12518.45	11628.6
814.2607	454.5216	12546.35	11651
814.4046	456.6913	12501.55	11608.95
814.5485	458.8603	12533.15	11644.9
814.6924	461.0288	12595.05	11710.45
814.8363	463.1967	12603.05	11719.65
814.9802	465.3639	12693.35	11804.45
815.1241	467.5306	12772.15	11883.15
815.2681	469.6967	12882.05	11996.85
815.412	471.8622	12949.8	12063.4
815.556	474.0271	13096.4	12210
815.7	476.1914	13159.9	12269.5
815.844	478.3551	13154.95	12261.15
815.988	480.5182	13132.85	12245.9
816.132	482.6807	13160.75	12280.9
816.276	484.8426	13327	12451.2
816.4201	487.0039	13584.35	12700.5
816.5641	489.1647	13988.8	13098.35
816.7082	491.3248	14385.65	13493.5
816.8522	493.4843	14569.05	13682.35
816.9963	495.6432	14505.1	13619.05
817.1404	497.8015	14429.7	13531.7
817.2845	499.9592	14401.3	13494.2
817.4286	502.1163	14301.6	13395.05
817.5727	504.2728	14021.85	13128.45
817.7168	506.4287	13737	12852.55
817.861	508.5839	13348.3	12461.2
818.0051	510.7386	13060	12167.9
818.1493	512.8927	12918.25	12012.45
818.2935	515.0461	12819.4	11915.55
818.4377	517.199	12825.25	11925.4
818.5818	519.3512	12847.9	11946.65
818.726	521.5029	12993.7	12088.4
818.8703	523.6539	13104.45	12205.35
819.0145	525.8043	13222.05	12316.2
819.1587	527.9541	13211.55	12306.55
819.303	530.1033	13110.6	12205.25
819.4472	532.2519	13103.5	12204
819.5915	534.3999	13153.4	12248.65
819.7357	536.5472	13375.2	12473.8
819.88	538.694	13752.6	12858.6
820.0243	540.8401	14229.9	13326.5
820.1686	542.9856	14655.35	13743.1
820.3129	545.1305	14770.85	13854.6
820.4572	547.2748	14667.75	13744.85
820.6016	549.4185	14371.7	13450.3
820.7459	551.5615	14066.35	13147.85
820.8902	553.704	13951.4	13032.35
821.0346	555.8458	13942.3	13031.35
821.1789	557.987	14038.1	13126.25
821.3233	560.1276	14059.35	13146.85
821.4677	562.2675	14215.05	13301.75
821.6121	564.4069	14427.05	13514.6
821.7565	566.5456	14544.75	13627.95
821.9009	568.6837	14525.3	13620.4
822.0453	570.8212	14213.8	13301
822.1897	572.958	13780.2	12867.15
822.3342	575.0942	13369.65	12459.8
822.4786	577.2299	13131.5	12223.05
822.6231	579.3648	13028.5	12135
822.7675	581.4992	13058.45	12176
822.912	583.6329	13224.4	12338.7
823.0565	585.766	13454.75	12565.7
823.201	587.8985	13587.5	12690.4
823.3454	590.0304	13607.7	12678.05
823.4899	592.1616	13547.1	12630.6
823.6345	594.2922	13424.5	12505.65
823.779	596.4222	13250.25	12328.6
823.9235	598.5515	13066.35	12145.6
824.068	600.6802	12943.55	12022.3
824.2126	602.8083	12759.1	11842.5
824.3571	604.9358	12710.5	11792.45
824.5017	607.0626	12691.9	11769.95
824.6462	609.1888	12705.7	11781.75
824.7908	611.3144	12719.1	11790.65
824.9354	613.4393	12664.6	11738.35
825.08	615.5636	12629.5	11703.15
825.2246	617.6873	12579	11650.4
825.3692	619.8103	12538.75	11615.15
825.5138	621.9327	12401.6	11480.4
825.6584	624.0544	12320.8	11405.25
825.803	626.1756	12246.7	11327.95
825.9477	628.2961	12163.75	11236.95
826.0923	630.4159	12118.35	11191.9
826.237	632.5351	12093.8	11167.75
826.3816	634.6537	12025.3	11098.2
826.5263	636.7716	12026.15	11096.25
826.6709	638.8889	12041.2	11107.4
826.8156	641.0056	12070.8	11138.1
826.9603	643.1216	12023.65	11089.05
827.105	645.237	12078.5	11147.8
827.2497	647.3518	12007.45	11086.85
827.3944	649.4659	11994.25	11078.25
827.5391	651.5793	11986.45	11072.85
827.6838	653.6922	11980.5	11060.75
827.8285	655.8043	11949	11026.5
827.9733	657.9159	11940.95	11018.5
828.118	660.0268	11861.45	10937.15
828.2627	662.137	11828.65	10900.1
828.4075	664.2466	11853.25	10918.2
828.5522	666.3556	11825.9	10894.45
828.697	668.4639	11809.7	10883.2
828.8418	670.5716	11826.35	10902.65
828.9865	672.6786	11858.75	10929.9
829.1313	674.785	11903.65	10968.8
829.2761	676.8907	11924.7	10997.85
829.4209	678.9958	11994.65	11072.55
829.5657	681.1002	11968.55	11040.6
829.7105	683.204	11949.65	11008.55
829.8553	685.3072	11912.9	10979.25
830.0001	687.4097	11867.7	10933
830.1449	689.5115	11847.2	10915.15
830.2898	691.6127	11816.55	10887.85
830.4346	693.7132	11731.85	10807.35
830.5794	695.8131	11745	10804.5
830.7243	697.9123	11744	10804.45
830.8691	700.0109	11742.7	10803.4
831.014	702.1089	11714.05	10779.85
831.1588	704.2061	11724.9	10788.85
831.3037	706.3028	11788.45	10848.65
831.4486	708.3987	11813.6	10876.9
831.5935	710.4941	11888.6	10954.2
831.7383	712.5887	12031.95	11098.45
831.8832	714.6827	12212.55	11275.55
832.0281	716.7761	12487.9	11557.8
832.173	718.8688	12783.95	11850.35
832.3179	720.9608	13005.4	12062.65
832.4628	723.0522	13101.55	12154
832.6077	725.1429	12971.7	12033.95
832.7527	727.233	12800.15	11864.65
832.8976	729.3224	12669.8	11728.85
833.0425	731.4112	12452.8	11514.4
833.1874	733.4993	12278.1	11338.85
833.3324	735.5867	12131	11196.05
833.4773	737.6735	11970.8	11032.3
833.6222	739.7596	11851.9	10909.45
833.7672	741.845	11776.65	10836.95
833.9122	743.9298	11772.45	10831.45
834.0571	746.014	11759.6	10822.65
834.2021	748.0974	11751.6	10809.15
834.347	750.1802	11757.9	10811.5
834.492	752.2624	11758.15	10815.05
834.637	754.3439	11806.35	10864.5
834.782	756.4247	11896.8	10939.6
834.9269	758.5048	12023.8	11082.95
835.0719	760.5843	12284.4	11341.2
835.2169	762.6631	12629.35	11686.55
835.3619	764.7413	13112.4	12167.7
835.5069	766.8188	13723.7	12779.8
835.6519	768.8956	14220.35	13275.65
835.7969	770.9718	14545.7	13605.75
835.9419	773.0473	14415.35	13471
836.0869	775.1221	14106.15	13159.7
836.232	777.1962	13798.25	12852.95
836.377	779.2697	13595.7	12648.8
836.522	781.3426	13664.15	12707.05
836.667	783.4147	13861.35	12915.35
836.8121	785.4862	14074.8	13131.15
836.9571	787.557	14057.75	13111.2
837.1021	789.6271	13672.45	12725.45
837.2472	791.6966	13102.8	12157.25
837.3922	793.7654	12546.65	11599.2
837.5373	795.8335	12221.3	11280.2
837.6823	797.901	11992.85	11047.55
837.8274	799.9678	11934.15	10986.35
837.9724	802.0339	11895.85	10947.7
838.1175	804.0993	11899.1	10937.4
838.2626	806.1641	11883.05	10934.75
838.4076	808.2282	11826.15	10877.55
838.5527	810.2916	11728.75	10779.25
838.6978	812.3544	11651.75	10706.3
838.8428	814.4164	11566.45	10619.65
838.9879	816.4778	11593.5	10641.15
839.133	818.5385	11635.55	10684.2
839.2781	820.5986	11713.75	10758.75
839.4232	822.658	11835.6	10885.05
839.5682	824.7166	12046.45	11097.2
839.7133	826.7747	12386.85	11435.9
839.8584	828.832	12643.25	11689.25
840.0035	830.8886	12870.15	11917.65
840.1486	832.9446	13022.3	12070.7
840.2937	834.9999	12998.1	12048.35
840.4388	837.0545	12913.55	11958.35
840.5839	839.1085	12780.1	11830.45
840.729	841.1618	12630.95	11676.25
840.8741	843.2143	12571.25	11617.95
841.0192	845.2662	12443	11489.1
841.1643	847.3175	12372.85	11424.4
841.3095	849.368	12260.3	11307.9
841.4546	851.4179	12147.3	11192.15
841.5997	853.467	12033.8	11079
841.7448	855.5155	11933.95	10982.2
841.8899	857.5633	11869.45	10915.85
842.0351	859.6105	11771.05	10825.6
842.1802	861.6569	11704.3	10751.4
842.3253	863.7027	11639.3	10683.65
842.4704	865.7478	11616.4	10663.6
842.6156	867.7922	11618.55	10662.75
842.7607	869.8359	11626.35	10672.45
842.9058	871.8789	11721.9	10765.3
843.0509	873.9212	11859.8	10873.9
843.1961	875.9629	11953.5	10997.7
843.3412	878.0039	12135.55	11180.35
843.4863	880.0441	12250.4	11301.65
843.6315	882.0837	12272.8	11319.9
843.7766	884.1226	12242.25	11289.05
843.9218	886.1609	12175.05	11222.65
844.0669	888.1984	12160.45	11209.45
844.212	890.2352	12172.3	11218.8
844.3572	892.2714	12173.5	11211.9
844.5023	894.3069	12142.9	11187.05
844.6475	896.3416	12033.75	11078.85
844.7926	898.3757	11969.75	11014.95
844.9377	900.4091	11929.05	10970.25
845.0829	902.4418	11947.5	10987.2
845.228	904.4739	11950.45	10989.6
845.3732	906.5052	11964.15	11005.05
845.5183	908.5358	11902.2	10946.4
845.6635	910.5658	11779.95	10823.75
845.8086	912.595	11607.25	10650.1
845.9538	914.6236	11404.75	10450.7
846.0989	916.6515	11337	10384.7
846.2441	918.6786	11307.5	10350.75
846.3892	920.7051	11341.6	10379.35
846.5344	922.7309	11457.35	10498.2
846.6795	924.756	11518.55	10560.25
846.8246	926.7804	11590.75	10636.45
846.9698	928.8041	11539.4	10584.7
847.1149	930.8272	11600.7	10640.65
847.2601	932.8495	11571.55	10612.05
847.4052	934.8711	11512.05	10552.8
847.5504	936.892	11406.05	10448
847.6955	938.9123	11314.4	10355.75
847.8407	940.9318	11252.55	10296
847.9858	942.9506	11186.45	10229.4
848.131	944.9688	11069.7	10111.7
848.2761	946.9862	10998.9	10043.55
848.4213	949.003	10937.75	9979.25
848.5664	951.019	10911	9953.05
848.7115	953.0344	10890.75	9933.05
848.8567	955.0491	10901.4	9944.7
849.0018	957.063	10969.5	10010.15
849.147	959.0763	11121.3	10164.95
849.2921	961.0888	11154.5	10197.35
849.4373	963.1007	11230.7	10276.65
849.5824	965.1119	11252.65	10307.3
849.7275	967.1223	11266.9	10330.35
849.8727	969.1321	11270.15	10329.25
850.0178	971.1412	11288.15	10341.85
850.1629	973.1495	11286.55	10337
850.3081	975.1572	11360.4	10359.75
850.4532	977.1641	11365.05	10407.15
850.5983	979.1704	11357.35	10395.85
850.7435	981.1759	11381.45	10416.65
850.8886	983.1808	11391.8	10433.4
851.0337	985.1849	11443.75	10477.5
851.1788	987.1884	11560.75	10598.2
851.324	989.1911	11748.8	10790.35
851.4691	991.1932	11845.1	10890.95
851.6142	993.1945	11883.6	10929.65
851.7593	995.1951	11846.7	10890.45
851.9045	997.1951	11811.5	10849.8
852.0496	999.1943	11778.1	10820.45
852.1947	1001.1928	11725.05	10767.3
852.3398	1003.1906	11739.9	10782.2
852.4849	1005.1877	11842.9	10885.15
852.63	1007.1841	11836.6	10882.2
852.7751	1009.1798	11823.3	10869.1
852.9202	1011.1748	11641.3	10687.95
853.0653	1013.1691	11455.7	10497.6
853.2104	1015.1627	11250.85	10294.6
853.3555	1017.1556	11080.6	10125.8
853.5006	1019.1477	10958.5	10010.6
853.6457	1021.1392	10859.05	9912.8
853.7908	1023.1299	10838.6	9893.7
853.9359	1025.12	10890.65	9951.85
854.081	1027.1093	10917.95	9991.65
854.2261	1029.0979	11028.95	10104.75
854.3712	1031.0859	11103.65	10173.75
854.5163	1033.0731	11106.85	10167.5
854.6613	1035.0596	11057.85	10112.8
854.8064	1037.0454	10938.8	9989.55
854.9515	1039.0304	10853.9	9898.55
855.0965	1041.0148	10707.3	9754.9
855.2416	1042.9985	10623.2	9665.5
855.3867	1044.9814	10588.2	9637.85
855.5317	1046.9636	10550.5	9595.05
855.6768	1048.9452	10515.35	9564.95
855.8219	1050.926	10562.55	9612.35
855.9669	1052.9061	10567.5	9615.3
856.112	1054.8855	10581.25	9626.8
856.257	1056.8642	10627.4	9672
856.4021	1058.8421	10702.2	9743.3
856.5471	1060.8194	10708.65	9753.85
856.6921	1062.7959	10734.4	9778.55
856.8372	1064.7717	10781.05	9824.35
856.9822	1066.7469	10808.65	9852.3
857.1272	1068.7213	10867.35	9911.55
857.2723	1070.695	10868.8	9915.15
857.4173	1072.6679	10818.7	9868.4
857.5623	1074.6402	10812.5	9855.95
857.7073	1076.6117	10781.1	9821.25
857.8523	1078.5826	10747	9789.8
857.9973	1080.5527	10703.9	9745.95
858.1423	1082.5221	10737.4	9782.35
858.2873	1084.4908	10859.7	9903.3
858.4323	1086.4587	11009.05	10056.25
858.5773	1088.426	11129.95	10172.5
858.7223	1090.3925	11093.3	10132.25
858.8673	1092.3584	11068.1	10114.4
859.0123	1094.3235	10992.85	10039.75
859.1573	1096.2879	11027.9	10075.05
859.3022	1098.2515	11052.3	10098.2
859.4472	1100.2145	11145.05	10190
859.5922	1102.1767	11257.65	10300.45
859.7371	1104.1382	11428.35	10474.3
859.8821	1106.099	11662.45	10707.6
860.027	1108.0591	11858.85	10906.75
860.172	1110.0185	11999.15	11041.2
860.3169	1111.9771	12083.05	11130.65
860.4619	1113.9351	11928.25	10974.3
860.6068	1115.8923	11685.95	10731.9
860.7517	1117.8488	11410.2	10455.05
860.8967	1119.8045	11185.85	10233.1
861.0416	1121.7596	11055.75	10104.85
861.1865	1123.7139	10952.15	10004.1
861.3314	1125.6675	10974.6	10022.65
861.4763	1127.6204	11024.25	10071.75
861.6212	1129.5726	10987.3	10029.55
861.7661	1131.524	10963.25	10011.55
861.911	1133.4748	10916.95	9960.35
862.0559	1135.4248	10814.4	9858.55
862.2008	1137.3741	10790.65	9840.45
862.3457	1139.3226	10696.9	9744.15
862.4905	1141.2705	10654.7	9699.85
862.6354	1143.2176	10596.75	9634.2
862.7803	1145.164	10549.1	9598.2
862.9251	1147.1097	10552.3	9598.8
863.07	1149.0546	10509.4	9553.55
863.2148	1150.9989	10430.5	9477.5
863.3597	1152.9424	10311.1	9358.4
863.5045	1154.8852	10157.5	9202.3
863.6493	1156.8272	10089.3	9140.4
863.7942	1158.7686	10069.95	9110.65
863.939	1160.7092	10057.8	9101.7
864.0838	1162.6491	10070.75	9115.65
864.2286	1164.5883	10140.8	9188.15
864.3734	1166.5267	10231.8	9279.55
864.5182	1168.4644	10396.35	9444.9
864.663	1170.4014	10579.85	9630.35
864.8078	1172.3377	10814.55	9866.8
864.9526	1174.2732	11052.55	10104.7
865.0974	1176.2081	11375.2	10422.9
865.2421	1178.1421	11700.85	10743.45
865.3869	1180.0755	12005.85	11053.2
865.5317	1182.0082	12212.65	11266.7
865.6764	1183.9401	12281.05	11332.7
