Software Version:	3.9.2.0
Unit SN:	10000200
Spectrometer SN:	6960
Date:	3/8/2024 11:34:07 AM
Data Line Index:	25
Spectral Points:	2048
Integration time (ms):	125
Averages:	20
Delay (ms):	30000
Sequence Number:	1
Processing:	dark subtract
Laser Power (mW):	305
Laser Current (mA):	822
Laser Diode Temp (C):	25
Laser Case Temp (C):	25.1
System Temp (C):	25
Spectrometer Temp (C):	23
CCD Temp (C):	0.008
Secondary Temp (C):	20.008
Heatsink Temp (C):	19.937
CCDPCB Temp (C):	33.172
SecondaryPCB Temp (C):	26.725

Wavelength	RamanShift	Raw Counts	Dark Subtracted
787.061	30.1047	415.75	5.1
787.2016	32.3739	414.3	7.95
787.3422	34.6426	415	6.7
787.4828	36.9109	417.55	7.95
787.6235	39.1787	420.7	6.5
787.7642	41.4461	427.55	8.85
787.9049	43.7131	432	9.35
788.0456	45.9796	433.95	10.15
788.1863	48.2456	437.85	8.45
788.3271	50.5112	444.2	10.9
788.4679	52.7764	447.35	12.85
788.6087	55.0411	450.1	10.05
788.7496	57.3054	457.05	13.2
788.8904	59.5692	460.4	13.85
789.0313	61.8326	464.3	15.35
789.1722	64.0955	469	17.45
789.3132	66.3579	475.2	18.9
789.4541	68.6199	481.75	20.9
789.5951	70.8815	493.4	29.5
789.7361	73.1426	512.2	43.15
789.8771	75.4032	546.1	74.4
790.0181	77.6634	623.4	147.75
790.1592	79.9231	806.8	328.45
790.3003	82.1824	1186.05	700.55
790.4414	84.4412	1798.75	1301.75
790.5825	86.6995	2573.85	2064.7
790.7237	88.9574	3317.8	2797.75
790.8648	91.2148	3805.45	3278.75
791.006	93.4717	4036.1	3505.9
791.1472	95.7282	4053.55	3519.65
791.2885	97.9842	4036	3498.8
791.4297	100.2398	3965.8	3424.8
791.571	102.4949	3923.05	3381.25
791.7123	104.7495	3888.5	3341.8
791.8536	107.0036	3838.2	3291.6
791.9949	109.2573	3747.2	3202.05
792.1363	111.5105	3664.4	3112.5
792.2777	113.7632	3541.95	2991.9
792.4191	116.0154	3447.75	2883.95
792.5605	118.2672	3334.45	2779.75
792.7019	120.5185	3223.6	2664.3
792.8434	122.7693	3122.7	2562.25
792.9849	125.0197	3032.65	2467.8
793.1264	127.2696	2953.95	2389
793.2679	129.519	2915.9	2346.25
793.4094	131.7679	2871.05	2297.75
793.551	134.0163	2850.5	2275.05
793.6926	136.2642	2839.55	2257.9
793.8342	138.5117	2815.6	2233.45
793.9758	140.7587	2793.45	2208.95
794.1175	143.0052	2747.1	2160.65
794.2591	145.2512	2703.2	2115.95
794.4008	147.4967	2638.15	2047.7
794.5425	149.7417	2596.85	2004.15
794.6842	151.9863	2577.65	1983.25
794.826	154.2304	2548.25	1949.3
794.9677	156.4739	2545.9	1939.65
795.1095	158.717	2555.45	1950.4
795.2513	160.9596	2582.35	1972.15
795.3931	163.2017	2615.55	2003.1
795.535	165.4433	2615.95	1999.9
795.6768	167.6844	2626.5	2010.9
795.8187	169.925	2589.15	1966.8
795.9606	172.1651	2538.7	1917.5
796.1025	174.4047	2487.85	1862.3
796.2445	176.6439	2439.35	1809.65
796.3864	178.8825	2412.8	1782.05
796.5284	181.1206	2395.3	1759.25
796.6704	183.3582	2380.1	1744.95
796.8124	185.5954	2381.55	1741.1
796.9544	187.832	2377.65	1731.9
797.0965	190.0681	2374.55	1726.35
797.2386	192.3037	2390.65	1739.6
797.3806	194.5388	2399.75	1746.3
797.5228	196.7734	2404.05	1750.1
797.6649	199.0075	2425.6	1770.65
797.807	201.2411	2453.4	1795.15
797.9492	203.4742	2465.75	1808.6
798.0914	205.7068	2500.3	1839.2
798.2336	207.9389	2514.85	1854.1
798.3758	210.1704	2536.3	1876
798.518	212.4015	2527	1875.25
798.6603	214.632	2525.35	1879.65
798.8025	216.862	2519.85	1876.25
798.9448	219.0915	2526.2	1884.4
799.0871	221.3205	2567.35	1921.55
799.2294	223.549	2558.55	1918
799.3718	225.777	2562.65	1920.7
799.5141	228.0044	2560.65	1910.15
799.6565	230.2314	2543.05	1892.2
799.7989	232.4578	2541.9	1885.65
799.9413	234.6837	2528.45	1864.6
800.0837	236.909	2520	1853.6
800.2262	239.1339	2522.95	1834.75
800.3687	241.3582	2493	1816.75
800.5111	243.582	2534.65	1831.3
800.6536	245.8053	2534.25	1841.25
800.7961	248.0281	2538.45	1849.65
800.9387	250.2503	2529.45	1836.8
801.0812	252.472	2555.45	1864
801.2238	254.6932	2550.25	1858.3
801.3664	256.9139	2562.65	1868.2
801.509	259.134	2572.6	1874.6
801.6516	261.3536	2601.8	1904.15
801.7942	263.5727	2645.15	1946.45
801.9369	265.7912	2690.65	1993.25
802.0795	268.0092	2753.35	2055.4
802.2222	270.2267	2822.8	2120.5
802.3649	272.4436	2878.35	2175.95
802.5076	274.6601	2918.9	2208.75
802.6504	276.8759	2938.3	2230.5
802.7931	279.0913	2957.3	2251.1
802.9359	281.3061	2977.1	2266.8
803.0787	283.5204	3001.8	2288.75
803.2215	285.7341	3023.55	2308.8
803.3643	287.9473	3054	2338.15
803.5071	290.16	3054.5	2335.7
803.6499	292.3721	3010.95	2300.15
803.7928	294.5837	2968.1	2254.05
803.9357	296.7947	2944.1	2231
804.0786	299.0052	2926.4	2210.8
804.2215	301.2152	2919.3	2200.85
804.3644	303.4246	2894.35	2178.7
804.5074	305.6334	2876.1	2158.45
804.6503	307.8418	2852.95	2131.6
804.7933	310.0495	2827.1	2105.75
804.9363	312.2568	2786.95	2065.9
805.0793	314.4635	2735.6	2010.5
805.2223	316.6696	2682.75	1958.4
805.3653	318.8752	2636.3	1900.95
805.5084	321.0802	2600.3	1872.6
805.6514	323.2847	2597.7	1870.45
805.7945	325.4887	2610.35	1880.9
805.9376	327.692	2621.5	1886.75
806.0807	329.8949	2668.45	1934.7
806.2238	332.0972	2725.45	1991.4
806.367	334.2989	2747.95	2007.7
806.5101	336.5001	2738.4	1999.2
806.6533	338.7007	2711.2	1972.7
806.7965	340.9008	2673.95	1933.85
806.9397	343.1003	2612.7	1869.2
807.0829	345.2992	2545.15	1801.1
807.2261	347.4976	2496.6	1751.2
807.3693	349.6955	2476.7	1728.45
807.5126	351.8927	2450.2	1699.4
807.6559	354.0895	2426.65	1665.15
807.7991	356.2856	2432.75	1679.05
807.9424	358.4812	2416.15	1664.7
808.0857	360.6763	2405.3	1650.35
808.2291	362.8707	2415.3	1659.8
808.3724	365.0646	2413.7	1653.6
808.5158	367.258	2424.75	1662.95
808.6591	369.4508	2437.6	1671.65
808.8025	371.643	2467.9	1703.7
808.9459	373.8346	2496.9	1733.65
809.0893	376.0257	2533.95	1766.4
809.2327	378.2162	2558.3	1792.95
809.3762	380.4062	2567.35	1799.35
809.5196	382.5956	2548.6	1784.35
809.6631	384.7844	2511.85	1749.8
809.8066	386.9726	2454.45	1693.3
809.9501	389.1603	2424.3	1665.4
810.0936	391.3474	2433.05	1640.65
810.2371	393.5339	2414.45	1651.3
810.3806	395.7199	2405.9	1647.35
810.5241	397.9052	2449.55	1687.75
810.6677	400.09	2486	1723.95
810.8113	402.2743	2537.3	1775.65
810.9548	404.4579	2576.6	1813.35
811.0984	406.641	2634.2	1868.7
811.2421	408.8235	2687.05	1921.45
811.3857	411.0054	2733	1961.85
811.5293	413.1868	2786.65	2013.2
811.673	415.3675	2847.05	2070.85
811.8166	417.5477	2840.65	2062.65
811.9603	419.7273	2784.05	2004
812.104	421.9064	2702.7	1917
812.2477	424.0848	2635.3	1853.65
812.3914	426.2627	2569.35	1785.9
812.5351	428.4399	2489.2	1708.55
812.6788	430.6166	2432.3	1647.55
812.8226	432.7928	2384.1	1597.8
812.9663	434.9683	2358.3	1567.85
813.1101	437.1432	2326.6	1535.25
813.2539	439.3176	2301.2	1513.3
813.3977	441.4914	2293.3	1506.55
813.5415	443.6645	2290.5	1502.05
813.6853	445.8371	2279.85	1489.2
813.8291	448.0091	2277.8	1490.35
813.973	450.1806	2273.75	1485.15
814.1168	452.3514	2268.4	1476.5
814.2607	454.5216	2281.45	1479.3
814.4046	456.6913	2280.1	1485.05
814.5485	458.8603	2289.4	1497.3
814.6924	461.0288	2282.15	1490
814.8363	463.1967	2282.45	1491.95
814.9802	465.3639	2287.85	1496.65
815.1241	467.5306	2275.35	1479.6
815.2681	469.6967	2258.1	1464.95
815.412	471.8622	2257.45	1467.15
815.556	474.0271	2249.9	1456.4
815.7	476.1914	2251.45	1455.1
815.844	478.3551	2236.45	1439.05
815.988	480.5182	2246.15	1450.05
816.132	482.6807	2243.4	1445.45
816.276	484.8426	2262.2	1467.65
816.4201	487.0039	2310.95	1514.55
816.5641	489.1647	2373.05	1573
816.7082	491.3248	2418.15	1618.45
816.8522	493.4843	2431.55	1631.4
816.9963	495.6432	2430.65	1627.9
817.1404	497.8015	2392.05	1586.8
817.2845	499.9592	2349.35	1545.45
817.4286	502.1163	2287.55	1483.05
817.5727	504.2728	2257.25	1451
817.7168	506.4287	2217.1	1414.45
817.861	508.5839	2209	1405.1
818.0051	510.7386	2190.95	1387.2
818.1493	512.8927	2197.85	1382.7
818.2935	515.0461	2212.9	1405.05
818.4377	517.199	2226.4	1419.3
818.5818	519.3512	2281.85	1469.8
818.726	521.5029	2351.8	1538.45
818.8703	523.6539	2414.4	1602.65
819.0145	525.8043	2431.55	1620.5
819.1587	527.9541	2371.15	1557.85
819.303	530.1033	2276.55	1462.05
819.4472	532.2519	2248.15	1434.75
819.5915	534.3999	2207.15	1391.7
819.7357	536.5472	2202	1389.5
819.88	538.694	2196.1	1381.9
820.0243	540.8401	2219.55	1404.4
820.1686	542.9856	2232.75	1414.6
820.3129	545.1305	2255.3	1433.35
820.4572	547.2748	2269.95	1450.05
820.6016	549.4185	2281.3	1462.35
820.7459	551.5615	2286.95	1468.35
820.8902	553.704	2300.45	1483.4
821.0346	555.8458	2320.15	1501.7
821.1789	557.987	2359.65	1542.95
821.3233	560.1276	2381	1561.3
821.4677	562.2675	2437.4	1619.15
821.6121	564.4069	2503	1683.8
821.7565	566.5456	2550.2	1734.1
821.9009	568.6837	2540.55	1721.65
822.0453	570.8212	2452.1	1632.8
822.1897	572.958	2352.75	1530.65
822.3342	575.0942	2298.75	1481.2
822.4786	577.2299	2266.85	1445.65
822.6231	579.3648	2229.4	1409.2
822.7675	581.4992	2209.5	1391
822.912	583.6329	2236	1418.7
823.0565	585.766	2260	1440.65
823.201	587.8985	2308.65	1486.9
823.3454	590.0304	2366.25	1530
823.4899	592.1616	2406.8	1578.25
823.6345	594.2922	2396	1567.9
823.779	596.4222	2347.45	1518.75
823.9235	598.5515	2282.45	1455.75
824.068	600.6802	2236	1406.5
824.2126	602.8083	2170.05	1343.55
824.3571	604.9358	2174.95	1345.3
824.5017	607.0626	2164.6	1337.7
824.6462	609.1888	2180.85	1350
824.7908	611.3144	2200.8	1368.75
824.9354	613.4393	2244.75	1413.85
825.08	615.5636	2307	1476.05
825.2246	617.6873	2352.25	1520.95
825.3692	619.8103	2390.45	1558.15
825.5138	621.9327	2389.1	1554.2
825.6584	624.0544	2348.4	1519.2
825.803	626.1756	2278.95	1447.75
825.9477	628.2961	2227.05	1395.2
826.0923	630.4159	2209.2	1375.25
826.237	632.5351	2200.3	1365.15
826.3816	634.6537	2181.9	1347.35
826.5263	636.7716	2179.5	1340.8
826.6709	638.8889	2166.35	1329.5
826.8156	641.0056	2171.5	1334.75
826.9603	643.1216	2187.75	1350.2
827.105	645.237	2192.05	1352.5
827.2497	647.3518	2159.2	1322.75
827.3944	649.4659	2145.25	1311.05
827.5391	651.5793	2125.45	1289.35
827.6838	653.6922	2105.8	1270.1
827.8285	655.8043	2096	1260.7
827.9733	657.9159	2082.2	1243.85
828.118	660.0268	2062.1	1219.6
828.2627	662.137	2075.25	1235.65
828.4075	664.2466	2067.2	1224.25
828.5522	666.3556	2070.4	1230.65
828.697	668.4639	2048.35	1206.7
828.8418	670.5716	2052.7	1214
828.9865	672.6786	2051.75	1210.05
829.1313	674.785	2033.15	1188.05
829.2761	676.8907	2031.15	1188
829.4209	678.9958	2034.55	1193.75
829.5657	681.1002	2030.4	1187.85
829.7105	683.204	2040.15	1189.9
829.8553	685.3072	2045.95	1200.65
830.0001	687.4097	2034.25	1188.65
830.1449	689.5115	2034.4	1188.55
830.2898	691.6127	2027.7	1182.2
830.4346	693.7132	2024.75	1181.1
830.5794	695.8131	2034.15	1177
830.7243	697.9123	2038.1	1187.95
830.8691	700.0109	2039.75	1193.05
831.014	702.1089	2042.4	1196.45
831.1588	704.2061	2063.2	1215.55
831.3037	706.3028	2084.25	1236.3
831.4486	708.3987	2111.3	1261.6
831.5935	710.4941	2127.8	1280.2
831.7383	712.5887	2134	1286.7
831.8832	714.6827	2133.4	1284.2
832.0281	716.7761	2112.5	1265.65
832.173	718.8688	2109.85	1258.5
832.3179	720.9608	2117.75	1261.75
832.4628	723.0522	2136.75	1279.75
832.6077	725.1429	2160.5	1309.15
832.7527	727.233	2200.15	1349.1
832.8976	729.3224	2277.3	1427.9
833.0425	731.4112	2326.2	1475.15
833.1874	733.4993	2339.3	1485.1
833.3324	735.5867	2280.55	1425.2
833.4773	737.6735	2199	1341.8
833.6222	739.7596	2132.65	1278.7
833.7672	741.845	2103.4	1249.3
833.9122	743.9298	2096.3	1239.4
834.0571	746.014	2103.05	1249.6
834.2021	748.0974	2104.85	1247.6
834.347	750.1802	2114.4	1257.65
834.492	752.2624	2105.8	1251.2
834.637	754.3439	2095.85	1238.95
834.782	756.4247	2106.1	1243.25
834.9269	758.5048	2097.9	1243.15
835.0719	760.5843	2118.65	1260.05
835.2169	762.6631	2157.6	1299.9
835.3619	764.7413	2210.75	1355.45
835.5069	766.8188	2307.25	1448.85
835.6519	768.8956	2402.5	1545.35
835.7969	770.9718	2455.5	1599.9
835.9419	773.0473	2454.55	1597.95
836.0869	775.1221	2413.95	1556.7
836.232	777.1962	2393.95	1533.95
836.377	779.2697	2467.45	1607.75
836.522	781.3426	2575.05	1699.05
836.667	783.4147	2645.3	1786.15
836.8121	785.4862	2618.35	1761.2
836.9571	787.557	2540.3	1681.85
837.1021	789.6271	2394.55	1537.45
837.2472	791.6966	2246.65	1388.15
837.3922	793.7654	2145	1285.3
837.5373	795.8335	2089.15	1230.1
837.6823	797.901	2052.1	1193
837.8274	799.9678	2036.65	1171.8
837.9724	802.0339	2033.45	1173.4
838.1175	804.0993	2051.35	1178.95
838.2626	806.1641	2018.7	1157.65
838.4076	808.2282	2011.25	1148.7
838.5527	810.2916	2001.75	1137.2
838.6978	812.3544	1975.95	1115.85
838.8428	814.4164	1970.25	1109.6
838.9879	816.4778	1983.4	1121.75
839.133	818.5385	1990.4	1127.2
839.2781	820.5986	2025.5	1162.35
839.4232	822.658	2078.8	1214.35
839.5682	824.7166	2152.45	1291.25
839.7133	826.7747	2248.35	1387.3
839.8584	828.832	2344.2	1480.05
840.0035	830.8886	2400.15	1534.7
840.1486	832.9446	2433.55	1567.1
840.2937	834.9999	2401.8	1537.95
840.4388	837.0545	2317.65	1448
840.5839	839.1085	2233.75	1370
840.729	841.1618	2138.4	1268.85
840.8741	843.2143	2085.1	1220.35
841.0192	845.2662	2038.95	1172.6
841.1643	847.3175	2022.4	1156.05
841.3095	849.368	2010.05	1143.85
841.4546	851.4179	2006.35	1142.45
841.5997	853.467	2008.7	1144.35
841.7448	855.5155	2011.55	1146.95
841.8899	857.5633	2022.35	1156.65
842.0351	859.6105	2012.75	1145.5
842.1802	861.6569	1992.55	1125.55
842.3253	863.7027	1981.2	1114.6
842.4704	865.7478	1973.15	1103.9
842.6156	867.7922	1966.25	1100.25
842.7607	869.8359	1950.4	1080.95
842.9058	871.8789	1944.75	1078.1
843.0509	873.9212	1978.8	1078.6
843.1961	875.9629	1958.55	1091.35
843.3412	878.0039	1970.8	1102.55
843.4863	880.0441	1977.25	1111.9
843.6315	882.0837	1996.4	1127.05
843.7766	884.1226	2034.7	1164.05
843.9218	886.1609	2077.6	1207.45
844.0669	888.1984	2131.05	1261.95
844.212	890.2352	2182.65	1314.3
844.3572	892.2714	2185.55	1312.9
844.5023	894.3069	2163.8	1293.7
844.6475	896.3416	2107.85	1237.4
844.7926	898.3757	2065.25	1196.8
844.9377	900.4091	2022.45	1149.75
845.0829	902.4418	2037.95	1160.3
845.228	904.4739	2054.55	1182.35
845.3732	906.5052	2075.3	1202.95
845.5183	908.5358	2064.5	1194.05
845.6635	910.5658	2050.4	1176.1
845.8086	912.595	1998.7	1127.3
845.9538	914.6236	1961.2	1089.55
846.0989	916.6515	1934.6	1063.1
846.2441	918.6786	1915.8	1043.6
846.3892	920.7051	1897.1	1023
846.5344	922.7309	1903.65	1030.95
846.6795	924.756	1891.1	1019
846.8246	926.7804	1921.4	1046.55
846.9698	928.8041	1917.1	1041.95
847.1149	930.8272	1934.55	1060.4
847.2601	932.8495	1955.5	1082.3
847.4052	934.8711	1957.7	1083.5
847.5504	936.892	1970.2	1096.45
847.6955	938.9123	1989	1116.15
847.8407	940.9318	2023.85	1149.4
847.9858	942.9506	2031.25	1157.3
848.131	944.9688	2024.15	1150.75
848.2761	946.9862	2000.25	1124.3
848.4213	949.003	1954.2	1078.4
848.5664	951.019	1928.4	1054.5
848.7115	953.0344	1904.75	1030.1
848.8567	955.0491	1888.85	1012.3
849.0018	957.063	1900	1026.95
849.147	959.0763	1894.2	1019.3
849.2921	961.0888	1881.45	1005.1
849.4373	963.1007	1876.1	1002.95
849.5824	965.1119	1866.9	990.55
849.7275	967.1223	1862.7	992.1
849.8727	969.1321	1857.05	986.05
850.0178	971.1412	1859.5	985.15
850.1629	973.1495	1852.4	976.55
850.3081	975.1572	1887	979.6
850.4532	977.1641	1857.6	981.25
850.5983	979.1704	1861	987.2
850.7435	981.1759	1853.5	973.45
850.8886	983.1808	1839.15	964.1
851.0337	985.1849	1845.15	960.75
851.1788	987.1884	1838.6	960.25
851.324	989.1911	1843.6	965.65
851.4691	991.1932	1850.75	974.85
851.6142	993.1945	1856.25	980.5
851.7593	995.1951	1845.45	968.55
851.9045	997.1951	1852.45	973.3
852.0496	999.1943	1835.6	959.8
852.1947	1001.1928	1849.3	969.35
852.3398	1003.1906	1848.45	972.2
852.4849	1005.1877	1881.5	1003.6
852.63	1007.1841	1904.35	1027.2
852.7751	1009.1798	1922.75	1047.55
852.9202	1011.1748	1910.6	1033.6
853.0653	1013.1691	1878.05	999.3
853.2104	1015.1627	1850.1	972.85
853.3555	1017.1556	1819.7	942.25
853.5006	1019.1477	1800.15	922.95
853.6457	1021.1392	1766.55	889.55
853.7908	1023.1299	1764.25	887.15
853.9359	1025.12	1765.4	891.15
854.081	1027.1093	1766.3	896.25
854.2261	1029.0979	1792.55	921.75
854.3712	1031.0859	1817.5	946.15
854.5163	1033.0731	1828.25	951.75
854.6613	1035.0596	1835.1	960.95
854.8064	1037.0454	1822.35	944.05
854.9515	1039.0304	1808.6	932.25
855.0965	1041.0148	1778.95	899.7
855.2416	1042.9985	1764.8	884.8
855.3867	1044.9814	1751.65	873.2
855.5317	1046.9636	1755.15	875.4
855.6768	1048.9452	1766.05	887.9
855.8219	1050.926	1772.6	896.8
855.9669	1052.9061	1794.75	918.25
856.112	1054.8855	1802.65	924.05
856.257	1056.8642	1805.75	925.55
856.4021	1058.8421	1805.85	922.4
856.5471	1060.8194	1791.05	912.05
856.6921	1062.7959	1793.3	913.2
856.8372	1064.7717	1789.9	910
856.9822	1066.7469	1788.15	907.4
857.1272	1068.7213	1786.7	906.15
857.2723	1070.695	1821.75	941
857.4173	1072.6679	1841.6	960.5
857.5623	1074.6402	1858.95	977.85
857.7073	1076.6117	1873.8	988.55
857.8523	1078.5826	1852	971.75
857.9973	1080.5527	1812.4	929.8
858.1423	1082.5221	1774.3	893.7
858.2873	1084.4908	1734.5	854.45
858.4323	1086.4587	1720.05	836.45
858.5773	1088.426	1706.15	825.6
858.7223	1090.3925	1709.05	824.8
858.8673	1092.3584	1722.1	841.8
859.0123	1094.3235	1730.35	851.15
859.1573	1096.2879	1746.5	864.6
859.3022	1098.2515	1776.8	894.6
859.4472	1100.2145	1808.15	929.6
859.5922	1102.1767	1843.15	958.2
859.7371	1104.1382	1889.95	1010.05
859.8821	1106.099	1938.6	1054.6
860.027	1108.0591	1994.2	1114.75
860.172	1110.0185	2036.45	1153.25
860.3169	1111.9771	2075.25	1194.05
860.4619	1113.9351	2128.25	1244.75
860.6068	1115.8923	2194.9	1313.4
860.7517	1117.8488	2225.35	1341.95
860.8967	1119.8045	2173.3	1292.05
861.0416	1121.7596	2070.9	1186.85
861.1865	1123.7139	1955.95	1074.45
861.3314	1125.6675	1895.3	1014.5
861.4763	1127.6204	1893.2	1011.25
861.6212	1129.5726	1925.4	1045.2
861.7661	1131.524	1923.85	1043.5
861.911	1133.4748	1870.5	989.85
862.0559	1135.4248	1805.2	921.25
862.2008	1137.3741	1761.8	878.7
862.3457	1139.3226	1734.2	853.4
862.4905	1141.2705	1726.7	843.05
862.6354	1143.2176	1739.85	852.7
862.7803	1145.164	1759.75	876.35
862.9251	1147.1097	1752	868.35
863.07	1149.0546	1733.25	851.1
863.2148	1150.9989	1700.1	817.95
863.3597	1152.9424	1674.45	792.45
863.5045	1154.8852	1665.3	786.15
863.6493	1156.8272	1660.05	778.3
863.7942	1158.7686	1656.3	766.15
863.939	1160.7092	1660.75	778.45
864.0838	1162.6491	1655.6	772.1
864.2286	1164.5883	1665	780.1
864.3734	1166.5267	1687.15	805.05
864.5182	1168.4644	1711.9	827.95
864.663	1170.4014	1746.45	861.45
864.8078	1172.3377	1797.95	915.8
864.9526	1174.2732	1847.85	967.2
865.0974	1176.2081	1949.3	1067.35
865.2421	1178.1421	2086.3	1200.1
865.3869	1180.0755	2206.05	1324.75
865.5317	1182.0082	2273.2	1390.8
865.6764	1183.9401	2250.1	1368.25
865.8212	1185.8713	2146.85	1265.05
865.9659	1187.8017	2009	1127.45
866.1106	1189.7315	1890.7	1014.45
866.2554	1191.6605	1838.45	933.35
866.4001	1193.5888	1759.9	879.05
866.5448	1195.5163	1731.9	849.55
866.6895	1197.4432	1708.2	823
866.8342	1199.3693	1687.85	806
866.9789	1201.2947	1675.2	790.2
867.1236	1203.2193	1661.9	777.7
867.2683	1205.1432	1663.05	778.85
867.413	1207.0664	1655.35	772.25
867.5576	1208.9889	1655.8	770.4
867.7023	1210.9106	1660.8	776.35
867.847	1212.8316	1667.75	787.95
867.9916	1214.7519	1681.15	788.1
868.1363	1216.6715	1696.95	814.35
868.2809	1218.5903	1712.6	831.65
868.4255	1220.5084	1719.35	834.75
868.5701	1222.4257	1733.7	850.75
868.7148	1224.3424	1748.45	866.2
868.8594	1226.2583	1768.3	878.65
869.004	1228.1735	1795.95	912.15
869.1486	1230.0879	1845.15	959.05
869.2932	1232.0016	1875.15	990.9
869.4377	1233.9146	1923.2	1040.2
869.5823	1235.8269	1942.85	1060
869.7269	1237.7384	1942.3	1058.45
869.8715	1239.6492	1935.3	1053
870.016	1241.5592	1970	1084.55
870.1606	1243.4686	2003.55	1121.3
870.3051	1245.3772	2080.85	1198.2
870.4496	1247.285	2186.65	1300.85
