Software Version:	3.9.2.0
Unit SN:	10000200
Spectrometer SN:	6960
Date:	3/8/2024 1:53:19 PM
Data Line Index:	25
Spectral Points:	2048
Integration time (ms):	125
Averages:	20
Delay (ms):	30000
Sequence Number:	1
Processing:	dark subtract
Laser Power (mW):	300
Laser Current (mA):	823
Laser Diode Temp (C):	25
Laser Case Temp (C):	26.4
System Temp (C):	26.4
Spectrometer Temp (C):	24.1
CCD Temp (C):	0.008
Secondary Temp (C):	20.01
Heatsink Temp (C):	20.644
CCDPCB Temp (C):	36.329
SecondaryPCB Temp (C):	30.404

Wavelength	RamanShift	Raw Counts	Dark Subtracted
787.061	30.1047	471.95	65.6
787.2016	32.3739	472.9	66.95
787.3422	34.6426	477.55	69.15
787.4828	36.9109	487.8	78.1
787.6235	39.1787	495.85	82.35
787.7642	41.4461	502.6	84.45
787.9049	43.7131	512.9	92.7
788.0456	45.9796	523.25	100.2
788.1863	48.2456	537.35	111.05
788.3271	50.5112	546.4	113.8
788.4679	52.7764	553.4	117.4
788.6087	55.0411	566.1	127.15
788.7496	57.3054	583.1	136.75
788.8904	59.5692	589	142.4
789.0313	61.8326	599.05	152.5
789.1722	64.0955	613.2	161.25
789.3132	66.3579	633.25	175.95
789.4541	68.6199	654	191.95
789.5951	70.8815	691.75	226.1
789.7361	73.1426	784.65	314.8
789.8771	75.4032	1004.5	531.35
790.0181	77.6634	1560.7	1080.95
790.1592	79.9231	2849.6	2363.7
790.3003	82.1824	5696.75	5193.45
790.4414	84.4412	10815.85	10284.7
790.5825	86.6995	17896.3	17326.05
790.7237	88.9574	24866.95	24262.8
790.8648	91.2148	29676.25	29055.6
791.006	93.4717	31997.85	31361.55
791.1472	95.7282	32575.25	31927.35
791.2885	97.9842	32564.2	31912.2
791.4297	100.2398	32041.75	31389.85
791.571	102.4949	31542.05	30884.8
791.7123	104.7495	30815.8	30159.5
791.8536	107.0036	30048.6	29386.7
791.9949	109.2573	29337.65	28682.25
792.1363	111.5105	28653.8	27992.9
792.2777	113.7632	27963	27298.35
792.4191	116.0154	27367.35	26691.45
792.5605	118.2672	26984.15	26313.55
792.7019	120.5185	26514.6	25847.35
792.8434	122.7693	26207.1	25534.85
792.9849	125.0197	25957.5	25281.7
793.1264	127.2696	25707.3	25024.9
793.2679	129.519	25593.55	24909.2
793.4094	131.7679	25447.2	24760.55
793.551	134.0163	25274.9	24581.6
793.6926	136.2642	25096.4	24403.1
793.8342	138.5117	24936.6	24240.9
793.9758	140.7587	24728.65	24031.9
794.1175	143.0052	24504.1	23799.8
794.2591	145.2512	24286.4	23587.7
794.4008	147.4967	24115.05	23415.25
794.5425	149.7417	23960.95	23261.9
794.6842	151.9863	23891	23187.25
794.826	154.2304	23817.8	23101.7
794.9677	156.4739	23696.4	22977.45
795.1095	158.717	23652.3	22931.4
795.2513	160.9596	23521.25	22795.35
795.3931	163.2017	23288.05	22561.6
795.535	165.4433	23008.65	22279.75
795.6768	167.6844	22709.4	21980.4
795.8187	169.925	22413	21681
795.9606	172.1651	22075.3	21340.2
796.1025	174.4047	21821.3	21084.15
796.2445	176.6439	21544.85	20808.6
796.3864	178.8825	21360.7	20620.9
796.5284	181.1206	21277.05	20530.05
796.6704	183.3582	21120.7	20367
796.8124	185.5954	21000.1	20250.4
796.9544	187.832	20973.2	20217.15
797.0965	190.0681	20987.5	20233.35
797.2386	192.3037	20974	20212.05
797.3806	194.5388	21022.5	20257.25
797.5228	196.7734	21101.75	20334.45
797.6649	199.0075	21187.7	20419.45
797.807	201.2411	21366.55	20597.75
797.9492	203.4742	21444.85	20674.15
798.0914	205.7068	21625.4	20844.3
798.2336	207.9389	21727.55	20952.1
798.3758	210.1704	21925	21153.05
798.518	212.4015	22080	21323.55
798.6603	214.632	22220.5	21466.7
798.8025	216.862	22466.2	21713.15
798.9448	219.0915	22617.5	21859.5
799.0871	221.3205	22863.8	22101.65
799.2294	223.549	23148.5	22392
799.3718	225.777	23476.45	22718.45
799.5141	228.0044	23833.6	23067.05
799.6565	230.2314	24335.6	23573.1
799.7989	232.4578	24780.1	24013.3
799.9413	234.6837	25134	24360.1
800.0837	236.909	25392.65	24618.45
800.2262	239.1339	25354	24554.35
800.3687	241.3582	25148.95	24363.7
800.5111	243.582	24881.5	24065.2
800.6536	245.8053	24554.65	23752.05
800.7961	248.0281	24226.4	23426.7
800.9387	250.2503	24005.55	23203.25
801.0812	252.472	23920.2	23118.7
801.2238	254.6932	23925.85	23122.9
801.3664	256.9139	23866.1	23064.6
801.509	259.134	23931.3	23122.8
801.6516	261.3536	23925.8	23119.8
801.7942	263.5727	24021.3	23210.8
801.9369	265.7912	24007.4	23197.2
802.0795	268.0092	24079.7	23270.05
802.2222	270.2267	24020.1	23213.05
802.3649	272.4436	24026	23214.15
802.5076	274.6601	24003.05	23180
802.6504	276.8759	23948.3	23132.55
802.7931	279.0913	23902.1	23089.9
802.9359	281.3061	23915.2	23098.15
803.0787	283.5204	24021.85	23201.85
803.2215	285.7341	24127.7	23303.05
803.3643	287.9473	24292.15	23455.7
803.5071	290.16	24504.65	23675.6
803.6499	292.3721	24870.2	24051.75
803.7928	294.5837	25306.55	24479.95
803.9357	296.7947	25615.65	24792.5
804.0786	299.0052	25846.25	25023
804.2215	301.2152	25741.05	24911.45
804.3644	303.4246	25424.8	24608.2
804.5074	305.6334	24880.9	24059.95
804.6503	307.8418	24405.05	23579.1
804.7933	310.0495	24060.65	23231.3
804.9363	312.2568	23723.25	22894.95
805.0793	314.4635	23505.25	22672.85
805.2223	316.6696	23446.1	22613.75
805.3653	318.8752	23404.65	22562.45
805.5084	321.0802	23468.95	22632.85
805.6514	323.2847	23610.55	22772.3
805.7945	325.4887	23682.8	22846.45
805.9376	327.692	23581.15	22743.85
806.0807	329.8949	23531.25	22690.65
806.2238	332.0972	23256.65	22414.8
806.367	334.2989	23027.55	22184.55
806.5101	336.5001	22756	21912.15
806.6533	338.7007	22614.2	21766.3
806.7965	340.9008	22511.5	21663.4
806.9397	343.1003	22417.85	21565.2
807.0829	345.2992	22358.6	21510.5
807.2261	347.4976	22367.15	21516.95
807.3693	349.6955	22384.35	21527.45
807.5126	351.8927	22480.6	21623.8
807.6559	354.0895	22468.95	21600.2
807.7991	356.2856	22569.3	21709.75
807.9424	358.4812	22575.4	21717.55
808.0857	360.6763	22623.7	21762.35
808.2291	362.8707	22578.05	21718.3
808.3724	365.0646	22668.4	21803.35
808.5158	367.258	22692.3	21828
808.6591	369.4508	22736.5	21871.85
808.8025	371.643	22841.7	21974.8
808.9459	373.8346	22821.8	21948.3
809.0893	376.0257	22829.35	21958.25
809.2327	378.2162	22830.9	21962.45
809.3762	380.4062	22704.5	21835.55
809.5196	382.5956	22574.8	21705.5
809.6631	384.7844	22493.45	21632.7
809.8066	386.9726	22376.05	21513.1
809.9501	389.1603	22365.5	21511.2
810.0936	391.3474	22383.4	21491.15
810.2371	393.5339	22347.7	21483.8
810.3806	395.7199	22285.7	21427.3
810.5241	397.9052	22341.6	21481.6
810.6677	400.09	22370.25	21509.95
810.8113	402.2743	22426.7	21564.1
810.9548	404.4579	22545.4	21679.2
811.0984	406.641	22724.55	21854.4
811.2421	408.8235	22964.4	22098.55
811.3857	411.0054	23296.3	22428.05
811.5293	413.1868	23742.2	22869.85
811.673	415.3675	24064.15	23187.35
811.8166	417.5477	24277	23401.7
811.9603	419.7273	24329.1	23450.3
812.104	421.9064	24253.3	23370.6
812.2477	424.0848	24114.45	23237.3
812.3914	426.2627	23918.4	23040.65
812.5351	428.4399	23653.65	22776.35
812.6788	430.6166	23302.6	22416.15
812.8226	432.7928	22947.1	22064.3
812.9663	434.9683	22658	21776.7
813.1101	437.1432	22418.6	21535.4
813.2539	439.3176	22272.7	21397.65
813.3977	441.4914	22126.85	21255.45
813.5415	443.6645	22155.9	21280.2
813.6853	445.8371	22096.55	21216.75
813.8291	448.0091	22061.6	21183.6
813.973	450.1806	21990.75	21115.55
814.1168	452.3514	21959.35	21079.3
814.2607	454.5216	22005.55	21116.25
814.4046	456.6913	21893.3	21011.7
814.5485	458.8603	21976.85	21095.8
814.6924	461.0288	22084.95	21212.2
814.8363	463.1967	22079.65	21207.45
814.9802	465.3639	22217.1	21338.8
815.1241	467.5306	22314.95	21434.8
815.2681	469.6967	22457.95	21581.75
815.412	471.8622	22612.45	21737.9
815.556	474.0271	22770.1	21894.45
815.7	476.1914	22923.85	22039.85
815.844	478.3551	22852.45	21971.6
815.988	480.5182	22862.95	21984.55
816.132	482.6807	22891.45	22020.15
816.276	484.8426	23031.55	22169.35
816.4201	487.0039	23378.6	22506.8
816.5641	489.1647	23775.55	22893.5
816.7082	491.3248	24197.3	23316.6
816.8522	493.4843	24412.4	23532
816.9963	495.6432	24385.15	23508.2
817.1404	497.8015	24349.25	23461.6
817.2845	499.9592	24384.95	23493.75
817.4286	502.1163	24319.8	23427.7
817.5727	504.2728	24077.1	23190.55
817.7168	506.4287	23827.9	22955.8
817.861	508.5839	23404.5	22529
818.0051	510.7386	23121.95	22239.95
818.1493	512.8927	22929.2	22039.2
818.2935	515.0461	22856.5	21966.85
818.4377	517.199	22858.8	21965.35
818.5818	519.3512	22874.25	21980.55
818.726	521.5029	23005.5	22109.9
818.8703	523.6539	23084	22197.15
819.0145	525.8043	23134.75	22241.55
819.1587	527.9541	23183.7	22286
819.303	530.1033	23179.7	22286.35
819.4472	532.2519	23219.4	22327.25
819.5915	534.3999	23344.75	22451.95
819.7357	536.5472	23593.15	22699.5
819.88	538.694	24092.1	23206.2
820.0243	540.8401	24668.65	23780.2
820.1686	542.9856	25201.15	24299.35
820.3129	545.1305	25356.1	24445.2
820.4572	547.2748	25263.1	24352.6
820.6016	549.4185	24923.2	24011.9
820.7459	551.5615	24566.1	23654.75
820.8902	553.704	24460.65	23554.2
821.0346	555.8458	24386.6	23479.8
821.1789	557.987	24504.9	23599.4
821.3233	560.1276	24503.3	23596.25
821.4677	562.2675	24560.3	23654
821.6121	564.4069	24591.1	23687.3
821.7565	566.5456	24624.55	23723.2
821.9009	568.6837	24588.6	23685.1
822.0453	570.8212	24302.9	23399.75
822.1897	572.958	23991.15	23090.1
822.3342	575.0942	23683.2	22782.55
822.4786	577.2299	23473.95	22579.35
822.6231	579.3648	23485.35	22598.6
822.7675	581.4992	23525.75	22652.7
822.912	583.6329	23732.85	22860.5
823.0565	585.766	23977.85	23097.65
823.201	587.8985	24051.8	23168.2
823.3454	590.0304	24119.65	23211.25
823.4899	592.1616	24023.4	23118.85
823.6345	594.2922	23978.55	23069.5
823.779	596.4222	23803.65	22895.8
823.9235	598.5515	23697.65	22785.45
824.068	600.6802	23487.7	22579.4
824.2126	602.8083	23329.95	22423.35
824.3571	604.9358	23346.2	22439.3
824.5017	607.0626	23223.45	22314.4
824.6462	609.1888	23202.45	22287.35
824.7908	611.3144	23211.3	22295.7
824.9354	613.4393	23079.1	22160.75
825.08	615.5636	23043.05	22124.95
825.2246	617.6873	22955.2	22041.05
825.3692	619.8103	22964.6	22049.5
825.5138	621.9327	22875.35	21965.45
825.6584	624.0544	22813.25	21904.25
825.803	626.1756	22812.65	21905.75
825.9477	628.2961	22810	21898.6
826.0923	630.4159	22747.05	21831.4
826.237	632.5351	22754.8	21840.9
826.3816	634.6537	22690.25	21776.3
826.5263	636.7716	22684.25	21765.25
826.6709	638.8889	22712.25	21791.15
826.8156	641.0056	22802.5	21876.55
826.9603	643.1216	22827.15	21906.2
827.105	645.237	22864.55	21943.9
827.2497	647.3518	22850.45	21938.75
827.3944	649.4659	22888.4	21981.25
827.5391	651.5793	22854	21943.8
827.6838	653.6922	22834.1	21925.25
827.8285	655.8043	22883.25	21969.1
827.9733	657.9159	22862.95	21950.2
828.118	660.0268	22804.25	21889.1
828.2627	662.137	22756.75	21843.1
828.4075	664.2466	22752.55	21828.8
828.5522	666.3556	22754.1	21833.1
828.697	668.4639	22762.75	21849.05
828.8418	670.5716	22823.05	21910.45
828.9865	672.6786	22938.6	22021.1
829.1313	674.785	22974.1	22053.1
829.2761	676.8907	23041.3	22124.55
829.4209	678.9958	23116.65	22200.15
829.5657	681.1002	23154.75	22239.25
829.7105	683.204	23139.65	22214.2
829.8553	685.3072	23080.85	22156.2
830.0001	687.4097	23042.35	22120.8
830.1449	689.5115	23060.3	22136.4
830.2898	691.6127	23014.65	22094.8
830.4346	693.7132	22937.2	22021.25
830.5794	695.8131	22921.8	21986.05
830.7243	697.9123	22967.85	22041.3
830.8691	700.0109	22934.2	22008.55
831.014	702.1089	22919.15	21992.75
831.1588	704.2061	22971.1	22044.55
831.3037	706.3028	23009.15	22080.35
831.4486	708.3987	23068.45	22141.7
831.5935	710.4941	23168.95	22245.85
831.7383	712.5887	23403.2	22480.15
831.8832	714.6827	23653.4	22729.95
832.0281	716.7761	24004.1	23084.7
832.173	718.8688	24358.9	23434.05
832.3179	720.9608	24584.1	23652.9
832.4628	723.0522	24689.4	23755.25
832.6077	725.1429	24512.55	23582.55
832.7527	727.233	24243.9	23315.35
832.8976	729.3224	24062	23138.35
833.0425	731.4112	23792.15	22864.9
833.1874	733.4993	23545.95	22617.85
833.3324	735.5867	23415.65	22489.9
833.4773	737.6735	23373.05	22445.3
833.6222	739.7596	23313.5	22384.75
833.7672	741.845	23268.05	22344.7
833.9122	743.9298	23252.05	22323.15
834.0571	746.014	23258.2	22328.25
834.2021	748.0974	23244.65	22309
834.347	750.1802	23283.8	22352.3
834.492	752.2624	23249.55	22318.15
834.637	754.3439	23330.6	22394.2
834.782	756.4247	23408.85	22470.45
834.9269	758.5048	23489.9	22557.3
835.0719	760.5843	23759.7	22825.8
835.2169	762.6631	24078.95	23144.35
835.3619	764.7413	24511.9	23575.7
835.5069	766.8188	25120.25	24184.3
835.6519	768.8956	25538.75	24602
835.7969	770.9718	25848.55	24914.25
835.9419	773.0473	25688.75	24753.25
836.0869	775.1221	25373.3	24438.95
836.232	777.1962	25019.15	24083.85
836.377	779.2697	24877.75	23941.65
836.522	781.3426	24924.15	23972.4
836.667	783.4147	25154.55	24217.5
836.8121	785.4862	25472.2	24537.7
836.9571	787.557	25494.8	24560.6
837.1021	789.6271	25171.75	24235.1
837.2472	791.6966	24649.3	23715.85
837.3922	793.7654	24107.25	23170.35
837.5373	795.8335	23815.05	22879.15
837.6823	797.901	23614.05	22677.05
837.8274	799.9678	23554.5	22615.75
837.9724	802.0339	23603.35	22659.95
838.1175	804.0993	23657.6	22708.65
838.2626	806.1641	23643.5	22704.15
838.4076	808.2282	23613.1	22674.1
838.5527	810.2916	23500.5	22562.2
838.6978	812.3544	23448.85	22515.9
838.8428	814.4164	23364.2	22429.85
838.9879	816.4778	23463.4	22524.7
839.133	818.5385	23430.5	22488.6
839.2781	820.5986	23519.35	22578.3
839.4232	822.658	23672.2	22732.1
839.5682	824.7166	23772.25	22830.6
839.7133	826.7747	24057.35	23119.85
839.8584	828.832	24257.65	23315.5
840.0035	830.8886	24396.15	23454.35
840.1486	832.9446	24553.3	23609.1
840.2937	834.9999	24586.05	23647.1
840.4388	837.0545	24570.9	23627.2
840.5839	839.1085	24601.85	23659.85
840.729	841.1618	24547.2	23604.4
840.8741	843.2143	24463.55	23523.05
841.0192	845.2662	24369.05	23426.1
841.1643	847.3175	24349.9	23409.5
841.3095	849.368	24252.15	23309.25
841.4546	851.4179	24176.85	23234.3
841.5997	853.467	23996	23054.95
841.7448	855.5155	23910.4	22968.45
841.8899	857.5633	23847.7	22906.35
842.0351	859.6105	23773.4	22830.2
842.1802	861.6569	23677.55	22734.25
842.3253	863.7027	23655	22707.7
842.4704	865.7478	23672.4	22727.35
842.6156	867.7922	23699.35	22751.35
842.7607	869.8359	23741.65	22797.05
842.9058	871.8789	23906.7	22963.2
843.0509	873.9212	24072.3	23097.1
843.1961	875.9629	24207.6	23261.75
843.3412	878.0039	24402.2	23459.15
843.4863	880.0441	24559.6	23617.5
843.6315	882.0837	24523.75	23581.05
843.7766	884.1226	24467.5	23523.35
843.9218	886.1609	24371.9	23428.4
844.0669	888.1984	24337.2	23393.7
844.212	890.2352	24354.3	23411.2
844.3572	892.2714	24313.85	23361.65
844.5023	894.3069	24336.5	23390.35
844.6475	896.3416	24267.25	23323.45
844.7926	898.3757	24290.25	23345.65
844.9377	900.4091	24248.65	23302.85
845.0829	902.4418	24275.25	23321.05
845.228	904.4739	24248.95	23297.55
845.3732	906.5052	24311.25	23362.5
845.5183	908.5358	24210.35	23264.55
845.6635	910.5658	24065.9	23117.3
845.8086	912.595	23927.6	22981.65
845.9538	914.6236	23767	22821.9
846.0989	916.6515	23737.4	22792.45
846.2441	918.6786	23730.95	22781.4
846.3892	920.7051	23809.65	22861.55
846.5344	922.7309	23929.8	22980
846.6795	924.756	23962.55	23015.6
846.8246	926.7804	24116.45	23167
846.9698	928.8041	24046.75	23097.55
847.1149	930.8272	24082.55	23136.25
847.2601	932.8495	23992.85	23043.7
847.4052	934.8711	23957.1	23010.75
847.5504	936.892	23780.8	22834.05
847.6955	938.9123	23653	22704.4
847.8407	940.9318	23554.6	22603.3
847.9858	942.9506	23468.1	22516.9
848.131	944.9688	23377.5	22429.85
848.2761	946.9862	23294.3	22341.8
848.4213	949.003	23229.3	22280.45
848.5664	951.019	23222.35	22273.8
848.7115	953.0344	23206.9	22259.85
848.8567	955.0491	23276.75	22327.3
849.0018	957.063	23382.95	22435.3
849.147	959.0763	23522.9	22576.9
849.2921	961.0888	23528.75	22583.75
849.4373	963.1007	23640.95	22691.3
849.5824	965.1119	23689.4	22753.15
849.7275	967.1223	23733.1	22799.05
849.8727	969.1321	23743.2	22811.25
850.0178	971.1412	23823.95	22885.85
850.1629	973.1495	23783.4	22841.5
850.3081	975.1572	23930.85	22931.05
850.4532	977.1641	23946.8	23000.3
850.5983	979.1704	23870.15	22919.85
850.7435	981.1759	23882.55	22932.15
850.8886	983.1808	23963.4	23013.6
851.0337	985.1849	24017.75	23059
851.1788	987.1884	24208.05	23256.05
851.324	989.1911	24351.85	23402.85
851.4691	991.1932	24444.05	23500.35
851.6142	993.1945	24487.5	23543.85
851.7593	995.1951	24394.55	23449.05
851.9045	997.1951	24413.5	23463.15
852.0496	999.1943	24309.1	23360.45
852.1947	1001.1928	24259.9	23312.5
852.3398	1003.1906	24256.25	23309.95
852.4849	1005.1877	24289.75	23344
852.63	1007.1841	24231.65	23283.75
852.7751	1009.1798	24121.9	23178.9
852.9202	1011.1748	23977.9	23030
853.0653	1013.1691	23808.3	22864.3
853.2104	1015.1627	23582.65	22635.5
853.3555	1017.1556	23338.8	22397.05
853.5006	1019.1477	23268.55	22326.45
853.6457	1021.1392	23133.65	22196.45
853.7908	1023.1299	23148.8	22213.25
853.9359	1025.12	23102.9	22172.85
854.081	1027.1093	23123.25	22204.7
854.2261	1029.0979	23225.6	22307.95
854.3712	1031.0859	23286.45	22361.4
854.5163	1033.0731	23255	22324.05
854.6613	1035.0596	23196.35	22256.7
854.8064	1037.0454	23000.7	22061.35
854.9515	1039.0304	22949.3	22007.6
855.0965	1041.0148	22742.65	21797.15
855.2416	1042.9985	22670.2	21728.4
855.3867	1044.9814	22654.55	21712.6
855.5317	1046.9636	22591.2	21647
855.6768	1048.9452	22545.3	21601.6
855.8219	1050.926	22563.65	21619.9
855.9669	1052.9061	22536.5	21591.2
856.112	1054.8855	22568.95	21620.1
856.257	1056.8642	22614.85	21670.55
856.4021	1058.8421	22702.8	21750.45
856.5471	1060.8194	22648.25	21700.4
856.6921	1062.7959	22722.15	21776.8
856.8372	1064.7717	22769.55	21823.05
856.9822	1066.7469	22793.45	21845.7
857.1272	1068.7213	22731.85	21786.8
857.2723	1070.695	22756.15	21806.7
857.4173	1072.6679	22683	21740.25
857.5623	1074.6402	22681.8	21733.9
857.7073	1076.6117	22706	21753.25
857.8523	1078.5826	22671.7	21728.35
857.9973	1080.5527	22608.6	21660.9
858.1423	1082.5221	22733.8	21787.2
858.2873	1084.4908	22852.05	21906.45
858.4323	1086.4587	23020.95	22073.55
858.5773	1088.426	23185.05	22236.45
858.7223	1090.3925	23140.65	22187.9
858.8673	1092.3584	23113.5	22169.6
859.0123	1094.3235	22967.35	22023.85
859.1573	1096.2879	22891.35	21945.55
859.3022	1098.2515	22919.65	21976.05
859.4472	1100.2145	23006.8	22066.25
859.5922	1102.1767	23073.2	22127
859.7371	1104.1382	23206.75	22263.75
859.8821	1106.099	23428.75	22480.4
860.027	1108.0591	23595.6	22652
860.172	1110.0185	23747.2	22803.45
860.3169	1111.9771	23784.15	22834.85
860.4619	1113.9351	23521.65	22578.75
860.6068	1115.8923	23271.65	22324.85
860.7517	1117.8488	22971.7	22023.9
860.8967	1119.8045	22670.25	21727.2
861.0416	1121.7596	22587.1	21646.05
861.1865	1123.7139	22502	21559.95
861.3314	1125.6675	22476	21533.2
861.4763	1127.6204	22604.35	21662.3
861.6212	1129.5726	22529.05	21585
861.7661	1131.524	22566.9	21623.55
861.911	1133.4748	22551.1	21608.7
862.0559	1135.4248	22472.65	21527.5
862.2008	1137.3741	22466.85	21524.8
862.3457	1139.3226	22428	21484.05
862.4905	1141.2705	22418.65	21474.1
862.6354	1143.2176	22282.2	21333.55
862.7803	1145.164	22325.4	21378.2
862.9251	1147.1097	22272.2	21327.15
863.07	1149.0546	22271.3	21327.05
863.2148	1150.9989	22218.95	21275.35
863.3597	1152.9424	22077.55	21136.9
863.5045	1154.8852	21915.1	20970.8
863.6493	1156.8272	21805.5	20863.9
863.7942	1158.7686	21780.8	20830.2
863.939	1160.7092	21729.1	20780.5
864.0838	1162.6491	21682.3	20734.95
864.2286	1164.5883	21782	20835.85
864.3734	1166.5267	21849	20906.85
864.5182	1168.4644	22030.35	21090.4
864.663	1170.4014	22218.4	21278.75
864.8078	1172.3377	22445.75	21505.05
864.9526	1174.2732	22660.3	21720.45
865.0974	1176.2081	22914.9	21971.5
865.2421	1178.1421	23206.45	22257.1
865.3869	1180.0755	23419.9	22479.25
865.5317	1182.0082	23489.1	22549.35
865.6764	1183.9401	23525.85	22584.9
