Software Version:	3.9.2.0
Unit SN:	10000200
Spectrometer SN:	6960
Date:	3/8/2024 11:05:26 AM
Data Line Index:	25
Spectral Points:	2048
Integration time (ms):	125
Averages:	20
Delay (ms):	30000
Sequence Number:	1
Processing:	dark subtract
Laser Power (mW):	305
Laser Current (mA):	814
Laser Diode Temp (C):	25
Laser Case Temp (C):	24
System Temp (C):	24
Spectrometer Temp (C):	22.2
CCD Temp (C):	0.007
Secondary Temp (C):	20.008
Heatsink Temp (C):	18.672
CCDPCB Temp (C):	31.427
SecondaryPCB Temp (C):	25.947

Wavelength	RamanShift	Raw Counts	Dark Subtracted
787.061	30.1047	446.95	37.65
787.2016	32.3739	446.55	38.85
787.3422	34.6426	451.25	41.5
787.4828	36.9109	457.9	45.7
787.6235	39.1787	465.2	48.75
787.7642	41.4461	471.35	50.9
787.9049	43.7131	474.4	50.05
788.0456	45.9796	480.4	53.4
788.1863	48.2456	489.85	58.9
788.3271	50.5112	498.25	62.45
788.4679	52.7764	501.55	61.95
788.6087	55.0411	512	68.5
788.7496	57.3054	520.7	73.05
788.8904	59.5692	529.15	79.8
789.0313	61.8326	534.75	84.85
789.1722	64.0955	545.7	92
789.3132	66.3579	561.6	102.45
789.4541	68.6199	576.6	113.75
789.5951	70.8815	603.15	136
789.7361	73.1426	661.8	192.05
789.8771	75.4032	803.05	330.7
790.0181	77.6634	1164.1	687.5
790.1592	79.9231	1982.05	1502.8
790.3003	82.1824	3693.35	3210.4
790.4414	84.4412	6691.95	6204.35
790.5825	86.6995	10647.35	10155.25
790.7237	88.9574	14404.05	13906.95
790.8648	91.2148	17041.3	16539.1
791.006	93.4717	18364.2	17856.95
791.1472	95.7282	18756.85	18250.05
791.2885	97.9842	18842.7	18334.85
791.4297	100.2398	18669.7	18158.8
791.571	102.4949	18463.1	17949
791.7123	104.7495	18290.6	17771.9
791.8536	107.0036	18114.95	17593.85
791.9949	109.2573	17918.7	17400.1
792.1363	111.5105	17656.3	17136.15
792.2777	113.7632	17302.45	16781.4
792.4191	116.0154	16951.55	16417.9
792.5605	118.2672	16572.45	16043.7
792.7019	120.5185	16121.6	15592.4
792.8434	122.7693	15720.65	15188.55
792.9849	125.0197	15342.65	14806.75
793.1264	127.2696	14999.55	14459.5
793.2679	129.519	14800.15	14257.35
793.4094	131.7679	14641.55	14095.8
793.551	134.0163	14545.8	13997.05
793.6926	136.2642	14499.2	13948.65
793.8342	138.5117	14490.35	13938.15
793.9758	140.7587	14433.95	13879.55
794.1175	143.0052	14332.75	13776.3
794.2591	145.2512	14102.7	13543.6
794.4008	147.4967	13869.9	13309.55
794.5425	149.7417	13643.45	13082.15
794.6842	151.9863	13452.45	12885.5
794.826	154.2304	13381.8	12809.3
794.9677	156.4739	13326.7	12751.15
795.1095	158.717	13380.95	12805.25
795.2513	160.9596	13505.2	12923.85
795.3931	163.2017	13671	13088
795.535	165.4433	13756.3	13171.5
795.6768	167.6844	13767.7	13178.9
795.8187	169.925	13662.85	13071.95
795.9606	172.1651	13456.15	12859.6
796.1025	174.4047	13290.4	12691.25
796.2445	176.6439	13066.2	12464.75
796.3864	178.8825	12877.2	12273.6
796.5284	181.1206	12840.2	12232.9
796.6704	183.3582	12780.9	12170.35
796.8124	185.5954	12735.85	12122.25
796.9544	187.832	12711.15	12095.55
797.0965	190.0681	12751.2	12132.45
797.2386	192.3037	12764.35	12140.6
797.3806	194.5388	12781.6	12155.3
797.5228	196.7734	12842.8	12214.15
797.6649	199.0075	12891.8	12265.65
797.807	201.2411	13026.8	12400.5
797.9492	203.4742	13117.8	12485.4
798.0914	205.7068	13204.9	12568.1
798.2336	207.9389	13334.05	12698.7
798.3758	210.1704	13418.45	12791.55
798.518	212.4015	13419.35	12801.25
798.6603	214.632	13471.05	12856.8
798.8025	216.862	13488.2	12874.4
798.9448	219.0915	13524.75	12910.5
799.0871	221.3205	13572.9	12956.3
799.2294	223.549	13643.9	13031.1
799.3718	225.777	13675.95	13060.5
799.5141	228.0044	13654	13028.15
799.6565	230.2314	13660.45	13035.15
799.7989	232.4578	13561.7	12929.55
799.9413	234.6837	13539.25	12900.8
800.0837	236.909	13481.8	12841.9
800.2262	239.1339	13417.9	12754.65
800.3687	241.3582	13386.95	12737.8
800.5111	243.582	13375.25	12697.45
800.6536	245.8053	13387.3	12719.75
800.7961	248.0281	13423.45	12761.25
800.9387	250.2503	13457.85	12793.6
801.0812	252.472	13469.75	12803.95
801.2238	254.6932	13496.9	12832.1
801.3664	256.9139	13499.35	12830.25
801.509	259.134	13553.5	12881.65
801.6516	261.3536	13644.9	12977.35
801.7942	263.5727	13793.5	13123.5
801.9369	265.7912	13978.9	13307.7
802.0795	268.0092	14223.9	13553.35
802.2222	270.2267	14504.15	13830.85
802.3649	272.4436	14739.6	14065.3
802.5076	274.6601	14926.7	14241.75
802.6504	276.8759	14978.65	14295.2
802.7931	279.0913	15091.8	14409.55
802.9359	281.3061	15167.75	14483.95
803.0787	283.5204	15287.9	14603.25
803.2215	285.7341	15404.3	14717.5
803.3643	287.9473	15572.05	14881.6
803.5071	290.16	15550.15	14859.25
803.6499	292.3721	15348.75	14663.5
803.7928	294.5837	15099.05	14412.45
803.9357	296.7947	14905.1	14218.2
804.0786	299.0052	14790	14102.25
804.2215	301.2152	14706.3	14013.55
804.3644	303.4246	14661.5	13973.8
804.5074	305.6334	14620.65	13929.3
804.6503	307.8418	14583.8	13888.8
804.7933	310.0495	14524.35	13826.35
804.9363	312.2568	14386.25	13693.05
805.0793	314.4635	14179	13482.65
805.2223	316.6696	13908.85	13209.75
805.3653	318.8752	13654.3	12945.55
805.5084	321.0802	13500.9	12799
805.6514	323.2847	13463.85	12759.85
805.7945	325.4887	13415.25	12710.5
805.9376	327.692	13499.35	12792.9
806.0807	329.8949	13692.6	12985.05
806.2238	332.0972	13924.2	13217.1
806.367	334.2989	14193.2	13482.05
806.5101	336.5001	14198.65	13487.6
806.6533	338.7007	14110.45	13398.8
806.7965	340.9008	13854.5	13141.55
806.9397	343.1003	13526.55	12807.35
807.0829	345.2992	13250.15	12531.25
807.2261	347.4976	13031.5	12313.45
807.3693	349.6955	12843.3	12116.85
807.5126	351.8927	12755.95	12031.15
807.6559	354.0895	12655.45	11919.4
807.7991	356.2856	12598.05	11872.2
807.9424	358.4812	12536.25	11809.25
808.0857	360.6763	12501.95	11772.55
808.2291	362.8707	12448.65	11717.35
808.3724	365.0646	12455.35	11721.5
808.5158	367.258	12449.8	11712.8
808.6591	369.4508	12509.25	11770.4
808.8025	371.643	12640.05	11902.35
808.9459	373.8346	12731.55	11991.15
809.0893	376.0257	12904.25	12157.5
809.2327	378.2162	13057.75	12315.4
809.3762	380.4062	13164.05	12422.6
809.5196	382.5956	13063.8	12324.4
809.6631	384.7844	12888.45	12155.65
809.8066	386.9726	12645.05	11910.7
809.9501	389.1603	12451.6	11717.1
810.0936	391.3474	12367.9	11594
810.2371	393.5339	12306.95	11569.95
810.3806	395.7199	12279.7	11545.4
810.5241	397.9052	12426.75	11691.85
810.6677	400.09	12626.25	11888.45
810.8113	402.2743	12836.1	12095.85
810.9548	404.4579	12982.05	12239.4
811.0984	406.641	13192.05	12448.85
811.2421	408.8235	13333.55	12587.8
811.3857	411.0054	13500.85	12752.2
811.5293	413.1868	13602.7	12851.25
811.673	415.3675	13555.3	12799.85
811.8166	417.5477	13478.2	12724.15
811.9603	419.7273	13437.85	12681.25
812.104	421.9064	13281.05	12518.4
812.2477	424.0848	13044.8	12287.5
812.3914	426.2627	12734.75	11976.45
812.5351	428.4399	12444.3	11684.65
812.6788	430.6166	12193.4	11426.55
812.8226	432.7928	11947.15	11181.15
812.9663	434.9683	11758.2	10993.15
813.1101	437.1432	11645.55	10877.95
813.2539	439.3176	11527.95	10761.5
813.3977	441.4914	11444.05	10679.45
813.5415	443.6645	11398.05	10630.7
813.6853	445.8371	11352.3	10585.25
813.8291	448.0091	11316.5	10548.7
813.973	450.1806	11293.7	10524.65
814.1168	452.3514	11270.2	10498.9
814.2607	454.5216	11282.6	10503.35
814.4046	456.6913	11253.15	10478.95
814.5485	458.8603	11266.75	10496.5
814.6924	461.0288	11295.3	10525.1
814.8363	463.1967	11262.65	10491
814.9802	465.3639	11241.05	10466.5
815.1241	467.5306	11176.7	10403.1
815.2681	469.6967	11144.3	10372.15
815.412	471.8622	11135.2	10360.2
815.556	474.0271	11087.5	10312.25
815.7	476.1914	11074.5	10295.95
815.844	478.3551	11029.4	10253
815.988	480.5182	10993	10218.3
816.132	482.6807	11056.4	10278.95
816.276	484.8426	11118.35	10340.2
816.4201	487.0039	11288.8	10509.75
816.5641	489.1647	11541.55	10761.15
816.7082	491.3248	11792.3	11011
816.8522	493.4843	11851	11068.45
816.9963	495.6432	11802	11018.1
817.1404	497.8015	11629.2	10843.6
817.2845	499.9592	11440.25	10657.65
817.4286	502.1163	11184.25	10400.15
817.5727	504.2728	10917.2	10131.1
817.7168	506.4287	10824.05	10039.75
817.861	508.5839	10717.75	9931.35
818.0051	510.7386	10664.45	9877.6
818.1493	512.8927	10650.35	9855.75
818.2935	515.0461	10678.3	9890.2
818.4377	517.199	10744.7	9957.9
818.5818	519.3512	10922.05	10135.15
818.726	521.5029	11253.4	10457.65
818.8703	523.6539	11557.95	10765.7
819.0145	525.8043	11631.95	10839.25
819.1587	527.9541	11387.35	10594.15
819.303	530.1033	11015.6	10221.7
819.4472	532.2519	10749.35	9957.6
819.5915	534.3999	10594.25	9800.8
819.7357	536.5472	10523.3	9731
819.88	538.694	10538.95	9743.8
820.0243	540.8401	10597.4	9799.7
820.1686	542.9856	10677.4	9877.4
820.3129	545.1305	10746.2	9949
820.4572	547.2748	10836.45	10041.6
820.6016	549.4185	10811.2	10012.85
820.7459	551.5615	10825.15	10027.3
820.8902	553.704	10904.45	10106.1
821.0346	555.8458	10934.55	10137.05
821.1789	557.987	11029.4	10232.45
821.3233	560.1276	11181.05	10381.3
821.4677	562.2675	11521	10722.7
821.6121	564.4069	11923.65	11123.8
821.7565	566.5456	12141.05	11340.45
821.9009	568.6837	12047.75	11247.8
822.0453	570.8212	11572	10770.5
822.1897	572.958	11066.35	10263.4
822.3342	575.0942	10673.3	9870.15
822.4786	577.2299	10442.2	9637
822.6231	579.3648	10348	9544.75
822.7675	581.4992	10280	9475.2
822.912	583.6329	10295	9489.9
823.0565	585.766	10441.5	9637.95
823.201	587.8985	10653.35	9849.7
823.3454	590.0304	10893.2	10074.15
823.4899	592.1616	11084.75	10274.35
823.6345	594.2922	11161.05	10351.85
823.779	596.4222	11029.3	10219.05
823.9235	598.5515	10735	9924.8
824.068	600.6802	10397.65	9589.35
824.2126	602.8083	10137.05	9327.75
824.3571	604.9358	10026.75	9216.35
824.5017	607.0626	9946.9	9134.75
824.6462	609.1888	9968.1	9156.25
824.7908	611.3144	10061.3	9249.25
824.9354	613.4393	10236.55	9426.4
825.08	615.5636	10495.45	9682.35
825.2246	617.6873	10752.95	9942
825.3692	619.8103	10943.05	10127.85
825.5138	621.9327	10957.9	10140.9
825.6584	624.0544	10818.1	10003.8
825.803	626.1756	10502.25	9689.45
825.9477	628.2961	10185.35	9369.7
826.0923	630.4159	9990.5	9174.15
826.237	632.5351	9934.2	9118
826.3816	634.6537	9881.15	9064.15
826.5263	636.7716	9842.95	9025.9
826.6709	638.8889	9833.15	9015.95
826.8156	641.0056	9861.3	9042
826.9603	643.1216	9932.7	9113.2
827.105	645.237	10023.1	9202.45
827.2497	647.3518	9888.55	9070.1
827.3944	649.4659	9738.65	8917.75
827.5391	651.5793	9578.6	8759
827.6838	653.6922	9513.95	8694.1
827.8285	655.8043	9443.65	8624.55
827.9733	657.9159	9379.05	8557.95
828.118	660.0268	9306.9	8481.9
828.2627	662.137	9269.4	8446.15
828.4075	664.2466	9276.65	8450.85
828.5522	666.3556	9269.65	8446.55
828.697	668.4639	9232.1	8404.05
828.8418	670.5716	9195.5	8370.85
828.9865	672.6786	9149.45	8323.05
829.1313	674.785	9099.75	8272.25
829.2761	676.8907	9056.2	8229.55
829.4209	678.9958	9036.75	8211.45
829.5657	681.1002	9009.4	8180.8
829.7105	683.204	9018.4	8186.85
829.8553	685.3072	9011.9	8183
830.0001	687.4097	8991.5	8164.1
830.1449	689.5115	8998.55	8166
830.2898	691.6127	8988.05	8158.8
830.4346	693.7132	8964.1	8133.45
830.5794	695.8131	8953.65	8110.15
830.7243	697.9123	8954.1	8122.15
830.8691	700.0109	8953.7	8122.3
831.014	702.1089	8996.6	8166.25
831.1588	704.2061	9029.05	8198.7
831.3037	706.3028	9141.9	8309.7
831.4486	708.3987	9266.6	8434.15
831.5935	710.4941	9336.4	8504
831.7383	712.5887	9383.75	8552
831.8832	714.6827	9355.55	8519.35
832.0281	716.7761	9277.4	8445.5
832.173	718.8688	9247.7	8413.55
832.3179	720.9608	9217.45	8380.15
832.4628	723.0522	9255.4	8416.55
832.6077	725.1429	9316.25	8483.1
832.7527	727.233	9485.25	8649.75
832.8976	729.3224	9746.35	8912.3
833.0425	731.4112	10054.95	9219.15
833.1874	733.4993	10168.35	9328.95
833.3324	735.5867	9986.4	9148.95
833.4773	737.6735	9585.9	8746.7
833.6222	739.7596	9208.4	8369.45
833.7672	741.845	8979.6	8143.75
833.9122	743.9298	8876.05	8037.35
834.0571	746.014	8813.85	7977.4
834.2021	748.0974	8823.65	7983.1
834.347	750.1802	8783.6	7945
834.492	752.2624	8770.25	7932.55
834.637	754.3439	8762.8	7922.55
834.782	756.4247	8778.55	7930.45
834.9269	758.5048	8807.5	7969.75
835.0719	760.5843	8890.25	8050.85
835.2169	762.6631	9054.4	8215.75
835.3619	764.7413	9313.6	8474.1
835.5069	766.8188	9756.95	8914.5
835.6519	768.8956	10169.95	9326.9
835.7969	770.9718	10493.85	9653.8
835.9419	773.0473	10457.25	9614.6
836.0869	775.1221	10256.15	9413.75
836.232	777.1962	10140.45	9298.25
836.377	779.2697	10379.9	9536.45
836.522	781.3426	10964.9	10105
836.667	783.4147	11396.2	10553.8
836.8121	785.4862	11420.35	10578.75
836.9571	787.557	11030.9	10188.7
837.1021	789.6271	10378.05	9537.35
837.2472	791.6966	9682.85	8840.55
837.3922	793.7654	9118.95	8275.5
837.5373	795.8335	8784.1	7941.15
837.6823	797.901	8599.35	7755.55
837.8274	799.9678	8501.45	7654.1
837.9724	802.0339	8484.7	7638.9
838.1175	804.0993	8506.05	7652.3
838.2626	806.1641	8491.75	7645.45
838.4076	808.2282	8418.95	7575.4
838.5527	810.2916	8337.5	7490.35
838.6978	812.3544	8263.25	7419.65
838.8428	814.4164	8173.2	7330.55
838.9879	816.4778	8210.45	7362.15
839.133	818.5385	8252.3	7406.2
839.2781	820.5986	8423.6	7576.85
839.4232	822.658	8661.95	7814.3
839.5682	824.7166	8968.85	8123.8
839.7133	826.7747	9419.9	8575.3
839.8584	828.832	9805.45	8957.4
840.0035	830.8886	10089.45	9241.25
840.1486	832.9446	10261.05	9413.9
840.2937	834.9999	10176.95	9329.6
840.4388	837.0545	9874.2	9022.2
840.5839	839.1085	9404.15	8554.15
840.729	841.1618	8955.1	8102.8
840.8741	843.2143	8642.75	7792.35
841.0192	845.2662	8409.5	7558.65
841.1643	847.3175	8343.1	7494.25
841.3095	849.368	8264.1	7415.3
841.4546	851.4179	8257.7	7407.6
841.5997	853.467	8191.05	7341
841.7448	855.5155	8257.15	7407.65
841.8899	857.5633	8288.2	7440.15
842.0351	859.6105	8262.8	7411.35
842.1802	861.6569	8192.5	7341.4
842.3253	863.7027	8109.25	7256.25
842.4704	865.7478	8036.95	7183.2
842.6156	867.7922	7963.9	7113
842.7607	869.8359	7903.35	7051.5
842.9058	871.8789	7871	7017
843.0509	873.9212	7859.7	6975.05
843.1961	875.9629	7848.3	6997.5
843.3412	878.0039	7900.2	7047.8
843.4863	880.0441	7963.8	7112.7
843.6315	882.0837	8059.9	7206.15
843.7766	884.1226	8177.8	7323.1
843.9218	886.1609	8352.9	7502.1
844.0669	888.1984	8605.4	7753.6
844.212	890.2352	8890.6	8038
844.3572	892.2714	8954.55	8097
844.5023	894.3069	8837.1	7981.65
844.6475	896.3416	8575.8	7719.55
844.7926	898.3757	8313.6	7459.65
844.9377	900.4091	8139.15	7284.75
845.0829	902.4418	8144.6	7284.55
845.228	904.4739	8234.3	7377.4
845.3732	906.5052	8374.1	7520.65
845.5183	908.5358	8390.05	7536.4
845.6635	910.5658	8310.95	7454.55
845.8086	912.595	8134.7	7279.95
845.9538	914.6236	7923.65	7068.45
846.0989	916.6515	7759.75	6907.15
846.2441	918.6786	7654.05	6796.5
846.3892	920.7051	7587.55	6729.55
846.5344	922.7309	7603.85	6747.55
846.6795	924.756	7579.1	6723.25
846.8246	926.7804	7625.95	6764.3
846.9698	928.8041	7669.45	6809.25
847.1149	930.8272	7756	6895.75
847.2601	932.8495	7797.95	6940.35
847.4052	934.8711	7810.95	6952.6
847.5504	936.892	7843.25	6986.5
847.6955	938.9123	7935.1	7076.55
847.8407	940.9318	8086.3	7229
847.9858	942.9506	8188.3	7330.05
848.131	944.9688	8158.8	7301.1
848.2761	946.9862	8057.35	7198.55
848.4213	949.003	7859.55	7001.1
848.5664	951.019	7732.15	6872.7
848.7115	953.0344	7622.3	6761.1
848.8567	955.0491	7514.25	6654.15
849.0018	957.063	7484.7	6625.55
849.147	959.0763	7460.6	6603.25
849.2921	961.0888	7467.1	6606.15
849.4373	963.1007	7461.9	6602.1
849.5824	965.1119	7399.05	6540.25
849.7275	967.1223	7336.4	6474.9
849.8727	969.1321	7285.3	6425.75
850.0178	971.1412	7255.35	6396.45
850.1629	973.1495	7231.15	6371
850.3081	975.1572	7256.8	6356
850.4532	977.1641	7258.85	6399.6
850.5983	979.1704	7271.6	6409.2
850.7435	981.1759	7237.95	6374.9
850.8886	983.1808	7204.5	6344.2
851.0337	985.1849	7154.95	6285.15
851.1788	987.1884	7135.7	6272.9
851.324	989.1911	7153.05	6290.2
851.4691	991.1932	7172.5	6310.3
851.6142	993.1945	7193.05	6329.4
851.7593	995.1951	7177.9	6315.75
851.9045	997.1951	7177.05	6307.6
852.0496	999.1943	7118.65	6257.5
852.1947	1001.1928	7130.65	6267.3
852.3398	1003.1906	7161.1	6299.4
852.4849	1005.1877	7295.65	6431.3
852.63	1007.1841	7424	6564
852.7751	1009.1798	7499.65	6638.9
852.9202	1011.1748	7487.65	6625.2
853.0653	1013.1691	7336.2	6470.55
853.2104	1015.1627	7159.85	6294.25
853.3555	1017.1556	7002.75	6138.75
853.5006	1019.1477	6902.55	6037.15
853.6457	1021.1392	6796.9	5935.8
853.7908	1023.1299	6763.45	5900.4
853.9359	1025.12	6706.25	5841.6
854.081	1027.1093	6765.9	5904.3
854.2261	1029.0979	6867.85	6008.35
854.3712	1031.0859	6949.35	6087.85
854.5163	1033.0731	7021.4	6157.2
854.6613	1035.0596	7038.5	6175.45
854.8064	1037.0454	7004.9	6139.95
854.9515	1039.0304	6956.25	6089.45
855.0965	1041.0148	6844.6	5979.6
855.2416	1042.9985	6733.75	5867.55
855.3867	1044.9814	6637.5	5772.8
855.5317	1046.9636	6589.25	5723.75
855.6768	1048.9452	6609.95	5748.2
855.8219	1050.926	6704.3	5840.85
855.9669	1052.9061	6799.15	5934
856.112	1054.8855	6865.15	5997.8
856.257	1056.8642	6858.3	5991.95
856.4021	1058.8421	6845.9	5974.55
856.5471	1060.8194	6811.5	5943.8
856.6921	1062.7959	6800.9	5935.75
856.8372	1064.7717	6769.8	5900.8
856.9822	1066.7469	6742.2	5875.05
857.1272	1068.7213	6768.5	5900.3
857.2723	1070.695	6834.45	5966.5
857.4173	1072.6679	6922.45	6055.8
857.5623	1074.6402	7063.75	6197.05
857.7073	1076.6117	7156.95	6284.45
857.8523	1078.5826	7103	6235.3
857.9973	1080.5527	6906	6036.3
858.1423	1082.5221	6720.95	5852.65
858.2873	1084.4908	6569.45	5702.85
858.4323	1086.4587	6454.7	5586.55
858.5773	1088.426	6394.2	5525.25
858.7223	1090.3925	6379.55	5507.05
858.8673	1092.3584	6378.1	5510.2
859.0123	1094.3235	6402.8	5536.85
859.1573	1096.2879	6487.75	5620.2
859.3022	1098.2515	6603.95	5736.5
859.4472	1100.2145	6733.45	5866.35
859.5922	1102.1767	6890.9	6020.7
859.7371	1104.1382	7107.55	6238.65
859.8821	1106.099	7383.7	6515
860.027	1108.0591	7632.55	6762.8
860.172	1110.0185	7835.6	6965.1
860.3169	1111.9771	8029.25	7161.35
860.4619	1113.9351	8266.8	7397.8
860.6068	1115.8923	8613.65	7746.15
860.7517	1117.8488	8898.35	8026.4
860.8967	1119.8045	8780.95	7912.5
861.0416	1121.7596	8314.4	7443.95
861.1865	1123.7139	7697.7	6828.55
861.3314	1125.6675	7307.5	6439.85
861.4763	1127.6204	7239.55	6370.35
861.6212	1129.5726	7317.8	6446.25
861.7661	1131.524	7363.4	6493.4
861.911	1133.4748	7217.55	6347.95
862.0559	1135.4248	6897	6028.05
862.2008	1137.3741	6630	5761.05
862.3457	1139.3226	6445.75	5573.9
862.4905	1141.2705	6401.05	5531.85
862.6354	1143.2176	6417.5	5540.35
862.7803	1145.164	6511.4	5639.8
862.9251	1147.1097	6540.8	5670.05
863.07	1149.0546	6479.85	5607.25
863.2148	1150.9989	6321.1	5450.25
863.3597	1152.9424	6212.2	5342.95
863.5045	1154.8852	6107.3	5234.7
863.6493	1156.8272	6075.35	5204.75
863.7942	1158.7686	6084	5206.05
863.939	1160.7092	6053	5183.5
864.0838	1162.6491	6051.45	5179.55
864.2286	1164.5883	6118.55	5248.1
864.3734	1166.5267	6185.9	5313.75
864.5182	1168.4644	6285.65	5414.5
864.663	1170.4014	6428.2	5552
864.8078	1172.3377	6613.15	5743.65
864.9526	1174.2732	6862.1	5992
865.0974	1176.2081	7240.05	6369.25
865.2421	1178.1421	7857.3	6982.75
865.3869	1180.0755	8567.4	7697.8
865.5317	1182.0082	9059.6	8188.3
865.6764	1183.9401	9150.1	8278.35
865.8212	1185.8713	8749.25	7878.3
865.9659	1187.8017	8082.35	7212.85
866.1106	1189.7315	7465.3	6592.6
866.2554	1191.6605	6979.3	6080.35
866.4001	1193.5888	6653.9	5783
866.5448	1195.5163	6471.55	5600.35
866.6895	1197.4432	6327.25	5454.85
866.8342	1199.3693	6216	5343.9
866.9789	1201.2947	6130.05	5248.7
867.1236	1203.2193	6072.95	5201.4
867.2683	1205.1432	6055.35	5181.35
867.413	1207.0664	6044	5172.65
867.5576	1208.9889	6028	5150.75
867.7023	1210.9106	6006.45	5133.65
867.847	1212.8316	6030.1	5157.45
867.9916	1214.7519	6088.75	5205.65
