Software Version:	3.9.2.0
Unit SN:	10000200
Spectrometer SN:	6960
Date:	3/8/2024 2:19:33 PM
Data Line Index:	25
Spectral Points:	2048
Integration time (ms):	125
Averages:	20
Delay (ms):	30000
Sequence Number:	1
Processing:	dark subtract
Laser Power (mW):	305
Laser Current (mA):	823
Laser Diode Temp (C):	25
Laser Case Temp (C):	26.1
System Temp (C):	26.1
Spectrometer Temp (C):	24.1
CCD Temp (C):	0.001
Secondary Temp (C):	20.007
Heatsink Temp (C):	20.591
CCDPCB Temp (C):	36.24
SecondaryPCB Temp (C):	29.76

Wavelength	RamanShift	Raw Counts	Dark Subtracted
787.061	30.1047	459.65	54.9
787.2016	32.3739	461.25	57.7
787.3422	34.6426	468.75	63.2
787.4828	36.9109	473.95	66.25
787.6235	39.1787	481.65	70.55
787.7642	41.4461	492.95	75.75
787.9049	43.7131	501.2	80.5
788.0456	45.9796	507.5	85.55
788.1863	48.2456	517.15	92.15
788.3271	50.5112	527.15	96.75
788.4679	52.7764	536.8	102.65
788.6087	55.0411	548.65	109.95
788.7496	57.3054	561.35	116.7
788.8904	59.5692	572.75	128.2
789.0313	61.8326	583.7	133.75
789.1722	64.0955	593.55	143.85
789.3132	66.3579	609.45	153.45
789.4541	68.6199	634.4	174.35
789.5951	70.8815	669.7	203.4
789.7361	73.1426	750.65	281
789.8771	75.4032	956.6	483.75
790.0181	77.6634	1468.15	991.1
790.1592	79.9231	2683.45	2198.5
790.3003	82.1824	5325.3	4822
790.4414	84.4412	10051.65	9520.6
790.5825	86.6995	16565.85	15995.8
790.7237	88.9574	22855.35	22252.1
790.8648	91.2148	27263.45	26639.1
791.006	93.4717	29283	28644.9
791.1472	95.7282	29794.25	29149.85
791.2885	97.9842	29752.15	29105.85
791.4297	100.2398	29283.6	28632.45
791.571	102.4949	28710.85	28055.9
791.7123	104.7495	27982.8	27324.4
791.8536	107.0036	27187.3	26528.5
791.9949	109.2573	26488.2	25829.35
792.1363	111.5105	25743.85	25081.5
792.2777	113.7632	25029.65	24361.5
792.4191	116.0154	24456.75	23782.9
792.5605	118.2672	23976.3	23304.55
792.7019	120.5185	23483.6	22809.9
792.8434	122.7693	23143.8	22468.95
792.9849	125.0197	22810.8	22132.25
793.1264	127.2696	22579.65	21897.35
793.2679	129.519	22450.7	21765.4
793.4094	131.7679	22289.5	21598.6
793.551	134.0163	22128.7	21437.15
793.6926	136.2642	21972.4	21278.55
793.8342	138.5117	21815.95	21110.8
793.9758	140.7587	21592.15	20889.9
794.1175	143.0052	21425.35	20720.95
794.2591	145.2512	21166.35	20466.35
794.4008	147.4967	20980.45	20276.4
794.5425	149.7417	20855.75	20153.3
794.6842	151.9863	20738.55	20024.7
794.826	154.2304	20692.1	19980.9
794.9677	156.4739	20575.05	19857.45
795.1095	158.717	20511.4	19793.35
795.2513	160.9596	20373.35	19651.1
795.3931	163.2017	20102.35	19378
795.535	165.4433	19831.2	19102.75
795.6768	167.6844	19512.3	18782.2
795.8187	169.925	19204.45	18474.65
795.9606	172.1651	18839.5	18104.55
796.1025	174.4047	18600.4	17863.25
796.2445	176.6439	18313.65	17578
796.3864	178.8825	18101	17359.25
796.5284	181.1206	17936.85	17184.4
796.6704	183.3582	17795.85	17038.65
796.8124	185.5954	17683.6	16930.95
796.9544	187.832	17614.05	16858.9
797.0965	190.0681	17599.75	16837.65
797.2386	192.3037	17600.4	16837.35
797.3806	194.5388	17598.3	16833.35
797.5228	196.7734	17676.85	16908.55
797.6649	199.0075	17732.45	16960.35
797.807	201.2411	17869.8	17098.4
797.9492	203.4742	17951.5	17173.95
798.0914	205.7068	18143.6	17363.2
798.2336	207.9389	18265.15	17486.2
798.3758	210.1704	18421.55	17650.65
798.518	212.4015	18516.8	17763.35
798.6603	214.632	18724.6	17969.45
798.8025	216.862	18885.4	18130.05
798.9448	219.0915	19090.15	18332.5
799.0871	221.3205	19334.9	18571.35
799.2294	223.549	19615.5	18858.25
799.3718	225.777	19947.7	19192
799.5141	228.0044	20358.2	19590.1
799.6565	230.2314	20799.4	20040.05
799.7989	232.4578	21256.75	20489.65
799.9413	234.6837	21661.2	20887.25
800.0837	236.909	21889.2	21113.25
800.2262	239.1339	21895.15	21087.75
800.3687	241.3582	21654.15	20861.8
800.5111	243.582	21342.3	20523.2
800.6536	245.8053	20971.85	20168.55
800.7961	248.0281	20661.05	19861.6
800.9387	250.2503	20371.15	19567.2
801.0812	252.472	20228.5	19418.85
801.2238	254.6932	20178.6	19378.7
801.3664	256.9139	20077.65	19274.1
801.509	259.134	20073.75	19258.55
801.6516	261.3536	20036	19226.5
801.7942	263.5727	20089.6	19274.95
801.9369	265.7912	19991.45	19180.75
802.0795	268.0092	20027.2	19216.9
802.2222	270.2267	19985.4	19174.6
802.3649	272.4436	19947.35	19132.15
802.5076	274.6601	19901.9	19081.7
802.6504	276.8759	19814.95	18999.7
802.7931	279.0913	19813.75	18996.6
802.9359	281.3061	19824.95	19007.65
803.0787	283.5204	19918.25	19094.45
803.2215	285.7341	20029.05	19201.35
803.3643	287.9473	20194.15	19358.55
803.5071	290.16	20435.85	19606.05
803.6499	292.3721	20775	19949.2
803.7928	294.5837	21213	20389.7
803.9357	296.7947	21580.4	20757.15
804.0786	299.0052	21793.65	20972
804.2215	301.2152	21655.15	20829.35
804.3644	303.4246	21321.15	20494.1
804.5074	305.6334	20773.3	19953.35
804.6503	307.8418	20263.7	19436.5
804.7933	310.0495	19875.7	19049.85
804.9363	312.2568	19548	18716
805.0793	314.4635	19344.05	18510.5
805.2223	316.6696	19295.55	18463.05
805.3653	318.8752	19233.6	18390.7
805.5084	321.0802	19294.7	18455.6
805.6514	323.2847	19432.65	18591.75
805.7945	325.4887	19512.7	18671.55
805.9376	327.692	19444.75	18607.55
806.0807	329.8949	19344	18502.7
806.2238	332.0972	19107.55	18266.45
806.367	334.2989	18831.95	17983.55
806.5101	336.5001	18528.35	17679.75
806.6533	338.7007	18352.95	17503.7
806.7965	340.9008	18264	17410.9
806.9397	343.1003	18170.55	17320.95
807.0829	345.2992	18103.6	17250.8
807.2261	347.4976	18093.3	17241.3
807.3693	349.6955	18104.75	17246.95
807.5126	351.8927	18183.05	17322.5
807.6559	354.0895	18202.4	17330.5
807.7991	356.2856	18235.05	17375.25
807.9424	358.4812	18214.75	17356.1
808.0857	360.6763	18306.1	17443.4
808.2291	362.8707	18252.15	17388.45
808.3724	365.0646	18313.5	17447.25
808.5158	367.258	18342.05	17473.7
808.6591	369.4508	18366.25	17493
808.8025	371.643	18488.4	17620.1
808.9459	373.8346	18470.65	17601.5
809.0893	376.0257	18449.95	17574.75
809.2327	378.2162	18340.8	17466.95
809.3762	380.4062	18259.05	17387.9
809.5196	382.5956	18111.55	17245.4
809.6631	384.7844	18018.5	17162.45
809.8066	386.9726	17890.95	17028.9
809.9501	389.1603	17886.05	17027.15
810.0936	391.3474	17851.05	16965.3
810.2371	393.5339	17834.6	16970.2
810.3806	395.7199	17775.15	16911.2
810.5241	397.9052	17829.55	16966.1
810.6677	400.09	17830.1	16969.75
810.8113	402.2743	17943.65	17082.35
810.9548	404.4579	17969.8	17107.3
811.0984	406.641	18178.1	17312.95
811.2421	408.8235	18396.7	17529.7
811.3857	411.0054	18718.95	17853.6
811.5293	413.1868	19202.55	18326.45
811.673	415.3675	19568.9	18691.6
811.8166	417.5477	19779.15	18898.45
811.9603	419.7273	19822.75	18940.65
812.104	421.9064	19707.65	18821.1
812.2477	424.0848	19588.75	18711.8
812.3914	426.2627	19356.7	18480.25
812.5351	428.4399	19071.5	18191.75
812.6788	430.6166	18734.65	17849.7
812.8226	432.7928	18347.25	17462.7
812.9663	434.9683	18020.2	17139.15
813.1101	437.1432	17863.7	16984.35
813.2539	439.3176	17662.25	16789
813.3977	441.4914	17566.2	16697.6
813.5415	443.6645	17571.8	16695.45
813.6853	445.8371	17461.9	16581.15
813.8291	448.0091	17429.15	16549.35
813.973	450.1806	17416.05	16541.9
814.1168	452.3514	17319.1	16441.65
814.2607	454.5216	17351.6	16464.2
814.4046	456.6913	17298.25	16420.85
814.5485	458.8603	17336.15	16462.15
814.6924	461.0288	17408.1	16537.95
814.8363	463.1967	17448.35	16577.85
814.9802	465.3639	17573.7	16699.85
815.1241	467.5306	17695.15	16819.8
815.2681	469.6967	17829.8	16955.55
815.412	471.8622	18016.1	17143.5
815.556	474.0271	18159.15	17283.6
815.7	476.1914	18257	17372.5
815.844	478.3551	18249.35	17370.85
815.988	480.5182	18241.15	17362.8
816.132	482.6807	18209.15	17342.75
816.276	484.8426	18325.6	17465.1
816.4201	487.0039	18622.7	17754.1
816.5641	489.1647	19029.75	18149.8
816.7082	491.3248	19476.05	18594.15
816.8522	493.4843	19652.65	18775.2
816.9963	495.6432	19688.65	18811.5
817.1404	497.8015	19573.25	18684.15
817.2845	499.9592	19631.75	18741.65
817.4286	502.1163	19572.7	18682.8
817.5727	504.2728	19362.1	18475.85
817.7168	506.4287	19104.7	18232.65
817.861	508.5839	18657.3	17783.8
818.0051	510.7386	18323.05	17437.6
818.1493	512.8927	18160	17274.25
818.2935	515.0461	18028.15	17139.45
818.4377	517.199	18017.65	17125.6
818.5818	519.3512	17969.15	17075.25
818.726	521.5029	18097.75	17203.25
818.8703	523.6539	18162.35	17273.35
819.0145	525.8043	18184.4	17287.1
819.1587	527.9541	18193.7	17295.7
819.303	530.1033	18199.7	17308.3
819.4472	532.2519	18275.45	17385.2
819.5915	534.3999	18417.95	17521.6
819.7357	536.5472	18698.1	17806.9
819.88	538.694	19159	18269.8
820.0243	540.8401	19835.75	18939.9
820.1686	542.9856	20366.7	19457.65
820.3129	545.1305	20530.45	19622.35
820.4572	547.2748	20379.75	19467.85
820.6016	549.4185	20039.95	19130.15
820.7459	551.5615	19666.55	18755.65
820.8902	553.704	19504.2	18597.05
821.0346	555.8458	19464.85	18562.9
821.1789	557.987	19471.5	18572.5
821.3233	560.1276	19457.3	18553.7
821.4677	562.2675	19425.85	18521.05
821.6121	564.4069	19445.25	18542.5
821.7565	566.5456	19399.55	18496
821.9009	568.6837	19330.1	18431.85
822.0453	570.8212	19049.85	18152.25
822.1897	572.958	18781.05	17884.1
822.3342	575.0942	18541.45	17647.05
822.4786	577.2299	18364.75	17468.75
822.6231	579.3648	18339.35	17458.25
822.7675	581.4992	18412.4	17539.95
822.912	583.6329	18602.75	17730.65
823.0565	585.766	18888.3	18012.25
823.201	587.8985	19016.5	18132.8
823.3454	590.0304	19019.3	18113.45
823.4899	592.1616	18941.65	18038
823.6345	594.2922	18902.65	17998
823.779	596.4222	18740.5	17833.15
823.9235	598.5515	18573.8	17659.4
824.068	600.6802	18407.95	17494.45
824.2126	602.8083	18240.45	17336
824.3571	604.9358	18216.95	17310.8
824.5017	607.0626	18145.45	17239.2
824.6462	609.1888	18117.25	17202.7
824.7908	611.3144	18072.4	17158.05
824.9354	613.4393	17928.3	17013.4
825.08	615.5636	17804.7	16884.2
825.2246	617.6873	17728.25	16814.9
825.3692	619.8103	17699.1	16785.75
825.5138	621.9327	17609.95	16696.55
825.6584	624.0544	17579.1	16673.55
825.803	626.1756	17597.1	16690.25
825.9477	628.2961	17569.25	16656.75
826.0923	630.4159	17510.05	16597.85
826.237	632.5351	17495.75	16579.25
826.3816	634.6537	17438.05	16519.65
826.5263	636.7716	17437.3	16521.1
826.6709	638.8889	17474.9	16553.4
826.8156	641.0056	17543.15	16617
826.9603	643.1216	17512.65	16587.1
827.105	645.237	17555.2	16635.75
827.2497	647.3518	17556.4	16650.65
827.3944	649.4659	17574.75	16669.6
827.5391	651.5793	17571.25	16669.9
827.6838	653.6922	17584.3	16674.15
827.8285	655.8043	17574.25	16663.45
827.9733	657.9159	17588.85	16676.65
828.118	660.0268	17490.7	16577.25
828.2627	662.137	17458.75	16542.35
828.4075	664.2466	17480.9	16559.4
828.5522	666.3556	17457.6	16538.1
828.697	668.4639	17407.75	16494.55
828.8418	670.5716	17485.65	16573.9
828.9865	672.6786	17580.3	16664.7
829.1313	674.785	17627.95	16701.85
829.2761	676.8907	17695.5	16777.2
829.4209	678.9958	17796.45	16883.65
829.5657	681.1002	17797.7	16880.7
829.7105	683.204	17809.85	16882.15
829.8553	685.3072	17755.25	16828.75
830.0001	687.4097	17697.6	16776.4
830.1449	689.5115	17638.35	16712.6
830.2898	691.6127	17613.15	16695.45
830.4346	693.7132	17527.75	16612.9
830.5794	695.8131	17533.05	16589.65
830.7243	697.9123	17509.7	16584.45
830.8691	700.0109	17481.65	16553.2
831.014	702.1089	17498.45	16572.95
831.1588	704.2061	17512.4	16588
831.3037	706.3028	17546.45	16621.6
831.4486	708.3987	17614.65	16691.8
831.5935	710.4941	17692.45	16766.55
831.7383	712.5887	17897.35	16972.45
831.8832	714.6827	18203.9	17279.2
832.0281	716.7761	18589.15	17665.1
832.173	718.8688	18962.7	18042.55
832.3179	720.9608	19209.35	18277.7
832.4628	723.0522	19272.4	18332.4
832.6077	725.1429	19035.3	18108.75
832.7527	727.233	18776.6	17846.25
832.8976	729.3224	18504.7	17579.6
833.0425	731.4112	18243.35	17318.8
833.1874	733.4993	17996	17067.25
833.3324	735.5867	17837.45	16911.3
833.4773	737.6735	17779.65	16850.8
833.6222	739.7596	17718.55	16788.4
833.7672	741.845	17685.35	16759.25
833.9122	743.9298	17691.2	16763.6
834.0571	746.014	17689	16763.85
834.2021	748.0974	17695.45	16761.8
834.347	750.1802	17742.15	16806.95
834.492	752.2624	17740.25	16806.7
834.637	754.3439	17770.65	16834.25
834.782	756.4247	17814.2	16871.85
834.9269	758.5048	17930.45	17001.3
835.0719	760.5843	18153.4	17216.4
835.2169	762.6631	18462.15	17529.75
835.3619	764.7413	18939.4	18009.05
835.5069	766.8188	19496.05	18562.7
835.6519	768.8956	19927.8	18993.1
835.7969	770.9718	20285.05	19351.7
835.9419	773.0473	20128.05	19196.65
836.0869	775.1221	19800.25	18868.75
836.232	777.1962	19426.1	18488.7
836.377	779.2697	19259.6	18323.4
836.522	781.3426	19337.75	18382.6
836.667	783.4147	19555.25	18621.15
836.8121	785.4862	19902.85	18969.2
836.9571	787.557	19945.35	19007.4
837.1021	789.6271	19582.4	18644.65
837.2472	791.6966	19068.7	18131.1
837.3922	793.7654	18549.8	17614.8
837.5373	795.8335	18265.8	17330.85
837.6823	797.901	18061.9	17125.75
837.8274	799.9678	18005.3	17068.1
837.9724	802.0339	18024.5	17088.25
838.1175	804.0993	18099.9	17151.05
838.2626	806.1641	18121.55	17182.85
838.4076	808.2282	18064.2	17127.55
838.5527	810.2916	17974.7	17038.6
838.6978	812.3544	17894.3	16962.15
838.8428	814.4164	17766.15	16832.8
838.9879	816.4778	17849	16907.6
839.133	818.5385	17829.4	16886.35
839.2781	820.5986	17915.45	16974.2
839.4232	822.658	18042.3	17104.45
839.5682	824.7166	18089.6	17152.05
839.7133	826.7747	18352.6	17411.25
839.8584	828.832	18524	17584.65
840.0035	830.8886	18626.15	17683.2
840.1486	832.9446	18789.95	17847.8
840.2937	834.9999	18791.55	17853.05
840.4388	837.0545	18881.1	17937.9
840.5839	839.1085	18917.85	17975.7
840.729	841.1618	18899.1	17953.35
840.8741	843.2143	18884.4	17938.85
841.0192	845.2662	18763.3	17825.95
841.1643	847.3175	18744.35	17801.85
841.3095	849.368	18648.5	17703.3
841.4546	851.4179	18545.45	17604.1
841.5997	853.467	18375.05	17434.35
841.7448	855.5155	18288.95	17349.2
841.8899	857.5633	18201.35	17260.7
842.0351	859.6105	18114.3	17168.95
842.1802	861.6569	18054.45	17108.1
842.3253	863.7027	18034.7	17089.65
842.4704	865.7478	18039.4	17095.65
842.6156	867.7922	18037.15	17091.2
842.7607	869.8359	18088.85	17142.85
842.9058	871.8789	18243.15	17300.3
843.0509	873.9212	18438.8	17461.7
843.1961	875.9629	18554.25	17607.25
843.3412	878.0039	18755.5	17812.25
843.4863	880.0441	18868.55	17925.85
843.6315	882.0837	18921.65	17980.5
843.7766	884.1226	18800.95	17856.95
843.9218	886.1609	18691.3	17753.45
844.0669	888.1984	18603.85	17659.9
844.212	890.2352	18615.25	17668.6
844.3572	892.2714	18564.85	17612.8
844.5023	894.3069	18553.4	17607.2
844.6475	896.3416	18471.5	17525.3
844.7926	898.3757	18477.7	17533.7
844.9377	900.4091	18460.1	17515.6
845.0829	902.4418	18509.45	17554.25
845.228	904.4739	18520	17565.95
845.3732	906.5052	18520.35	17569.25
845.5183	908.5358	18409.8	17460.6
845.6635	910.5658	18312.1	17362.2
845.8086	912.595	18170.65	17224.9
845.9538	914.6236	18022.25	17074.45
846.0989	916.6515	17993.95	17047.05
846.2441	918.6786	17978.5	17030.15
846.3892	920.7051	18054.85	17103.2
846.5344	922.7309	18216.1	17269.05
846.6795	924.756	18237.6	17287.45
846.8246	926.7804	18365.7	17415.75
846.9698	928.8041	18286.25	17335.1
847.1149	930.8272	18343.7	17395.85
847.2601	932.8495	18237.25	17290.55
847.4052	934.8711	18226.9	17277.3
847.5504	936.892	18072.35	17122.45
847.6955	938.9123	17895.7	16948.4
847.8407	940.9318	17785	16833.4
847.9858	942.9506	17678.35	16727.45
848.131	944.9688	17580.8	16634.5
848.2761	946.9862	17547.2	16599.95
848.4213	949.003	17473.15	16525.65
848.5664	951.019	17504.8	16555.15
848.7115	953.0344	17510.65	16560.85
848.8567	955.0491	17551.7	16603.7
849.0018	957.063	17659.95	16707.15
849.147	959.0763	17790.45	16843.85
849.2921	961.0888	17840.05	16890.25
849.4373	963.1007	17896.85	16953.6
849.5824	965.1119	17968.2	17031.9
849.7275	967.1223	18000.2	17065.8
849.8727	969.1321	18030	17100.65
850.0178	971.1412	18077	17137.4
850.1629	973.1495	18101.5	17155.05
850.3081	975.1572	18187.05	17199.35
850.4532	977.1641	18209.2	17260.3
850.5983	979.1704	18169.5	17215.7
850.7435	981.1759	18173.6	17225.15
850.8886	983.1808	18207.3	17258.15
851.0337	985.1849	18320.9	17366.4
851.1788	987.1884	18496.35	17543.15
851.324	989.1911	18686.75	17738.55
851.4691	991.1932	18807.45	17863.5
851.6142	993.1945	18844.4	17900.25
851.7593	995.1951	18789.05	17840.9
851.9045	997.1951	18756.4	17801.45
852.0496	999.1943	18702.4	17754.9
852.1947	1001.1928	18648.65	17696.15
852.3398	1003.1906	18613.9	17665.4
852.4849	1005.1877	18677.35	17730.2
852.63	1007.1841	18613.75	17663.25
852.7751	1009.1798	18529.6	17582.8
852.9202	1011.1748	18327.3	17380.55
853.0653	1013.1691	18153.6	17203.7
853.2104	1015.1627	17961.95	17016.15
853.3555	1017.1556	17713.15	16768.05
853.5006	1019.1477	17629	16686.75
853.6457	1021.1392	17527.1	16588.25
853.7908	1023.1299	17521	16584.45
853.9359	1025.12	17523.05	16593.6
854.081	1027.1093	17527.15	16609.8
854.2261	1029.0979	17672.4	16754.5
854.3712	1031.0859	17733.9	16810.5
854.5163	1033.0731	17724	16793.55
854.6613	1035.0596	17682.25	16747.1
854.8064	1037.0454	17511.2	16570.5
854.9515	1039.0304	17381.95	16437.45
855.0965	1041.0148	17235	16294.5
855.2416	1042.9985	17182.4	16235.2
855.3867	1044.9814	17153.7	16209.25
855.5317	1046.9636	17088.6	16145.85
855.6768	1048.9452	17097.75	16153.2
855.8219	1050.926	17119.3	16172.8
855.9669	1052.9061	17102.25	16159.25
856.112	1054.8855	17055.8	16111.35
856.257	1056.8642	17098.35	16149.8
856.4021	1058.8421	17195.75	16243.2
856.5471	1060.8194	17202.1	16256.6
856.6921	1062.7959	17233	16286.9
856.8372	1064.7717	17271.3	16319.9
856.9822	1066.7469	17288.2	16342.3
857.1272	1068.7213	17282.35	16330.6
857.2723	1070.695	17254.95	16307.75
857.4173	1072.6679	17181	16231.25
857.5623	1074.6402	17129	16178.4
857.7073	1076.6117	17135.3	16182.9
857.8523	1078.5826	17146.75	16197.25
857.9973	1080.5527	17165.45	16214.35
858.1423	1082.5221	17257.65	16313.45
858.2873	1084.4908	17454.75	16509.3
858.4323	1086.4587	17670.15	16721.3
858.5773	1088.426	17804.65	16860.55
858.7223	1090.3925	17780.75	16829.85
858.8673	1092.3584	17757.9	16807.5
859.0123	1094.3235	17574.75	16630.65
859.1573	1096.2879	17513	16567.8
859.3022	1098.2515	17477.05	16531.4
859.4472	1100.2145	17531.25	16586.5
859.5922	1102.1767	17624.45	16679.3
859.7371	1104.1382	17796.8	16852.55
859.8821	1106.099	17990.35	17043.9
860.027	1108.0591	18175.05	17231.85
860.172	1110.0185	18336.3	17385.15
860.3169	1111.9771	18344.95	17399.35
860.4619	1113.9351	18136.45	17193.45
860.6068	1115.8923	17811.7	16863.6
860.7517	1117.8488	17504.85	16558.35
860.8967	1119.8045	17259.75	16318.35
861.0416	1121.7596	17117.95	16174.3
861.1865	1123.7139	17039.4	16093.85
861.3314	1125.6675	17020.15	16077.7
861.4763	1127.6204	17140.05	16196.7
861.6212	1129.5726	17114.35	16168.85
861.7661	1131.524	17093.55	16151.3
861.911	1133.4748	17111.3	16167.4
862.0559	1135.4248	17060.85	16114.5
862.2008	1137.3741	17133.9	16191.85
862.3457	1139.3226	17064.25	16115.6
862.4905	1141.2705	17045.2	16099.8
862.6354	1143.2176	16905.45	15954.35
862.7803	1145.164	16978.5	16034.85
862.9251	1147.1097	16978	16031.75
863.07	1149.0546	17002.55	16057.55
863.2148	1150.9989	16927.1	15981.55
863.3597	1152.9424	16774.2	15829.55
863.5045	1154.8852	16576.45	15631.45
863.6493	1156.8272	16452.4	15510.1
863.7942	1158.7686	16429.1	15475.45
863.939	1160.7092	16378.95	15432.8
864.0838	1162.6491	16334.8	15388.7
864.2286	1164.5883	16437.5	15493.7
864.3734	1166.5267	16525.05	15581.5
864.5182	1168.4644	16659.3	15716.35
864.663	1170.4014	16833.35	15885.75
864.8078	1172.3377	17090.25	16149.55
864.9526	1174.2732	17276.55	16337.45
865.0974	1176.2081	17523.4	16579.85
865.2421	1178.1421	17736.45	16792.7
865.3869	1180.0755	17943.4	17003.1
