Software Version:	3.9.2.0
Unit SN:	10000200
Spectrometer SN:	6960
Date:	3/8/2024 1:40:42 PM
Data Line Index:	25
Spectral Points:	2048
Integration time (ms):	125
Averages:	20
Delay (ms):	30000
Sequence Number:	1
Processing:	dark subtract
Laser Power (mW):	300
Laser Current (mA):	822
Laser Diode Temp (C):	25
Laser Case Temp (C):	26.2
System Temp (C):	26.2
Spectrometer Temp (C):	24
CCD Temp (C):	0.005
Secondary Temp (C):	20.008
Heatsink Temp (C):	21.225
CCDPCB Temp (C):	36.329
SecondaryPCB Temp (C):	29.56

Wavelength	RamanShift	Raw Counts	Dark Subtracted
787.061	30.1047	463.05	55.45
787.2016	32.3739	465.5	59.7
787.3422	34.6426	471.35	62.7
787.4828	36.9109	478.7	69.75
787.6235	39.1787	486.1	73.7
787.7642	41.4461	496.2	77.85
787.9049	43.7131	506.3	85.6
788.0456	45.9796	514.45	92.7
788.1863	48.2456	521.9	94.45
788.3271	50.5112	533.1	102.25
788.4679	52.7764	542.3	108.65
788.6087	55.0411	554.4	115.3
788.7496	57.3054	566.1	120.6
788.8904	59.5692	574.85	129.5
789.0313	61.8326	584.8	135.25
789.1722	64.0955	596.2	142.45
789.3132	66.3579	611.8	154.3
789.4541	68.6199	637	175.2
789.5951	70.8815	677.7	211.55
789.7361	73.1426	757.35	285.6
789.8771	75.4032	973.5	498.55
790.0181	77.6634	1496.7	1018.95
790.1592	79.9231	2732.25	2245.5
790.3003	82.1824	5443.8	4937.45
790.4414	84.4412	10281.1	9746.65
790.5825	86.6995	17014.95	16442.15
790.7237	88.9574	23520.85	22912.55
790.8648	91.2148	28048.75	27419.85
791.006	93.4717	30123.3	29476.4
791.1472	95.7282	30641.1	29987.4
791.2885	97.9842	30551.6	29897.4
791.4297	100.2398	30062.4	29402.25
791.571	102.4949	29427.15	28764.95
791.7123	104.7495	28676.1	28010.55
791.8536	107.0036	27888.9	27225
791.9949	109.2573	27106.45	26441
792.1363	111.5105	26435.55	25768.85
792.2777	113.7632	25761.65	25088.85
792.4191	116.0154	25145.45	24462.7
792.5605	118.2672	24698.15	24021.7
792.7019	120.5185	24291.9	23613
792.8434	122.7693	23958.1	23275.05
792.9849	125.0197	23661	22977.95
793.1264	127.2696	23408.95	22722.65
793.2679	129.519	23271.45	22580.45
793.4094	131.7679	23067.2	22372.8
793.551	134.0163	22904.05	22203.3
793.6926	136.2642	22722.05	22021.05
793.8342	138.5117	22505.95	21797.5
793.9758	140.7587	22240.9	21536.35
794.1175	143.0052	22046.75	21340.8
794.2591	145.2512	21773.8	21063.25
794.4008	147.4967	21557.55	20850.2
794.5425	149.7417	21485.55	20774.05
794.6842	151.9863	21300.65	20583.55
794.826	154.2304	21252.05	20534.85
794.9677	156.4739	21131.4	20402.35
795.1095	158.717	21038.25	20306.55
795.2513	160.9596	20908.8	20178.9
795.3931	163.2017	20711.7	19978.35
795.535	165.4433	20416.2	19680.85
795.6768	167.6844	20066.25	19328.15
795.8187	169.925	19796.4	19055.5
795.9606	172.1651	19399.85	18658.75
796.1025	174.4047	19155.25	18413.55
796.2445	176.6439	18893.25	18143.8
796.3864	178.8825	18647.45	17900.75
796.5284	181.1206	18534.45	17778.75
796.6704	183.3582	18375.05	17614.15
796.8124	185.5954	18296.55	17534.15
796.9544	187.832	18241.5	17481
797.0965	190.0681	18219.65	17452.05
797.2386	192.3037	18229.5	17457.75
797.3806	194.5388	18249.9	17476.25
797.5228	196.7734	18255.55	17480.85
797.6649	199.0075	18382.65	17601.4
797.807	201.2411	18522.6	17744.5
797.9492	203.4742	18613.5	17834
798.0914	205.7068	18786.4	18002.2
798.2336	207.9389	18873.95	18089.9
798.3758	210.1704	19073.85	18295.55
798.518	212.4015	19170.05	18401.3
798.6603	214.632	19345.4	18585.45
798.8025	216.862	19526.2	18764.55
798.9448	219.0915	19719.05	18955.95
799.0871	221.3205	19947.15	19178.05
799.2294	223.549	20179.9	19421.4
799.3718	225.777	20456.5	19696.2
799.5141	228.0044	20812.2	20046.15
799.6565	230.2314	21251.35	20482.85
799.7989	232.4578	21631.95	20862.6
799.9413	234.6837	21981.35	21199.35
800.0837	236.909	22182	21398.35
800.2262	239.1339	22179.8	21369.6
800.3687	241.3582	22015.15	21222.9
800.5111	243.582	21719.4	20894.95
800.6536	245.8053	21418.4	20607.05
800.7961	248.0281	21143.05	20340.85
800.9387	250.2503	20946.1	20138.15
801.0812	252.472	20793.25	19983.95
801.2238	254.6932	20811.3	20002.25
801.3664	256.9139	20753	19946.4
801.509	259.134	20825.45	20010.15
801.6516	261.3536	20841.85	20023.95
801.7942	263.5727	20959.15	20144.35
801.9369	265.7912	20929.4	20113.8
802.0795	268.0092	21034.95	20221.8
802.2222	270.2267	21034.8	20219.85
802.3649	272.4436	21043.3	20228.5
802.5076	274.6601	21002.2	20177.15
802.6504	276.8759	20921.45	20099.5
802.7931	279.0913	20844.65	20024.85
802.9359	281.3061	20802.6	19981.5
803.0787	283.5204	20863.6	20033.8
803.2215	285.7341	20924.05	20093.65
803.3643	287.9473	21102.8	20265.3
803.5071	290.16	21328.55	20496.95
803.6499	292.3721	21636.35	20810.85
803.7928	294.5837	22032.55	21202.35
803.9357	296.7947	22336.9	21504.7
804.0786	299.0052	22553.25	21722.15
804.2215	301.2152	22436.3	21603.3
804.3644	303.4246	22154.95	21326
804.5074	305.6334	21617.3	20789.6
804.6503	307.8418	21147.7	20321.55
804.7933	310.0495	20737.85	19903.8
804.9363	312.2568	20434.95	19598.85
805.0793	314.4635	20207.45	19370.6
805.2223	316.6696	20082.55	19240.95
805.3653	318.8752	20029.05	19178.95
805.5084	321.0802	20068.95	19226.95
805.6514	323.2847	20176.3	19328.9
805.7945	325.4887	20227.1	19383.45
805.9376	327.692	20182.25	19337.05
806.0807	329.8949	20148	19297.8
806.2238	332.0972	19868.35	19018.6
806.367	334.2989	19639.6	18790.85
806.5101	336.5001	19348.35	18498.05
806.6533	338.7007	19167.1	18315.7
806.7965	340.9008	19051.65	18199.3
806.9397	343.1003	18939.6	18086.4
807.0829	345.2992	18899.3	18047.15
807.2261	347.4976	18852.05	17996.5
807.3693	349.6955	18862.15	18000.45
807.5126	351.8927	18962.25	18103.15
807.6559	354.0895	18913.25	18043.7
807.7991	356.2856	18978.45	18115.9
807.9424	358.4812	18959.3	18098.9
808.0857	360.6763	19024.45	18155.6
808.2291	362.8707	18965.95	18101.25
808.3724	365.0646	19075.9	18212.05
808.5158	367.258	19076.35	18208.95
808.6591	369.4508	19058.6	18184.55
808.8025	371.643	19218.85	18343.2
808.9459	373.8346	19182.5	18311.5
809.0893	376.0257	19195.75	18324.25
809.2327	378.2162	19142.85	18267.15
809.3762	380.4062	19128.75	18255.25
809.5196	382.5956	18938.4	18063.5
809.6631	384.7844	18861.7	17998.75
809.8066	386.9726	18726.3	17860.35
809.9501	389.1603	18690.65	17826.05
810.0936	391.3474	18678.4	17780.55
810.2371	393.5339	18684.95	17815.95
810.3806	395.7199	18620.4	17752.75
810.5241	397.9052	18628.85	17762.95
810.6677	400.09	18650.5	17783.6
810.8113	402.2743	18741.75	17872
810.9548	404.4579	18845.45	17977.9
811.0984	406.641	19043.15	18174.2
811.2421	408.8235	19244.1	18374.05
811.3857	411.0054	19535.45	18659.4
811.5293	413.1868	19973.8	19096.35
811.673	415.3675	20247.35	19364.55
811.8166	417.5477	20423.9	19544.7
811.9603	419.7273	20483.8	19601.45
812.104	421.9064	20372.05	19484.7
812.2477	424.0848	20291.1	19411.15
812.3914	426.2627	20054.35	19172.25
812.5351	428.4399	19801.55	18920.3
812.6788	430.6166	19471.9	18583.5
812.8226	432.7928	19110.65	18221.15
812.9663	434.9683	18787.05	17903.6
813.1101	437.1432	18555.1	17670.05
813.2539	439.3176	18418.75	17540.5
813.3977	441.4914	18271.75	17400.45
813.5415	443.6645	18258.35	17380.5
813.6853	445.8371	18228.4	17343.5
813.8291	448.0091	18154.3	17269.7
813.973	450.1806	18156.9	17274.1
814.1168	452.3514	18072.35	17187.25
814.2607	454.5216	18097.4	17206.1
814.4046	456.6913	18019.9	17134
814.5485	458.8603	18075.1	17188.95
814.6924	461.0288	18144.8	17265.4
814.8363	463.1967	18172.25	17295.95
814.9802	465.3639	18281.85	17400.2
815.1241	467.5306	18357.5	17477
815.2681	469.6967	18521.35	17642.85
815.412	471.8622	18667.75	17791.9
815.556	474.0271	18829.75	17948.7
815.7	476.1914	18893.9	18007.6
815.844	478.3551	18856.65	17971.8
815.988	480.5182	18861.4	17979.7
816.132	482.6807	18892.1	18016.8
816.276	484.8426	19022.55	18153.55
816.4201	487.0039	19322.55	18444.65
816.5641	489.1647	19688.25	18804.35
816.7082	491.3248	20143.95	19258.25
816.8522	493.4843	20320.6	19441.15
816.9963	495.6432	20329	19449.65
817.1404	497.8015	20205.25	19307.8
817.2845	499.9592	20238.6	19342.15
817.4286	502.1163	20184.5	19285.85
817.5727	504.2728	19937.65	19047.4
817.7168	506.4287	19662.95	18785.45
817.861	508.5839	19277.15	18400.9
818.0051	510.7386	18980.4	18093.5
818.1493	512.8927	18812.55	17920.05
818.2935	515.0461	18709	17818.85
818.4377	517.199	18711.1	17817.05
818.5818	519.3512	18725.25	17829.8
818.726	521.5029	18806.8	17909.65
818.8703	523.6539	18925.1	18035
819.0145	525.8043	19007.8	18113.6
819.1587	527.9541	19008.15	18109.4
819.303	530.1033	18964.75	18066.8
819.4472	532.2519	18964.15	18066.85
819.5915	534.3999	19095.8	18195.15
819.7357	536.5472	19331	18436.65
819.88	538.694	19777	18881.7
820.0243	540.8401	20310.35	19412.55
820.1686	542.9856	20809.6	19897.6
820.3129	545.1305	20956.05	20042.8
820.4572	547.2748	20863.05	19944.7
820.6016	549.4185	20528.6	19612.4
820.7459	551.5615	20221.85	19311.65
820.8902	553.704	20072.75	19159.5
821.0346	555.8458	20015.8	19111.75
821.1789	557.987	20079.95	19176.2
821.3233	560.1276	20106.7	19199.95
821.4677	562.2675	20215.95	19311.2
821.6121	564.4069	20314.75	19405.95
821.7565	566.5456	20392.9	19486.4
821.9009	568.6837	20345.25	19441.65
822.0453	570.8212	20060.4	19160.65
822.1897	572.958	19693.55	18790.85
822.3342	575.0942	19354.65	18457.5
822.4786	577.2299	19149.15	18252.25
822.6231	579.3648	19033	18148.6
822.7675	581.4992	19102.2	18223.7
822.912	583.6329	19278.35	18401.65
823.0565	585.766	19488.45	18607.1
823.201	587.8985	19660.15	18767
823.3454	590.0304	19671.8	18748.75
823.4899	592.1616	19628.85	18720.65
823.6345	594.2922	19528.4	18616.25
823.779	596.4222	19351.55	18439.15
823.9235	598.5515	19193.85	18275.8
824.068	600.6802	19034.75	18124.15
824.2126	602.8083	18873.8	17966.6
824.3571	604.9358	18819.2	17910.8
824.5017	607.0626	18795.75	17884.4
824.6462	609.1888	18781.55	17865.05
824.7908	611.3144	18765.85	17847.65
824.9354	613.4393	18675.95	17757
825.08	615.5636	18620.2	17702.55
825.2246	617.6873	18574.05	17656.1
825.3692	619.8103	18492.3	17573.75
825.5138	621.9327	18413.75	17497.5
825.6584	624.0544	18359.7	17449.45
825.803	626.1756	18306.7	17396.35
825.9477	628.2961	18279.85	17366
826.0923	630.4159	18229.85	17311.15
826.237	632.5351	18189.35	17272.55
826.3816	634.6537	18121.95	17204.5
826.5263	636.7716	18127.55	17201.3
826.6709	638.8889	18151.6	17223.85
826.8156	641.0056	18195.05	17270.25
826.9603	643.1216	18175.1	17250.5
827.105	645.237	18214.05	17291.6
827.2497	647.3518	18191.85	17275.95
827.3944	649.4659	18245	17334.3
827.5391	651.5793	18245.7	17334.9
827.6838	653.6922	18212.25	17303.35
827.8285	655.8043	18212.6	17296.95
827.9733	657.9159	18243	17325.45
828.118	660.0268	18174.7	17255.4
828.2627	662.137	18136.2	17216.95
828.4075	664.2466	18125.2	17203.15
828.5522	666.3556	18079.3	17155.4
828.697	668.4639	18057.9	17142.4
828.8418	670.5716	18141.25	17228.95
828.9865	672.6786	18213.7	17296.5
829.1313	674.785	18216.75	17290.9
829.2761	676.8907	18297.85	17373.9
829.4209	678.9958	18346.95	17430
829.5657	681.1002	18326.05	17407.7
829.7105	683.204	18376.35	17447.65
829.8553	685.3072	18290	17366.3
830.0001	687.4097	18269.9	17347.55
830.1449	689.5115	18260.7	17335.4
830.2898	691.6127	18175.85	17256.65
830.4346	693.7132	18121.65	17205.5
830.5794	695.8131	18159.75	17224.85
830.7243	697.9123	18129.5	17202.5
830.8691	700.0109	18109.75	17177.7
831.014	702.1089	18092.2	17168.9
831.1588	704.2061	18132	17203.45
831.3037	706.3028	18166.1	17235.75
831.4486	708.3987	18231.65	17302.85
831.5935	710.4941	18337	17412.7
831.7383	712.5887	18487.05	17565.3
831.8832	714.6827	18710.2	17781.8
832.0281	716.7761	19002.45	18079.75
832.173	718.8688	19382.85	18457.25
832.3179	720.9608	19602.75	18669.7
832.4628	723.0522	19675.8	18737.85
832.6077	725.1429	19525.7	18595.65
832.7527	727.233	19297.6	18371.15
832.8976	729.3224	19110.7	18180.45
833.0425	731.4112	18872.8	17944.2
833.1874	733.4993	18649.5	17720.1
833.3324	735.5867	18479.45	17549.75
833.4773	737.6735	18389.85	17457.35
833.6222	739.7596	18327.75	17395.55
833.7672	741.845	18275.9	17344.45
833.9122	743.9298	18266.25	17330.6
834.0571	746.014	18249.3	17319.5
834.2021	748.0974	18260.1	17322.2
834.347	750.1802	18243.85	17305.95
834.492	752.2624	18299.95	17364.55
834.637	754.3439	18310.2	17370.05
834.782	756.4247	18397.75	17453.95
834.9269	758.5048	18487.45	17551.3
835.0719	760.5843	18745.85	17809.9
835.2169	762.6631	19035.2	18098.45
835.3619	764.7413	19514.05	18581.15
835.5069	766.8188	20105.3	19170.7
835.6519	768.8956	20562.6	19627.3
835.7969	770.9718	20891.25	19959.7
835.9419	773.0473	20748.3	19812.2
836.0869	775.1221	20469.5	19537.3
836.232	777.1962	20102.15	19168.4
836.377	779.2697	19916.9	18976.95
836.522	781.3426	19972.7	19018.65
836.667	783.4147	20195.5	19257.55
836.8121	785.4862	20505.8	19566.55
836.9571	787.557	20452.95	19512.9
837.1021	789.6271	20135.05	19193.6
837.2472	791.6966	19645.85	18706.35
837.3922	793.7654	19038.2	18100.9
837.5373	795.8335	18769.65	17835.8
837.6823	797.901	18557.75	17617.3
837.8274	799.9678	18492.85	17549.35
837.9724	802.0339	18462.1	17521.3
838.1175	804.0993	18537.75	17585.55
838.2626	806.1641	18506.25	17565.3
838.4076	808.2282	18431.5	17494.4
838.5527	810.2916	18369.95	17431.8
838.6978	812.3544	18316.45	17385.25
838.8428	814.4164	18234.7	17299.45
838.9879	816.4778	18248.45	17308.7
839.133	818.5385	18233.25	17290.8
839.2781	820.5986	18328.35	17388.9
839.4232	822.658	18488.15	17543.45
839.5682	824.7166	18605.35	17663.8
839.7133	826.7747	18900.6	17958.65
839.8584	828.832	19148.25	18205.45
840.0035	830.8886	19287.45	18346.7
840.1486	832.9446	19483.75	18543.8
840.2937	834.9999	19441.05	18499.1
840.4388	837.0545	19412.05	18469.95
840.5839	839.1085	19374.5	18429.35
840.729	841.1618	19310.3	18361.9
840.8741	843.2143	19220.5	18278.6
841.0192	845.2662	19148.3	18206.85
841.1643	847.3175	19095.25	18150.7
841.3095	849.368	18986.95	18043.35
841.4546	851.4179	18894.35	17950.1
841.5997	853.467	18741.6	17800.4
841.7448	855.5155	18631.15	17686.1
841.8899	857.5633	18566.1	17621.8
842.0351	859.6105	18489.45	17546.5
842.1802	861.6569	18416.15	17473.25
842.3253	863.7027	18369.95	17424.85
842.4704	865.7478	18340.6	17393
842.6156	867.7922	18356.15	17408.75
842.7607	869.8359	18416.95	17470.3
842.9058	871.8789	18501.75	17556.25
843.0509	873.9212	18693.95	17718.75
843.1961	875.9629	18802	17852.35
843.3412	878.0039	18995.4	18050.95
843.4863	880.0441	19106.8	18167.4
843.6315	882.0837	19141.55	18198.35
843.7766	884.1226	19059.95	18117.7
843.9218	886.1609	18997.1	18053.15
844.0669	888.1984	18953.5	18012.35
844.212	890.2352	18988	18043.85
844.3572	892.2714	18964.25	18019.1
844.5023	894.3069	18941.75	17997.25
844.6475	896.3416	18853.3	17907.8
844.7926	898.3757	18783.6	17834.05
844.9377	900.4091	18799.5	17846.45
845.0829	902.4418	18847.85	17895.35
845.228	904.4739	18814.95	17861.6
845.3732	906.5052	18826.4	17876.05
845.5183	908.5358	18750.25	17802.8
845.6635	910.5658	18581.7	17628.85
845.8086	912.595	18411.8	17464.95
845.9538	914.6236	18288.1	17340.55
846.0989	916.6515	18229.4	17281.25
846.2441	918.6786	18189.2	17239.3
846.3892	920.7051	18291.5	17341.2
846.5344	922.7309	18421.3	17473.2
846.6795	924.756	18471.2	17525.85
846.8246	926.7804	18565.2	17616.1
846.9698	928.8041	18475.8	17526.8
847.1149	930.8272	18531.4	17584.55
847.2601	932.8495	18464.95	17517.1
847.4052	934.8711	18400.1	17446.35
847.5504	936.892	18312.8	17360.05
847.6955	938.9123	18172.55	17223.85
847.8407	940.9318	18100.25	17153.2
847.9858	942.9506	17968.4	17017.35
848.131	944.9688	17904	16955.3
848.2761	946.9862	17873.2	16923.05
848.4213	949.003	17762	16810
848.5664	951.019	17756.15	16804.3
848.7115	953.0344	17740.7	16792.85
848.8567	955.0491	17764.5	16815.15
849.0018	957.063	17844.85	16894
849.147	959.0763	17996	17050.05
849.2921	961.0888	18025.8	17076.05
849.4373	963.1007	18120.35	17175.4
849.5824	965.1119	18162.75	17226.05
849.7275	967.1223	18185.6	17252.05
849.8727	969.1321	18185.3	17252.2
850.0178	971.1412	18235.55	17298.7
850.1629	973.1495	18251.5	17305.15
850.3081	975.1572	18342.6	17344.45
850.4532	977.1641	18348.3	17395.5
850.5983	979.1704	18298.1	17347.15
850.7435	981.1759	18315.6	17362.85
850.8886	983.1808	18343.45	17392.25
851.0337	985.1849	18408.5	17451.6
851.1788	987.1884	18565.95	17617.4
851.324	989.1911	18696.15	17746.2
851.4691	991.1932	18830.65	17886.3
851.6142	993.1945	18880.5	17931.5
851.7593	995.1951	18814.3	17862.55
851.9045	997.1951	18814.55	17859.2
852.0496	999.1943	18738.3	17790.4
852.1947	1001.1928	18674.25	17723.5
852.3398	1003.1906	18660.8	17712.55
852.4849	1005.1877	18755.35	17803.8
852.63	1007.1841	18698.7	17751.8
852.7751	1009.1798	18666.8	17718.5
852.9202	1011.1748	18506.15	17557.4
853.0653	1013.1691	18323.65	17373.4
853.2104	1015.1627	18083.3	17136.9
853.3555	1017.1556	17852.65	16909.15
853.5006	1019.1477	17773.6	16829.55
853.6457	1021.1392	17644.15	16706.3
853.7908	1023.1299	17629.45	16690.3
853.9359	1025.12	17619.05	16689.75
854.081	1027.1093	17640.75	16720.1
854.2261	1029.0979	17727.35	16810.7
854.3712	1031.0859	17831.9	16908.4
854.5163	1033.0731	17820.7	16887.35
854.6613	1035.0596	17744	16805.35
854.8064	1037.0454	17613.4	16668.65
854.9515	1039.0304	17497.6	16554.6
855.0965	1041.0148	17372.3	16427.3
855.2416	1042.9985	17287.1	16342.05
855.3867	1044.9814	17253.4	16308.85
855.5317	1046.9636	17192.3	16243.5
855.6768	1048.9452	17149.15	16207.8
855.8219	1050.926	17175.55	16230.55
855.9669	1052.9061	17168	16223.3
856.112	1054.8855	17153.35	16203.7
856.257	1056.8642	17245.5	16300.45
856.4021	1058.8421	17277.85	16326.6
856.5471	1060.8194	17302.15	16356.9
856.6921	1062.7959	17333.3	16390
856.8372	1064.7717	17389.95	16444
856.9822	1066.7469	17401.7	16453.85
857.1272	1068.7213	17401	16451.55
857.2723	1070.695	17407.15	16461.45
857.4173	1072.6679	17334.65	16387.35
857.5623	1074.6402	17321.5	16374.35
857.7073	1076.6117	17317.4	16362.95
857.8523	1078.5826	17282.2	16336.8
857.9973	1080.5527	17236.8	16288.9
858.1423	1082.5221	17301.7	16352.45
858.2873	1084.4908	17473.7	16526.7
858.4323	1086.4587	17625.65	16678.55
858.5773	1088.426	17758.25	16813.4
858.7223	1090.3925	17774.25	16826.55
858.8673	1092.3584	17763.2	16815
859.0123	1094.3235	17585.9	16642.1
859.1573	1096.2879	17538.1	16592.45
859.3022	1098.2515	17552.75	16608.9
859.4472	1100.2145	17649.85	16707.05
859.5922	1102.1767	17726.3	16777.5
859.7371	1104.1382	17871	16927.8
859.8821	1106.099	18123.55	17175.85
860.027	1108.0591	18338.9	17396.1
860.172	1110.0185	18429.1	17482.95
860.3169	1111.9771	18503.2	17560.85
860.4619	1113.9351	18314.7	17366.55
860.6068	1115.8923	18010.35	17061.6
860.7517	1117.8488	17759.75	16809.6
860.8967	1119.8045	17460	16516.15
861.0416	1121.7596	17375.1	16432.55
861.1865	1123.7139	17289.25	16346.8
861.3314	1125.6675	17328.55	16384.4
861.4763	1127.6204	17348.1	16405.1
861.6212	1129.5726	17324.45	16374.65
861.7661	1131.524	17330.8	16387.85
861.911	1133.4748	17295.05	16350
862.0559	1135.4248	17221.25	16272.75
862.2008	1137.3741	17194.75	16252.05
862.3457	1139.3226	17122.3	16179.7
862.4905	1141.2705	17100.8	16154.3
862.6354	1143.2176	16988.6	16039.95
862.7803	1145.164	17008.95	16063.35
862.9251	1147.1097	17012.8	16068.15
863.07	1149.0546	16982.6	16034.8
863.2148	1150.9989	16905.85	15962.15
863.3597	1152.9424	16786.75	15843.3
863.5045	1154.8852	16627.45	15682.2
863.6493	1156.8272	16552.5	15608.25
863.7942	1158.7686	16526.25	15574.9
863.939	1160.7092	16472.05	15524.3
864.0838	1162.6491	16451.85	15500.85
864.2286	1164.5883	16512.85	15572.6
864.3734	1166.5267	16604.25	15659.15
864.5182	1168.4644	16773.75	15828.45
864.663	1170.4014	16937.95	15993.5
864.8078	1172.3377	17190	16248.15
864.9526	1174.2732	17433.65	16491
865.0974	1176.2081	17731.95	16785.85
865.2421	1178.1421	17967.9	17019.65
865.3869	1180.0755	18213.05	17271.55
865.5317	1182.0082	18328.35	17388.2
