Software Version:	3.9.2.0
Unit SN:	10000200
Spectrometer SN:	6960
Date:	3/8/2024 12:29:00 PM
Data Line Index:	25
Spectral Points:	2048
Integration time (ms):	125
Averages:	20
Delay (ms):	30000
Sequence Number:	1
Processing:	dark subtract
Laser Power (mW):	305
Laser Current (mA):	821
Laser Diode Temp (C):	25
Laser Case Temp (C):	26
System Temp (C):	26
Spectrometer Temp (C):	23.8
CCD Temp (C):	0.004
Secondary Temp (C):	20.013
Heatsink Temp (C):	20.707
CCDPCB Temp (C):	36.262
SecondaryPCB Temp (C):	30.527

Wavelength	RamanShift	Raw Counts	Dark Subtracted
787.061	30.1047	443.85	34.75
787.2016	32.3739	445.75	37.45
787.3422	34.6426	447.4	39.6
787.4828	36.9109	454.3	41.95
787.6235	39.1787	464.2	51.65
787.7642	41.4461	471.4	51.1
787.9049	43.7131	474.2	52.15
788.0456	45.9796	484.9	59.05
788.1863	48.2456	490.7	63.05
788.3271	50.5112	503.2	72.25
788.4679	52.7764	506.75	71.7
788.6087	55.0411	518.05	76.9
788.7496	57.3054	530.65	83.45
788.8904	59.5692	532.7	85.4
789.0313	61.8326	545.7	96.35
789.1722	64.0955	554.85	101.05
789.3132	66.3579	570.3	113.25
789.4541	68.6199	586.3	124.45
789.5951	70.8815	614.65	147.3
789.7361	73.1426	692.9	222.85
789.8771	75.4032	870.6	395.65
790.0181	77.6634	1315.75	834.55
790.1592	79.9231	2353.2	1865.7
790.3003	82.1824	4573.1	4069.4
790.4414	84.4412	8491.2	7959.25
790.5825	86.6995	13830.45	13261.8
790.7237	88.9574	18881.45	18281.8
790.8648	91.2148	22294.4	21671.35
791.006	93.4717	23725.15	23090.9
791.1472	95.7282	23846.15	23206.35
791.2885	97.9842	23497.5	22854.75
791.4297	100.2398	22779	22133
791.571	102.4949	21942.05	21290.5
791.7123	104.7495	21073.2	20420.7
791.8536	107.0036	20237.45	19581.45
791.9949	109.2573	19482.05	18830.15
792.1363	111.5105	18806.2	18148.95
792.2777	113.7632	18206.35	17545.65
792.4191	116.0154	17699.2	17031.7
792.5605	118.2672	17361.2	16697.6
792.7019	120.5185	17013	16347.55
792.8434	122.7693	16752.65	16082.8
792.9849	125.0197	16505.55	15833.3
793.1264	127.2696	16263.7	15588
793.2679	129.519	16064	15383.9
793.4094	131.7679	15808.55	15126
793.551	134.0163	15543.7	14858.2
793.6926	136.2642	15216.35	14526.1
793.8342	138.5117	14872.45	14172.55
793.9758	140.7587	14503.9	13811.15
794.1175	143.0052	14202.25	13506.8
794.2591	145.2512	13858.35	13162.45
794.4008	147.4967	13584.35	12885.9
794.5425	149.7417	13345.15	12646.2
794.6842	151.9863	13172.1	12474.25
794.826	154.2304	13053.35	12344.15
794.9677	156.4739	12897.2	12185.8
795.1095	158.717	12811.35	12097.2
795.2513	160.9596	12630.8	11913.25
795.3931	163.2017	12398.5	11674.35
795.535	165.4433	12154	11433.9
795.6768	167.6844	11867.75	11145.55
795.8187	169.925	11604.75	10883.8
795.9606	172.1651	11308.95	10579.9
796.1025	174.4047	11071.45	10342.65
796.2445	176.6439	10860.8	10129.85
796.3864	178.8825	10686.6	9951.3
796.5284	181.1206	10568.45	9829.75
796.6704	183.3582	10445.15	9702.1
796.8124	185.5954	10376.4	9627.75
796.9544	187.832	10320.4	9572.15
797.0965	190.0681	10280.7	9526.95
797.2386	192.3037	10277.65	9524.4
797.3806	194.5388	10258.4	9499.65
797.5228	196.7734	10272.15	9514.3
797.6649	199.0075	10349.65	9586.05
797.807	201.2411	10432.9	9673.15
797.9492	203.4742	10519.5	9753.95
798.0914	205.7068	10652	9883.6
798.2336	207.9389	10748.5	9977.55
798.3758	210.1704	10890.8	10121.35
798.518	212.4015	10957.6	10205.4
798.6603	214.632	11076.4	10326.45
798.8025	216.862	11210.5	10464.45
798.9448	219.0915	11261.45	10508.9
799.0871	221.3205	11360.55	10605.75
799.2294	223.549	11401.5	10651.25
799.3718	225.777	11433.55	10685.4
799.5141	228.0044	11502.25	10744.3
799.6565	230.2314	11562.25	10805.95
799.7989	232.4578	11618.45	10859.45
799.9413	234.6837	11680	10916.1
800.0837	236.909	11716.65	10948.65
800.2262	239.1339	11736.05	10941.85
800.3687	241.3582	11672.35	10893.95
800.5111	243.582	11646.9	10838.15
800.6536	245.8053	11593.05	10795.65
800.7961	248.0281	11571.75	10780.95
800.9387	250.2503	11610.2	10818.1
801.0812	252.472	11676.55	10880.8
801.2238	254.6932	11793.75	10997.4
801.3664	256.9139	11935.55	11138.05
801.509	259.134	12114.7	11311.05
801.6516	261.3536	12362.95	11560.45
801.7942	263.5727	12681.55	11878.2
801.9369	265.7912	12933.65	12130.5
802.0795	268.0092	13231.05	12426.2
802.2222	270.2267	13439.4	12636.95
802.3649	272.4436	13568.4	12764.9
802.5076	274.6601	13630.1	12816.05
802.6504	276.8759	13574.05	12763.45
802.7931	279.0913	13471.8	12662.4
802.9359	281.3061	13331.4	12522.4
803.0787	283.5204	13261.05	12452.1
803.2215	285.7341	13250	12429.3
803.3643	287.9473	13264.35	12433.4
803.5071	290.16	13301.35	12478.75
803.6499	292.3721	13331.6	12515
803.7928	294.5837	13448.5	12628.8
803.9357	296.7947	13631.05	12814.25
804.0786	299.0052	13763	12948.1
804.2215	301.2152	13769.75	12948.45
804.3644	303.4246	13660.3	12842.4
804.5074	305.6334	13389.2	12574.1
804.6503	307.8418	13039.65	12220.25
804.7933	310.0495	12723.6	11903.15
804.9363	312.2568	12322.15	11497.85
805.0793	314.4635	11979.25	11152.9
805.2223	316.6696	11665.95	10836.3
805.3653	318.8752	11442.8	10604.8
805.5084	321.0802	11330.45	10502.5
805.6514	323.2847	11355.1	10519.4
805.7945	325.4887	11357.55	10523
805.9376	327.692	11373.05	10541.5
806.0807	329.8949	11338.25	10504.35
806.2238	332.0972	11190.65	10348.25
806.367	334.2989	11034	10191.5
806.5101	336.5001	10826.95	9986.25
806.6533	338.7007	10665.8	9826.7
806.7965	340.9008	10517.9	9675.05
806.9397	343.1003	10363.8	9522.2
807.0829	345.2992	10219.3	9371.3
807.2261	347.4976	10126.95	9283.65
807.3693	349.6955	10050.1	9201.5
807.5126	351.8927	10017.4	9169.55
807.6559	354.0895	9945.75	9085.6
807.7991	356.2856	9909.65	9058.45
807.9424	358.4812	9852.35	9003.65
808.0857	360.6763	9850.1	8992.75
808.2291	362.8707	9843.9	8987.65
808.3724	365.0646	9875.7	9018.25
808.5158	367.258	9916.5	9060.25
808.6591	369.4508	10011.7	9151.3
808.8025	371.643	10103.75	9246.1
808.9459	373.8346	10208.1	9342.4
809.0893	376.0257	10297.55	9431.65
809.2327	378.2162	10338.3	9474.4
809.3762	380.4062	10326.05	9458.95
809.5196	382.5956	10244.2	9382.45
809.6631	384.7844	10140.05	9284.15
809.8066	386.9726	10042.1	9187.4
809.9501	389.1603	9960.2	9109.2
810.0936	391.3474	9916.15	9020.75
810.2371	393.5339	9890.45	9031.1
810.3806	395.7199	9844.3	8989.8
810.5241	397.9052	9887.95	9033.95
810.6677	400.09	9976.4	9119.35
810.8113	402.2743	10146.4	9290.65
810.9548	404.4579	10297.7	9439.55
811.0984	406.641	10495.2	9635.2
811.2421	408.8235	10618	9759.55
811.3857	411.0054	10723.15	9859.8
811.5293	413.1868	10841.65	9973.15
811.673	415.3675	10864.15	9995.35
811.8166	417.5477	10850.7	9979.15
811.9603	419.7273	10788.05	9915.4
812.104	421.9064	10715.2	9836.55
812.2477	424.0848	10641.65	9769.95
812.3914	426.2627	10532.1	9656.95
812.5351	428.4399	10356.45	9484.95
812.6788	430.6166	10104.6	9225.6
812.8226	432.7928	9805.2	8926.05
812.9663	434.9683	9538.4	8662.2
813.1101	437.1432	9353.1	8474.9
813.2539	439.3176	9188.6	8321.75
813.3977	441.4914	9082.55	8213.25
813.5415	443.6645	9057.15	8183.4
813.6853	445.8371	9030.4	8158.45
813.8291	448.0091	8997.8	8122.4
813.973	450.1806	9006.15	8129.05
814.1168	452.3514	9006.85	8131.55
814.2607	454.5216	9055.1	8174
814.4046	456.6913	9020.55	8143.5
814.5485	458.8603	9076.45	8204.45
814.6924	461.0288	9116	8244.45
814.8363	463.1967	9100.5	8229.8
814.9802	465.3639	9103.95	8232.05
815.1241	467.5306	9091.8	8215.85
815.2681	469.6967	9073.7	8202.1
815.412	471.8622	9074.85	8207
815.556	474.0271	9120.05	8242.9
815.7	476.1914	9129.05	8250.2
815.844	478.3551	9149.2	8274.2
815.988	480.5182	9198	8322.5
816.132	482.6807	9292.1	8425.05
816.276	484.8426	9434.85	8571.95
816.4201	487.0039	9755.5	8887.6
816.5641	489.1647	10075.3	9197.85
816.7082	491.3248	10349.1	9464.45
816.8522	493.4843	10420.55	9546.3
816.9963	495.6432	10373.25	9499.2
817.1404	497.8015	10258.9	9375.85
817.2845	499.9592	10155.2	9265.9
817.4286	502.1163	9941.7	9054.25
817.5727	504.2728	9687.2	8804.95
817.7168	506.4287	9439.95	8566.6
817.861	508.5839	9181.95	8310.15
818.0051	510.7386	9040.85	8162.15
818.1493	512.8927	8986.85	8099.4
818.2935	515.0461	8979.15	8093.05
818.4377	517.199	9067.4	8178.5
818.5818	519.3512	9244.7	8354.95
818.726	521.5029	9495.7	8600.7
818.8703	523.6539	9752.65	8865.95
819.0145	525.8043	9852.25	8959.7
819.1587	527.9541	9783.65	8890.55
819.303	530.1033	9574.1	8687.95
819.4472	532.2519	9396.85	8506.15
819.5915	534.3999	9339.75	8449
819.7357	536.5472	9378.1	8489.25
819.88	538.694	9522.3	8634.1
820.0243	540.8401	9707.2	8815
820.1686	542.9856	9831.95	8930.25
820.3129	545.1305	9832.3	8928.9
820.4572	547.2748	9814.05	8908.5
820.6016	549.4185	9712.7	8804.25
820.7459	551.5615	9632.4	8728.8
820.8902	553.704	9635.6	8735.25
821.0346	555.8458	9702.4	8802.5
821.1789	557.987	9907.6	9009.3
821.3233	560.1276	10137.4	9236.8
821.4677	562.2675	10521.8	9623.6
821.6121	564.4069	11015	10113.85
821.7565	566.5456	11516.55	10618
821.9009	568.6837	11652.1	10751.85
822.0453	570.8212	11303.85	10406.6
822.1897	572.958	10677.2	9778.65
822.3342	575.0942	10077.6	9181.85
822.4786	577.2299	9623.3	8730.7
822.6231	579.3648	9442.75	8561
822.7675	581.4992	9330	8455.4
822.912	583.6329	9421.35	8547.9
823.0565	585.766	9555.85	8679.25
823.201	587.8985	9683.55	8797.7
823.3454	590.0304	9765.8	8846.15
823.4899	592.1616	9710.75	8809.25
823.6345	594.2922	9623.15	8718.6
823.779	596.4222	9462.35	8552.45
823.9235	598.5515	9294.75	8386.15
824.068	600.6802	9132.65	8229.25
824.2126	602.8083	8994.2	8092.65
824.3571	604.9358	9000.1	8098
824.5017	607.0626	9031.4	8123.05
824.6462	609.1888	9134.55	8224.45
824.7908	611.3144	9283.35	8371.75
824.9354	613.4393	9428.25	8516.15
825.08	615.5636	9584.55	8671.05
825.2246	617.6873	9594.35	8685.5
825.3692	619.8103	9536.05	8622.05
825.5138	621.9327	9383.2	8474.3
825.6584	624.0544	9156.7	8253.75
825.803	626.1756	8971.7	8065.9
825.9477	628.2961	8841.05	7930.1
826.0923	630.4159	8753.85	7839.05
826.237	632.5351	8760.6	7847.6
826.3816	634.6537	8746.7	7834.4
826.5263	636.7716	8746.25	7830.8
826.6709	638.8889	8757.85	7834.6
826.8156	641.0056	8818.5	7899.8
826.9603	643.1216	8762.65	7847.1
827.105	645.237	8738.7	7821.3
827.2497	647.3518	8653.8	7747.15
827.3944	649.4659	8580.85	7677.1
827.5391	651.5793	8531.9	7626.8
827.6838	653.6922	8496.65	7588.6
827.8285	655.8043	8477.15	7569.15
827.9733	657.9159	8474.05	7564
828.118	660.0268	8471.45	7562.1
828.2627	662.137	8468.65	7553
828.4075	664.2466	8501.75	7578.95
828.5522	666.3556	8500.5	7582.45
828.697	668.4639	8459.25	7549.05
828.8418	670.5716	8424.2	7513.4
828.9865	672.6786	8350.35	7434.25
829.1313	674.785	8298	7377
829.2761	676.8907	8264.4	7349.15
829.4209	678.9958	8266.7	7356.1
829.5657	681.1002	8234.35	7318.65
829.7105	683.204	8247.35	7323.9
829.8553	685.3072	8231.15	7308.15
830.0001	687.4097	8200.2	7280.75
830.1449	689.5115	8205.8	7283.35
830.2898	691.6127	8218.55	7305.4
830.4346	693.7132	8212.3	7295.4
830.5794	695.8131	8266.25	7328.35
830.7243	697.9123	8274.55	7349.25
830.8691	700.0109	8289.55	7367.55
831.014	702.1089	8322.35	7400
831.1588	704.2061	8396.35	7474.9
831.3037	706.3028	8464.55	7541.6
831.4486	708.3987	8498.35	7576.65
831.5935	710.4941	8499.15	7579.55
831.7383	712.5887	8532.1	7613.65
831.8832	714.6827	8587.9	7665.1
832.0281	716.7761	8665.25	7746.55
832.173	718.8688	8773.75	7851.9
832.3179	720.9608	8898	7967.4
832.4628	723.0522	9013.75	8084.25
832.6077	725.1429	9139.2	8215.95
832.7527	727.233	9234.75	8311.7
832.8976	729.3224	9324.15	8402.05
833.0425	731.4112	9295.7	8370.55
833.1874	733.4993	9190.95	8263.9
833.3324	735.5867	8972.2	8047.3
833.4773	737.6735	8764.95	7839.8
833.6222	739.7596	8593.75	7667.6
833.7672	741.845	8441.9	7516.45
833.9122	743.9298	8375.15	7445.05
834.0571	746.014	8367.05	7441.45
834.2021	748.0974	8332.55	7399.85
834.347	750.1802	8346.25	7415.5
834.492	752.2624	8356.25	7426.05
834.637	754.3439	8423.5	7490
834.782	756.4247	8516.9	7575.7
834.9269	758.5048	8678.45	7745.9
835.0719	760.5843	8921	7989.65
835.2169	762.6631	9285.9	8355.55
835.3619	764.7413	9805.85	8874.55
835.5069	766.8188	10441.4	9508.7
835.6519	768.8956	10972.9	10039.4
835.7969	770.9718	11306.25	10376.4
835.9419	773.0473	11303.65	10376.5
836.0869	775.1221	11086.2	10156
836.232	777.1962	10874.6	9944.55
836.377	779.2697	10833.5	9900.7
836.522	781.3426	10940.95	9998.85
836.667	783.4147	11006.7	10079.2
836.8121	785.4862	11013.75	10083.75
836.9571	787.557	10799.6	9871.3
837.1021	789.6271	10392.85	9458.4
837.2472	791.6966	9818.1	8883.55
837.3922	793.7654	9279.7	8347.1
837.5373	795.8335	8879.45	7951.65
837.6823	797.901	8619.35	7690.05
837.8274	799.9678	8468.8	7535.7
837.9724	802.0339	8375.35	7439.2
838.1175	804.0993	8314.75	7372.05
838.2626	806.1641	8249.05	7312.15
838.4076	808.2282	8181.15	7247.55
838.5527	810.2916	8119.6	7185.3
838.6978	812.3544	8051.8	7120.35
838.8428	814.4164	8036.4	7106
838.9879	816.4778	8069.75	7131
839.133	818.5385	8100.9	7165.65
839.2781	820.5986	8237	7301.85
839.4232	822.658	8479.1	7541.95
839.5682	824.7166	8815.2	7880.9
839.7133	826.7747	9315.05	8376.8
839.8584	828.832	9806.85	8867.75
840.0035	830.8886	10211.95	9268
840.1486	832.9446	10375.6	9438.1
840.2937	834.9999	10226.05	9288.3
840.4388	837.0545	9945.25	9004.65
840.5839	839.1085	9597.75	8659.25
840.729	841.1618	9274.7	8333.35
840.8741	843.2143	8988.4	8049.45
841.0192	845.2662	8824.9	7887.75
841.1643	847.3175	8695.85	7760.6
841.3095	849.368	8586.9	7644.3
841.4546	851.4179	8506.15	7568.45
841.5997	853.467	8429.85	7490.6
841.7448	855.5155	8373.8	7435.8
841.8899	857.5633	8302.5	7361.55
842.0351	859.6105	8243	7306.45
842.1802	861.6569	8173.85	7233.2
842.3253	863.7027	8082.7	7142.2
842.4704	865.7478	8056.45	7117.4
842.6156	867.7922	8007.5	7066.85
842.7607	869.8359	7994.35	7054.75
842.9058	871.8789	7988.6	7046.45
843.0509	873.9212	8074.3	7102.1
843.1961	875.9629	8105.9	7165.2
843.3412	878.0039	8200.85	7260.1
843.4863	880.0441	8269.05	7331.1
843.6315	882.0837	8318.05	7376.7
843.7766	884.1226	8380.3	7435.25
843.9218	886.1609	8476.3	7537.2
844.0669	888.1984	8603.3	7665.75
844.212	890.2352	8723.4	7783.25
844.3572	892.2714	8753.35	7807.25
844.5023	894.3069	8708.1	7765.7
844.6475	896.3416	8560.3	7616.8
844.7926	898.3757	8402.25	7460.4
844.9377	900.4091	8325.9	7381.5
845.0829	902.4418	8285.3	7337.75
845.228	904.4739	8319.8	7373
845.3732	906.5052	8380	7435.6
845.5183	908.5358	8356.1	7415.3
845.6635	910.5658	8243.3	7297.05
845.8086	912.595	8035.7	7090.35
845.9538	914.6236	7884.4	6940.6
846.0989	916.6515	7759.75	6819
846.2441	918.6786	7657.65	6715.05
846.3892	920.7051	7628.8	6684
846.5344	922.7309	7651.9	6710.7
846.6795	924.756	7682.65	6738.5
846.8246	926.7804	7756.75	6813.45
846.9698	928.8041	7763.2	6822.55
847.1149	930.8272	7808.65	6868
847.2601	932.8495	7799.3	6851.35
847.4052	934.8711	7808.35	6863
847.5504	936.892	7766.8	6827.3
847.6955	938.9123	7803.1	6861.1
847.8407	940.9318	7856.2	6910.85
847.9858	942.9506	7866.6	6924.3
848.131	944.9688	7830.2	6887.55
848.2761	946.9862	7730	6785.7
848.4213	949.003	7577.1	6635.8
848.5664	951.019	7504.25	6564
848.7115	953.0344	7441.85	6496.45
848.8567	955.0491	7397.1	6450.3
849.0018	957.063	7432.75	6490.65
849.147	959.0763	7521.6	6579.2
849.2921	961.0888	7525.05	6580.55
849.4373	963.1007	7555.75	6612.75
849.5824	965.1119	7570.45	6635.3
849.7275	967.1223	7561.05	6630.7
849.8727	969.1321	7530.4	6599.4
850.0178	971.1412	7520.15	6585.5
850.1629	973.1495	7506.4	6565.2
850.3081	975.1572	7565.9	6576.95
850.4532	977.1641	7533.85	6588.45
850.5983	979.1704	7536.45	6592
850.7435	981.1759	7491.05	6540.5
850.8886	983.1808	7490.3	6545.8
851.0337	985.1849	7521.5	6566.3
851.1788	987.1884	7537.45	6592.45
851.324	989.1911	7589.5	6643.5
851.4691	991.1932	7657.2	6711.45
851.6142	993.1945	7669	6727.8
851.7593	995.1951	7637.4	6691.15
851.9045	997.1951	7624.15	6676.5
852.0496	999.1943	7610.15	6664.4
852.1947	1001.1928	7601	6656.2
852.3398	1003.1906	7644	6699.45
852.4849	1005.1877	7767.4	6820.65
852.63	1007.1841	7850.8	6908.6
852.7751	1009.1798	7905.2	6963.45
852.9202	1011.1748	7850.15	6903.75
853.0653	1013.1691	7755.65	6811.1
853.2104	1015.1627	7569.55	6626.6
853.3555	1017.1556	7390.65	6447.8
853.5006	1019.1477	7299.3	6356.15
853.6457	1021.1392	7173.45	6239.7
853.7908	1023.1299	7158.25	6224.1
853.9359	1025.12	7155.65	6231.25
854.081	1027.1093	7197.2	6280.15
854.2261	1029.0979	7299.35	6388.65
854.3712	1031.0859	7399.4	6479.25
854.5163	1033.0731	7436.85	6506.35
854.6613	1035.0596	7426.8	6489.9
854.8064	1037.0454	7333.8	6393.35
854.9515	1039.0304	7241.75	6303.6
855.0965	1041.0148	7150.8	6209.95
855.2416	1042.9985	7071.85	6130.6
855.3867	1044.9814	7054.05	6113.35
855.5317	1046.9636	6990	6046.3
855.6768	1048.9452	6987	6048.2
855.8219	1050.926	7031.5	6091.45
855.9669	1052.9061	7048	6104.65
856.112	1054.8855	7074.35	6132.2
856.257	1056.8642	7116.9	6178.7
856.4021	1058.8421	7151.1	6204.4
856.5471	1060.8194	7192.45	6251.85
856.6921	1062.7959	7228.6	6285.6
856.8372	1064.7717	7305.1	6364
856.9822	1066.7469	7385.9	6443.8
857.1272	1068.7213	7440.5	6491.55
857.2723	1070.695	7521.05	6581.2
857.4173	1072.6679	7596.75	6655.9
857.5623	1074.6402	7603.2	6658.4
857.7073	1076.6117	7592.25	6646.85
857.8523	1078.5826	7478.75	6536.85
857.9973	1080.5527	7325.75	6380.35
858.1423	1082.5221	7236.95	6293.9
858.2873	1084.4908	7154.8	6212.3
858.4323	1086.4587	7136.2	6196.35
858.5773	1088.426	7142.5	6201.7
858.7223	1090.3925	7182.1	6238.3
858.8673	1092.3584	7230.4	6288.75
859.0123	1094.3235	7263.1	6321.7
859.1573	1096.2879	7339.65	6400.65
859.3022	1098.2515	7474.8	6535
859.4472	1100.2145	7671.2	6729.6
859.5922	1102.1767	7825.9	6882.5
859.7371	1104.1382	8044.5	7104.65
859.8821	1106.099	8270.7	7327.45
860.027	1108.0591	8480.5	7539.35
860.172	1110.0185	8604.8	7662.4
860.3169	1111.9771	8661.1	7720.1
860.4619	1113.9351	8628.65	7684.6
860.6068	1115.8923	8554.7	7613.85
860.7517	1117.8488	8446.6	7505.4
860.8967	1119.8045	8311.45	7369.6
861.0416	1121.7596	8186.85	7243.85
861.1865	1123.7139	8063.85	7125
861.3314	1125.6675	7995.35	7058.15
861.4763	1127.6204	8001.4	7060.4
861.6212	1129.5726	7969.3	7028.6
861.7661	1131.524	7886.1	6948.4
861.911	1133.4748	7762.55	6821.1
862.0559	1135.4248	7571.55	6631.75
862.2008	1137.3741	7403.05	6462.3
862.3457	1139.3226	7314.35	6374.45
862.4905	1141.2705	7246.75	6305.2
862.6354	1143.2176	7210.35	6264.3
862.7803	1145.164	7160.05	6221.95
862.9251	1147.1097	7077.4	6134.7
863.07	1149.0546	6981.35	6043.15
863.2148	1150.9989	6874.5	5933.35
863.3597	1152.9424	6809.1	5865.75
863.5045	1154.8852	6757.65	5818.5
863.6493	1156.8272	6728.65	5787.7
863.7942	1158.7686	6765.2	5816.55
863.939	1160.7092	6765.3	5820.45
864.0838	1162.6491	6819.65	5878.5
864.2286	1164.5883	6929	5988.35
864.3734	1166.5267	7027.5	6084.9
864.5182	1168.4644	7168.2	6230.1
864.663	1170.4014	7337.05	6393.75
864.8078	1172.3377	7568.2	6627.25
864.9526	1174.2732	7857.9	6922.75
865.0974	1176.2081	8256.5	7316.55
865.2421	1178.1421	8751.65	7811.4
865.3869	1180.0755	9240.6	8305.3
865.5317	1182.0082	9618.35	8682.9
865.6764	1183.9401	9791.8	8855.75
865.8212	1185.8713	9632.3	8700.35
865.9659	1187.8017	9312.35	8385.1
866.1106	1189.7315	8932	8013.85
866.2554	1191.6605	8552.6	7632.45
866.4001	1193.5888	8310.8	7383.2
866.5448	1195.5163	8154.55	7225
866.6895	1197.4432	8081.5	7148
866.8342	1199.3693	8037.6	7101.4
866.9789	1201.2947	8004	7064.4
867.1236	1203.2193	7945.95	7005.85
867.2683	1205.1432	7925.7	6988.95
867.413	1207.0664	7886.25	6952.15
867.5576	1208.9889	7872.7	6936.6
867.7023	1210.9106	7833.6	6900.65
867.847	1212.8316	7864.1	6929.55
867.9916	1214.7519	7913.6	6971.15
868.1363	1216.6715	7936.85	6999
868.2809	1218.5903	8017.1	7080.45
868.4255	1220.5084	8086.6	7150.6
868.5701	1222.4257	8193.6	7256.95
868.7148	1224.3424	8262.9	7329.4
868.8594	1226.2583	8382.45	7443
869.004	1228.1735	8511.4	7577.55
