Software Version:	3.9.2.0
Unit SN:	10000200
Spectrometer SN:	6960
Date:	3/8/2024 11:04:39 AM
Data Line Index:	25
Spectral Points:	2048
Integration time (ms):	125
Averages:	20
Delay (ms):	30000
Sequence Number:	1
Processing:	dark subtract
Laser Power (mW):	285
Laser Current (mA):	803
Laser Diode Temp (C):	25.1
Laser Case Temp (C):	23.9
System Temp (C):	24
Spectrometer Temp (C):	22.2
CCD Temp (C):	0.008
Secondary Temp (C):	20.004
Heatsink Temp (C):	18.64
CCDPCB Temp (C):	31.761
SecondaryPCB Temp (C):	26.069

Wavelength	RamanShift	Raw Counts	Dark Subtracted
787.061	30.1047	433.45	17.75
787.2016	32.3739	433.1	20.85
787.3422	34.6426	437.25	23.85
787.4828	36.9109	438.8	23.8
787.6235	39.1787	447.25	26.55
787.7642	41.4461	451.55	29.45
787.9049	43.7131	456.2	28.5
788.0456	45.9796	461.05	33.5
788.1863	48.2456	467.65	34.65
788.3271	50.5112	474.85	36.95
788.4679	52.7764	478.25	38.6
788.6087	55.0411	486.65	43.25
788.7496	57.3054	492.1	43.85
788.8904	59.5692	495.6	45.4
789.0313	61.8326	501.95	49.65
789.1722	64.0955	514.05	59.55
789.3132	66.3579	524	62.75
789.4541	68.6199	534	70.55
789.5951	70.8815	555.6	87.1
789.7361	73.1426	601.25	129.35
789.8771	75.4032	703.25	227.5
790.0181	77.6634	955.25	476.3
790.1592	79.9231	1548.6	1069.45
790.3003	82.1824	2742.5	2259.5
790.4414	84.4412	4790.4	4300.45
790.5825	86.6995	7481.1	6989.4
790.7237	88.9574	9993.65	9495.45
790.8648	91.2148	11716.35	11218.3
791.006	93.4717	12560.95	12059.1
791.1472	95.7282	12758.55	12256.2
791.2885	97.9842	12727.7	12220.45
791.4297	100.2398	12552.55	12043.6
791.571	102.4949	12324.1	11812.15
791.7123	104.7495	12176.6	11662.25
791.8536	107.0036	11969.6	11451.65
791.9949	109.2573	11796.8	11282.3
792.1363	111.5105	11569.15	11051.6
792.2777	113.7632	11242.15	10723.3
792.4191	116.0154	10922.85	10393.2
792.5605	118.2672	10587.15	10063.2
792.7019	120.5185	10166.3	9642.7
792.8434	122.7693	9760.55	9231.85
792.9849	125.0197	9387.65	8853.7
793.1264	127.2696	9076.25	8537.7
793.2679	129.519	8852.35	8310.75
793.4094	131.7679	8683	8140.5
793.551	134.0163	8572.25	8028.55
793.6926	136.2642	8521.3	7974.75
793.8342	138.5117	8499.1	7948.9
793.9758	140.7587	8434.35	7883.3
794.1175	143.0052	8343.2	7789.45
794.2591	145.2512	8176.2	7621
794.4008	147.4967	7953.05	7397.05
794.5425	149.7417	7735	7173.25
794.6842	151.9863	7558.25	6995.2
794.826	154.2304	7450	6882.3
794.9677	156.4739	7412.2	6840.2
795.1095	158.717	7445.35	6874.35
795.2513	160.9596	7527.3	6951.3
795.3931	163.2017	7665.3	7084.2
795.535	165.4433	7768.25	7186.4
795.6768	167.6844	7819.9	7236.6
795.8187	169.925	7750.75	7164.1
795.9606	172.1651	7573.25	6981.6
796.1025	174.4047	7376.3	6782.1
796.2445	176.6439	7178.25	6579.9
796.3864	178.8825	7051.05	6451.7
796.5284	181.1206	6962.5	6361.3
796.6704	183.3582	6881.1	6275.7
796.8124	185.5954	6840.3	6231.5
796.9544	187.832	6810.9	6197.2
797.0965	190.0681	6849.55	6234.15
797.2386	192.3037	6867.35	6249
797.3806	194.5388	6861.35	6241.55
797.5228	196.7734	6879.05	6256.1
797.6649	199.0075	6921.9	6300.35
797.807	201.2411	6993.1	6369.55
797.9492	203.4742	7067.25	6440.85
798.0914	205.7068	7182.55	6552.75
798.2336	207.9389	7277.55	6645.7
798.3758	210.1704	7341.8	6718.6
798.518	212.4015	7355.65	6741.9
798.6603	214.632	7368.6	6759.05
798.8025	216.862	7367.3	6758.3
798.9448	219.0915	7393.15	6783.6
799.0871	221.3205	7474.85	6863.7
799.2294	223.549	7514.1	6904.85
799.3718	225.777	7526.75	6914.05
799.5141	228.0044	7527.1	6907.05
799.6565	230.2314	7502.15	6881.8
799.7989	232.4578	7467.45	6843.25
799.9413	234.6837	7422.6	6790.8
800.0837	236.909	7338.5	6703.5
800.2262	239.1339	7310.75	6651.95
800.3687	241.3582	7253.55	6609.2
800.5111	243.582	7256.85	6583.55
800.6536	245.8053	7276.75	6612.5
800.7961	248.0281	7280.9	6624.3
800.9387	250.2503	7290.75	6632.05
801.0812	252.472	7323.7	6664.25
801.2238	254.6932	7363.7	6701.5
801.3664	256.9139	7356.2	6692.85
801.509	259.134	7380.95	6712.45
801.6516	261.3536	7450.15	6785.2
801.7942	263.5727	7577.95	6910.9
801.9369	265.7912	7715.95	7051.85
802.0795	268.0092	7940.05	7273.85
802.2222	270.2267	8196.95	7528.5
802.3649	272.4436	8425.9	7755.1
802.5076	274.6601	8581.05	7900.35
802.6504	276.8759	8657.9	7980.8
802.7931	279.0913	8754.9	8078.5
802.9359	281.3061	8829.5	8150.15
803.0787	283.5204	8945.65	8265.65
803.2215	285.7341	9040.4	8355.6
803.3643	287.9473	9157.2	8468.55
803.5071	290.16	9162.25	8474.25
803.6499	292.3721	9020.25	8339.75
803.7928	294.5837	8784.55	8102.55
803.9357	296.7947	8588.75	7906.1
804.0786	299.0052	8522.1	7836.3
804.2215	301.2152	8410.45	7722.95
804.3644	303.4246	8376.85	7690.3
804.5074	305.6334	8357.95	7671.7
804.6503	307.8418	8351.05	7659.5
804.7933	310.0495	8273.65	7582.4
804.9363	312.2568	8163.2	7473.4
805.0793	314.4635	7974.9	7280.3
805.2223	316.6696	7766.55	7071.9
805.3653	318.8752	7584.95	6880.65
805.5084	321.0802	7450.8	6755.6
805.6514	323.2847	7379.15	6678.9
805.7945	325.4887	7368.4	6667.45
805.9376	327.692	7413.35	6712.2
806.0807	329.8949	7563.6	6861.15
806.2238	332.0972	7769.8	7065.65
806.367	334.2989	7970.65	7261.15
806.5101	336.5001	8062.6	7353.8
806.6533	338.7007	7965.55	7258.75
806.7965	340.9008	7783.25	7073.2
806.9397	343.1003	7515.1	6801.65
807.0829	345.2992	7268.6	6556.2
807.2261	347.4976	7053.9	6336.75
807.3693	349.6955	6877.7	6160.6
807.5126	351.8927	6803.75	6085.8
807.6559	354.0895	6729.35	5998.7
807.7991	356.2856	6671.45	5949.1
807.9424	358.4812	6620.55	5897.3
808.0857	360.6763	6601.45	5877.15
808.2291	362.8707	6567	5840.05
808.3724	365.0646	6543.05	5813
808.5158	367.258	6547.75	5816.35
808.6591	369.4508	6613.9	5877.15
808.8025	371.643	6710.4	5976.9
808.9459	373.8346	6831.35	6096.65
809.0893	376.0257	6982.4	6242.5
809.2327	378.2162	7127.85	6390.5
809.3762	380.4062	7241.15	6503.65
809.5196	382.5956	7192.55	6456.55
809.6631	384.7844	7072.9	6340.2
809.8066	386.9726	6842.1	6108.9
809.9501	389.1603	6681.5	5950.55
810.0936	391.3474	6611.55	5838.3
810.2371	393.5339	6542.5	5808.5
810.3806	395.7199	6557.05	5824.65
810.5241	397.9052	6633.9	5900
810.6677	400.09	6783.1	6048.35
810.8113	402.2743	7008.55	6272.4
810.9548	404.4579	7177.75	6441.55
811.0984	406.641	7316.25	6577.35
811.2421	408.8235	7459.3	6715.8
811.3857	411.0054	7653.8	6911.2
811.5293	413.1868	7731.55	6984.55
811.673	415.3675	7773.75	7023.9
811.8166	417.5477	7749.2	7000.35
811.9603	419.7273	7669.75	6915.3
812.104	421.9064	7578.3	6818.5
812.2477	424.0848	7378.6	6623.45
812.3914	426.2627	7113.1	6357.8
812.5351	428.4399	6850.6	6094.65
812.6788	430.6166	6608.7	5847.65
812.8226	432.7928	6398.6	5636.55
812.9663	434.9683	6250.65	5487.9
813.1101	437.1432	6155.9	5389.95
813.2539	439.3176	6071.15	5307.75
813.3977	441.4914	5986.35	5224.25
813.5415	443.6645	5964.8	5200.9
813.6853	445.8371	5945.9	5181.25
813.8291	448.0091	5942.9	5178.85
813.973	450.1806	5946.2	5179.55
814.1168	452.3514	5919.1	5150.85
814.2607	454.5216	5930.6	5152.8
814.4046	456.6913	5937.4	5167.1
814.5485	458.8603	5971.05	5201.75
814.6924	461.0288	5982.95	5215.6
814.8363	463.1967	5970.35	5199.25
814.9802	465.3639	5972.4	5200.55
815.1241	467.5306	5952.45	5181.75
815.2681	469.6967	5889.15	5118.45
815.412	471.8622	5861.7	5089.6
815.556	474.0271	5878.5	5106.3
815.7	476.1914	5852.15	5077.7
815.844	478.3551	5837.2	5064.4
815.988	480.5182	5824.2	5048.75
816.132	482.6807	5833.75	5058.45
816.276	484.8426	5879.75	5102.7
816.4201	487.0039	6022	5246.15
816.5641	489.1647	6249.05	5469.35
816.7082	491.3248	6503.95	5725.55
816.8522	493.4843	6571.35	5794
816.9963	495.6432	6540.1	5760.5
817.1404	497.8015	6423.3	5637.9
817.2845	499.9592	6268.15	5488
817.4286	502.1163	6023.2	5241.75
817.5727	504.2728	5836.4	5053.3
817.7168	506.4287	5704.1	4921.5
817.861	508.5839	5621.85	4838.9
818.0051	510.7386	5594.8	4811.35
818.1493	512.8927	5590.25	4797.65
818.2935	515.0461	5584.75	4797.75
818.4377	517.199	5649.05	4862.85
818.5818	519.3512	5793.9	5005.55
818.726	521.5029	6071.35	5276.1
818.8703	523.6539	6400.65	5607.45
819.0145	525.8043	6511.85	5721.65
819.1587	527.9541	6359.6	5566.05
819.303	530.1033	6036.95	5245.75
819.4472	532.2519	5778.65	4985.55
819.5915	534.3999	5622.9	4827.4
819.7357	536.5472	5573.65	4780.5
819.88	538.694	5551.25	4758.05
820.0243	540.8401	5600.65	4804.15
820.1686	542.9856	5669.05	4874.1
820.3129	545.1305	5735.35	4938.1
820.4572	547.2748	5813.2	5017.1
820.6016	549.4185	5851.15	5053.7
820.7459	551.5615	5850.25	5051.9
820.8902	553.704	5892.9	5095.85
821.0346	555.8458	5988.45	5193.05
821.1789	557.987	6058.05	5263.7
821.3233	560.1276	6172.35	5377.3
821.4677	562.2675	6448.9	5652.45
821.6121	564.4069	6824.6	6029.1
821.7565	566.5456	7092.6	6294.55
821.9009	568.6837	7061.15	6261.9
822.0453	570.8212	6675.3	5876.1
822.1897	572.958	6227.85	5425.5
822.3342	575.0942	5881.8	5082
822.4786	577.2299	5691.25	4891.45
822.6231	579.3648	5595	4790.75
822.7675	581.4992	5534	4732.25
822.912	583.6329	5568.05	4765.25
823.0565	585.766	5675.7	4871.35
823.201	587.8985	5826.65	5021.6
823.3454	590.0304	6048.95	5230.3
823.4899	592.1616	6262.35	5455.25
823.6345	594.2922	6373.9	5566.75
823.779	596.4222	6293.5	5485.55
823.9235	598.5515	6060.4	5251.05
824.068	600.6802	5784	4976.75
824.2126	602.8083	5536.7	4726.55
824.3571	604.9358	5418.15	4607.5
824.5017	607.0626	5386.3	4576.15
824.6462	609.1888	5411	4598.85
824.7908	611.3144	5456.6	4645.9
824.9354	613.4393	5601.65	4788.4
825.08	615.5636	5844.15	5031.8
825.2246	617.6873	6086.95	5275.6
825.3692	619.8103	6251.05	5436.55
825.5138	621.9327	6315.1	5497.9
825.6584	624.0544	6245	5432.2
825.803	626.1756	5997.25	5186.8
825.9477	628.2961	5676.85	4860.1
826.0923	630.4159	5512.8	4698.15
826.237	632.5351	5443.25	4626.95
826.3816	634.6537	5434.5	4618
826.5263	636.7716	5421.25	4603.5
826.6709	638.8889	5383.1	4564.9
826.8156	641.0056	5418	4601.95
826.9603	643.1216	5473.2	4655
827.105	645.237	5552.7	4731.25
827.2497	647.3518	5485.3	4665.7
827.3944	649.4659	5356.2	4537.25
827.5391	651.5793	5219.85	4400.95
827.6838	653.6922	5167.35	4349.05
827.8285	655.8043	5093.7	4272.05
827.9733	657.9159	5028.6	4206.5
828.118	660.0268	4983.5	4158.05
828.2627	662.137	4968.6	4146.8
828.4075	664.2466	5004.05	4180.75
828.5522	666.3556	5005.2	4182.75
828.697	668.4639	4953.9	4128.1
828.8418	670.5716	4926.2	4100.65
828.9865	672.6786	4897.55	4070.2
829.1313	674.785	4872.25	4046.05
829.2761	676.8907	4845.2	4017.55
829.4209	678.9958	4837.75	4012.95
829.5657	681.1002	4845.75	4018.4
829.7105	683.204	4855.1	4024.45
829.8553	685.3072	4854.6	4025
830.0001	687.4097	4835.45	4007.1
830.1449	689.5115	4838.05	4008.95
830.2898	691.6127	4826.75	3999.9
830.4346	693.7132	4815.8	3989.9
830.5794	695.8131	4808.05	3964.85
830.7243	697.9123	4808.75	3977.55
830.8691	700.0109	4812.45	3981.9
831.014	702.1089	4859.55	4031.75
831.1588	704.2061	4914.7	4085
831.3037	706.3028	5020.7	4189.3
831.4486	708.3987	5134.85	4301.45
831.5935	710.4941	5217.25	4385.9
831.7383	712.5887	5252.9	4419.05
831.8832	714.6827	5229.25	4391.55
832.0281	716.7761	5183	4348.55
832.173	718.8688	5144.7	4308.45
832.3179	720.9608	5124.4	4287.85
832.4628	723.0522	5149.45	4311.85
832.6077	725.1429	5227.85	4392.85
832.7527	727.233	5324.95	4491.6
832.8976	729.3224	5561.15	4726.75
833.0425	731.4112	5850.25	5013.95
833.1874	733.4993	6014.05	5176.7
833.3324	735.5867	5909.25	5070.55
833.4773	737.6735	5573.6	4736.1
833.6222	739.7596	5244.95	4405.9
833.7672	741.845	5026.15	4187.9
833.9122	743.9298	4932.15	4093.05
834.0571	746.014	4872.2	4033.25
834.2021	748.0974	4901.7	4061.7
834.347	750.1802	4887.5	4048.55
834.492	752.2624	4893.8	4056.55
834.637	754.3439	4875.75	4034.45
834.782	756.4247	4891.6	4040.55
834.9269	758.5048	4931.15	4089.6
835.0719	760.5843	5019.1	4179.5
835.2169	762.6631	5130.35	4288.8
835.3619	764.7413	5344.45	4502.3
835.5069	766.8188	5692.75	4851.05
835.6519	768.8956	6094.3	5250.5
835.7969	770.9718	6432.3	5591
835.9419	773.0473	6449.55	5609.3
836.0869	775.1221	6292.95	5451.25
836.232	777.1962	6144.7	5302.5
836.377	779.2697	6312.65	5467.8
836.522	781.3426	6793.65	5933.7
836.667	783.4147	7223.25	6378.5
836.8121	785.4862	7373	6531.05
836.9571	787.557	7064.25	6219.5
837.1021	789.6271	6532.55	5687.85
837.2472	791.6966	5897.45	5054.25
837.3922	793.7654	5383.9	4538.2
837.5373	795.8335	5077.8	4233.45
837.6823	797.901	4887.65	4042.65
837.8274	799.9678	4808.4	3961.55
837.9724	802.0339	4805.1	3960.3
838.1175	804.0993	4831.8	3978.1
838.2626	806.1641	4833.6	3987.5
838.4076	808.2282	4789	3946.2
838.5527	810.2916	4714.5	3865.35
838.6978	812.3544	4628.3	3781.7
838.8428	814.4164	4574.55	3728.05
838.9879	816.4778	4586.35	3738.7
839.133	818.5385	4620.15	3772.6
839.2781	820.5986	4750.8	3902.45
839.4232	822.658	4969.6	4120.7
839.5682	824.7166	5250.45	4403.5
839.7133	826.7747	5609.9	4762.5
839.8584	828.832	5952.25	5105.25
840.0035	830.8886	6257.25	5406.15
840.1486	832.9446	6429.75	5578.25
840.2937	834.9999	6439.55	5591.25
840.4388	837.0545	6186.5	5332.9
840.5839	839.1085	5811.2	4960.1
840.729	841.1618	5399.55	4546.3
840.8741	843.2143	5114.25	4265.8
841.0192	845.2662	4929.2	4078.65
841.1643	847.3175	4827.3	3977.2
841.3095	849.368	4766.45	3916.15
841.4546	851.4179	4738.2	3886.75
841.5997	853.467	4724.05	3869.95
841.7448	855.5155	4767.65	3915.4
841.8899	857.5633	4779.55	3927.2
842.0351	859.6105	4786.9	3936.25
842.1802	861.6569	4752.45	3900.1
842.3253	863.7027	4691.35	3839.45
842.4704	865.7478	4599.55	3746.05
842.6156	867.7922	4551.15	3698.75
842.7607	869.8359	4504.5	3648.9
842.9058	871.8789	4461.25	3607.05
843.0509	873.9212	4483.45	3598.55
843.1961	875.9629	4463.75	3610.25
843.3412	878.0039	4507.6	3654.8
843.4863	880.0441	4571.25	3718
843.6315	882.0837	4659.25	3805.35
843.7766	884.1226	4736.5	3881.3
843.9218	886.1609	4873.15	4020.25
844.0669	888.1984	5091.05	4236.75
844.212	890.2352	5331.1	4475.8
844.3572	892.2714	5440.2	4583.3
844.5023	894.3069	5392.5	4537.75
844.6475	896.3416	5160.05	4304.6
844.7926	898.3757	4929.85	4073.8
844.9377	900.4091	4763.85	3908.25
845.0829	902.4418	4765.2	3906.45
845.228	904.4739	4841.1	3982.15
845.3732	906.5052	4970.2	4112.7
845.5183	908.5358	5033.25	4177.2
845.6635	910.5658	4966.35	4107.5
845.8086	912.595	4830.35	3973.05
845.9538	914.6236	4656.05	3800.2
846.0989	916.6515	4493.15	3637.1
846.2441	918.6786	4398.2	3539.8
846.3892	920.7051	4357.9	3497.5
846.5344	922.7309	4333	3474.6
846.6795	924.756	4326.25	3467.2
846.8246	926.7804	4371.5	3510.1
846.9698	928.8041	4412.75	3551.15
847.1149	930.8272	4501.55	3642.25
847.2601	932.8495	4550.85	3688.35
847.4052	934.8711	4593	3732.25
847.5504	936.892	4585.15	3726.25
847.6955	938.9123	4680	3819.1
847.8407	940.9318	4804.85	3943.35
847.9858	942.9506	4898.2	4037
848.131	944.9688	4931.4	4071.3
848.2761	946.9862	4831	3970.5
848.4213	949.003	4698.75	3839.95
848.5664	951.019	4576.1	3715.15
848.7115	953.0344	4496.3	3636.9
848.8567	955.0491	4420.15	3558.85
849.0018	957.063	4354.55	3494.5
849.147	959.0763	4349.2	3490.7
849.2921	961.0888	4324	3461.05
849.4373	963.1007	4345	3483.9
849.5824	965.1119	4305.65	3442.8
849.7275	967.1223	4257.6	3394.95
849.8727	969.1321	4223.1	3361.7
850.0178	971.1412	4193.95	3333.55
850.1629	973.1495	4189.45	3327.45
850.3081	975.1572	4220.45	3320.2
850.4532	977.1641	4205.55	3345.2
850.5983	979.1704	4213.05	3349.6
850.7435	981.1759	4211.3	3344.8
850.8886	983.1808	4187.4	3322.45
851.0337	985.1849	4139.95	3265.25
851.1788	987.1884	4101.05	3232.65
851.324	989.1911	4120.55	3254.55
851.4691	991.1932	4152.35	3288.4
851.6142	993.1945	4187.25	3324.75
851.7593	995.1951	4209.85	3348.3
851.9045	997.1951	4196.5	3325.5
852.0496	999.1943	4157.2	3294.05
852.1947	1001.1928	4160.15	3294.65
852.3398	1003.1906	4186.25	3319.4
852.4849	1005.1877	4286.15	3420.1
852.63	1007.1841	4417.25	3549.85
852.7751	1009.1798	4536.25	3671.55
852.9202	1011.1748	4525.95	3660.2
853.0653	1013.1691	4435.05	3569.1
853.2104	1015.1627	4277.7	3412.75
853.3555	1017.1556	4126.5	3259.9
853.5006	1019.1477	4029.55	3161.55
853.6457	1021.1392	3963.65	3099.6
853.7908	1023.1299	3917.5	3050.55
853.9359	1025.12	3903.45	3033.6
854.081	1027.1093	3934.2	3067.95
854.2261	1029.0979	4002.9	3139.1
854.3712	1031.0859	4105.9	3241.35
854.5163	1033.0731	4203.75	3336.65
854.6613	1035.0596	4200.25	3335.4
854.8064	1037.0454	4200.9	3331.6
854.9515	1039.0304	4156.6	3288.3
855.0965	1041.0148	4062.65	3194.8
855.2416	1042.9985	3975.25	3108.55
855.3867	1044.9814	3902.8	3036.55
855.5317	1046.9636	3857.85	2989.6
855.6768	1048.9452	3869.6	3005.05
855.8219	1050.926	3939.7	3074.15
855.9669	1052.9061	4019.9	3153.7
856.112	1054.8855	4097.1	3228.95
856.257	1056.8642	4110.05	3242.15
856.4021	1058.8421	4116.95	3244.4
856.5471	1060.8194	4084.35	3215.9
856.6921	1062.7959	4078.25	3210.6
856.8372	1064.7717	4061.2	3191.8
856.9822	1066.7469	4036.85	3166.4
857.1272	1068.7213	4054.65	3184.45
857.2723	1070.695	4098.55	3230.55
857.4173	1072.6679	4181.3	3312.45
857.5623	1074.6402	4315.95	3445.7
857.7073	1076.6117	4424.8	3549.2
857.8523	1078.5826	4404.95	3534.35
857.9973	1080.5527	4234.75	3363.1
858.1423	1082.5221	4064.6	3196.25
858.2873	1084.4908	3936.35	3068.7
858.4323	1086.4587	3822.65	2951.95
858.5773	1088.426	3763.7	2893.7
858.7223	1090.3925	3735.7	2861.2
858.8673	1092.3584	3746.25	2877.65
859.0123	1094.3235	3796	2927.6
859.1573	1096.2879	3861.35	2990.3
859.3022	1098.2515	3966.3	3097.3
859.4472	1100.2145	4070.7	3201.05
859.5922	1102.1767	4198.15	3327.4
859.7371	1104.1382	4355.05	3484.2
859.8821	1106.099	4600.95	3727.2
860.027	1108.0591	4835.8	3963.35
860.172	1110.0185	5042.7	4169.45
860.3169	1111.9771	5199.85	4329.85
860.4619	1113.9351	5376.25	4505.7
860.6068	1115.8923	5696.95	4826
860.7517	1117.8488	5974.05	5101.6
860.8967	1119.8045	5944.05	5072.3
861.0416	1121.7596	5592.35	4721
861.1865	1123.7139	5054.05	4183.2
861.3314	1125.6675	4658.9	3788.1
861.4763	1127.6204	4552.85	3680.85
861.6212	1129.5726	4616.95	3744.3
861.7661	1131.524	4711.8	3840.05
861.911	1133.4748	4610.65	3738.95
862.0559	1135.4248	4352.4	3478.9
862.2008	1137.3741	4095.05	3224.5
862.3457	1139.3226	3923.95	3050.65
862.4905	1141.2705	3864.15	2991.9
862.6354	1143.2176	3901.05	3021.75
862.7803	1145.164	3954.4	3081.45
862.9251	1147.1097	4013.95	3141.85
863.07	1149.0546	3971.4	3096.45
863.2148	1150.9989	3843.3	2970.25
863.3597	1152.9424	3730.05	2855.95
863.5045	1154.8852	3642	2767.1
863.6493	1156.8272	3600.5	2730
863.7942	1158.7686	3603.85	2724.45
863.939	1160.7092	3580.7	2707.25
864.0838	1162.6491	3597.7	2722.85
864.2286	1164.5883	3636.85	2763.9
864.3734	1166.5267	3696.95	2822.8
864.5182	1168.4644	3774.6	2903
864.663	1170.4014	3917.25	3038.4
864.8078	1172.3377	4064.35	3191.85
864.9526	1174.2732	4260.55	3387.7
865.0974	1176.2081	4562.55	3691.25
865.2421	1178.1421	5047.85	4171.35
865.3869	1180.0755	5646.7	4774.95
865.5317	1182.0082	6167.2	5292.95
865.6764	1183.9401	6367.35	5493.25
865.8212	1185.8713	6067.75	5193.85
865.9659	1187.8017	5511.55	4636.15
866.1106	1189.7315	4904.05	4031.75
866.2554	1191.6605	4499.7	3599.45
866.4001	1193.5888	4200.95	3329.85
866.5448	1195.5163	4027.75	3154.6
866.6895	1197.4432	3908.35	3030.65
866.8342	1199.3693	3822.7	2948.65
866.9789	1201.2947	3764.3	2882.55
867.1236	1203.2193	3688.5	2814.65
867.2683	1205.1432	3665.55	2791.95
867.413	1207.0664	3647.5	2771.65
867.5576	1208.9889	3641.8	2761.85
867.7023	1210.9106	3657.15	2783.65
867.847	1212.8316	3657.95	2784.4
867.9916	1214.7519	3709.45	2824.5
868.1363	1216.6715	3736.5	2863.1
868.2809	1218.5903	3810.75	2936.05
868.4255	1220.5084	3853.8	2979.5
868.5701	1222.4257	3918.5	3043.1
868.7148	1224.3424	3954.75	3081.45
868.8594	1226.2583	4021.3	3143
869.004	1228.1735	4141.85	3265.2
869.1486	1230.0879	4286.75	3411.4
869.2932	1232.0016	4455	3578.85
869.4377	1233.9146	4614.05	3734.9
869.5823	1235.8269	4717.05	3841.35
