Software Version:	3.9.2.0
Unit SN:	10000200
Spectrometer SN:	6960
Date:	3/8/2024 12:50:15 PM
Data Line Index:	25
Spectral Points:	2048
Integration time (ms):	125
Averages:	20
Delay (ms):	30000
Sequence Number:	1
Processing:	dark subtract
Laser Power (mW):	300
Laser Current (mA):	822
Laser Diode Temp (C):	25.1
Laser Case Temp (C):	26.1
System Temp (C):	26.1
Spectrometer Temp (C):	23.9
CCD Temp (C):	0.009
Secondary Temp (C):	20.011
Heatsink Temp (C):	20.45
CCDPCB Temp (C):	36.285
SecondaryPCB Temp (C):	30.571

Wavelength	RamanShift	Raw Counts	Dark Subtracted
787.061	30.1047	452.1	45.25
787.2016	32.3739	453.25	45.9
787.3422	34.6426	458.95	50.9
787.4828	36.9109	461.5	52.1
787.6235	39.1787	471.05	56.8
787.7642	41.4461	480.9	63.3
787.9049	43.7131	487.5	67.55
788.0456	45.9796	500.1	76
788.1863	48.2456	507.7	78.3
788.3271	50.5112	513.95	81.4
788.4679	52.7764	524.5	90.25
788.6087	55.0411	533.7	94.85
788.7496	57.3054	548	102.5
788.8904	59.5692	554.85	107.2
789.0313	61.8326	565.85	115.7
789.1722	64.0955	577.6	124.85
789.3132	66.3579	594.35	135.35
789.4541	68.6199	611.95	150.6
789.5951	70.8815	652	187.2
789.7361	73.1426	727.9	257.25
789.8771	75.4032	935.65	459.75
790.0181	77.6634	1446.8	966.2
790.1592	79.9231	2647.95	2161.55
790.3003	82.1824	5247.65	4744.35
790.4414	84.4412	9845.25	9317.75
790.5825	86.6995	16184.15	15622.75
790.7237	88.9574	22332.9	21745.7
790.8648	91.2148	26458.2	25845.45
791.006	93.4717	28264.35	27642.05
791.1472	95.7282	28459.5	27831.7
791.2885	97.9842	28132.3	27495.6
791.4297	100.2398	27346.2	26711.25
791.571	102.4949	26501.55	25864.05
791.7123	104.7495	25547.45	24906.75
791.8536	107.0036	24599.3	23955.75
791.9949	109.2573	23744.95	23105.85
792.1363	111.5105	22979.25	22336.85
792.2777	113.7632	22242.15	21595.2
792.4191	116.0154	21668.75	21010.75
792.5605	118.2672	21253.6	20599
792.7019	120.5185	20820.65	20166
792.8434	122.7693	20490.95	19836.35
792.9849	125.0197	20227.55	19568.1
793.1264	127.2696	19933.2	19268.75
793.2679	129.519	19701.45	19030.05
793.4094	131.7679	19439.75	18768.2
793.551	134.0163	19156.4	18483.95
793.6926	136.2642	18810.25	18137.8
793.8342	138.5117	18440.2	17756.8
793.9758	140.7587	18041.45	17365.85
794.1175	143.0052	17733.95	17052.75
794.2591	145.2512	17412.25	16728.55
794.4008	147.4967	17068.6	16388.2
794.5425	149.7417	16870.5	16183.75
794.6842	151.9863	16671.6	15984.15
794.826	154.2304	16567.9	15870.65
794.9677	156.4739	16359.3	15661.55
795.1095	158.717	16283.1	15582.85
795.2513	160.9596	16087.6	15381.8
795.3931	163.2017	15810.8	15107.3
795.535	165.4433	15509.8	14800.3
795.6768	167.6844	15166.8	14453.6
795.8187	169.925	14823.85	14113.45
795.9606	172.1651	14464.5	13748.85
796.1025	174.4047	14214.35	13497.85
796.2445	176.6439	13979.8	13262.65
796.3864	178.8825	13743.4	13022.1
796.5284	181.1206	13552.4	12828.15
796.6704	183.3582	13444.55	12712.3
796.8124	185.5954	13372.35	12638.25
796.9544	187.832	13262.4	12526.15
797.0965	190.0681	13231.8	12493.3
797.2386	192.3037	13224.5	12480.75
797.3806	194.5388	13207.8	12461.3
797.5228	196.7734	13272.65	12524.05
797.6649	199.0075	13329.65	12576.8
797.807	201.2411	13451.9	12701.15
797.9492	203.4742	13511.9	12759.35
798.0914	205.7068	13671.95	12920.25
798.2336	207.9389	13812.6	13055.75
798.3758	210.1704	13949.2	13196.9
798.518	212.4015	14055.75	13310.6
798.6603	214.632	14177.45	13440.15
798.8025	216.862	14368.6	13634.35
798.9448	219.0915	14479.65	13743.75
799.0871	221.3205	14579.2	13838.6
799.2294	223.549	14692.2	13957.55
799.3718	225.777	14814.1	14080.3
799.5141	228.0044	14939.05	14197.4
799.6565	230.2314	15126.6	14384.15
799.7989	232.4578	15311.95	14567.9
799.9413	234.6837	15430.8	14679
800.0837	236.909	15547.05	14788.25
800.2262	239.1339	15552.4	14769.3
800.3687	241.3582	15473.65	14705.35
800.5111	243.582	15313.65	14516.7
800.6536	245.8053	15183.2	14401.05
800.7961	248.0281	15101.1	14327.1
800.9387	250.2503	15058.55	14278.75
801.0812	252.472	15105.15	14317.5
801.2238	254.6932	15174.1	14392.95
801.3664	256.9139	15280.25	14497.45
801.509	259.134	15465.85	14676.75
801.6516	261.3536	15633.35	14844.35
801.7942	263.5727	15968.4	15177.25
801.9369	265.7912	16186.2	15400.4
802.0795	268.0092	16453.7	15665.4
802.2222	270.2267	16591.15	15802.8
802.3649	272.4436	16726.4	15935.7
802.5076	274.6601	16728.5	15929.5
802.6504	276.8759	16608.3	15811.95
802.7931	279.0913	16536.95	15742.65
802.9359	281.3061	16441.55	15640.8
803.0787	283.5204	16361.5	15556.9
803.2215	285.7341	16339.25	15531.95
803.3643	287.9473	16363.05	15548.3
803.5071	290.16	16491.55	15680.65
803.6499	292.3721	16548.9	15745.55
803.7928	294.5837	16847.9	16043.65
803.9357	296.7947	17048.15	16246.8
804.0786	299.0052	17230.25	16426.65
804.2215	301.2152	17204.05	16396.3
804.3644	303.4246	17014.5	16211.05
804.5074	305.6334	16628.25	15825.35
804.6503	307.8418	16213.2	15407.95
804.7933	310.0495	15739.35	14928.3
804.9363	312.2568	15345.15	14536.1
805.0793	314.4635	14972.45	14160.1
805.2223	316.6696	14675.75	13860
805.3653	318.8752	14512.15	13689.05
805.5084	321.0802	14441.65	13624.9
805.6514	323.2847	14466.1	13647.05
805.7945	325.4887	14503.25	13686.9
805.9376	327.692	14456.1	13638.75
806.0807	329.8949	14386.9	13563.15
806.2238	332.0972	14214.45	13392.95
806.367	334.2989	13991.7	13166.15
806.5101	336.5001	13746.6	12923.25
806.6533	338.7007	13519.1	12697.4
806.7965	340.9008	13346.1	12522
806.9397	343.1003	13201.15	12374.85
807.0829	345.2992	13118.7	12291.35
807.2261	347.4976	13012.65	12183.2
807.3693	349.6955	12947.25	12111.3
807.5126	351.8927	12932.4	12100.2
807.6559	354.0895	12850.5	12003.95
807.7991	356.2856	12860.3	12024.05
807.9424	358.4812	12777.15	11944.3
808.0857	360.6763	12791.25	11950.45
808.2291	362.8707	12773.5	11933.3
808.3724	365.0646	12827.55	11986.85
808.5158	367.258	12859.2	12017.85
808.6591	369.4508	12909.35	12063.25
808.8025	371.643	13049.15	12200.25
808.9459	373.8346	13121.1	12273.95
809.0893	376.0257	13233.15	12381.05
809.2327	378.2162	13243	12394.85
809.3762	380.4062	13204.05	12353.15
809.5196	382.5956	13083.75	12237.55
809.6631	384.7844	12966	12124.6
809.8066	386.9726	12828.3	11985.65
809.9501	389.1603	12752.45	11912.75
810.0936	391.3474	12726.05	11857.5
810.2371	393.5339	12678.7	11832.2
810.3806	395.7199	12623.7	11779.15
810.5241	397.9052	12682.75	11842.65
810.6677	400.09	12742.2	11902.05
810.8113	402.2743	12858.6	12016.6
810.9548	404.4579	13052.65	12209
811.0984	406.641	13267.35	12423.2
811.2421	408.8235	13417.25	12569.9
811.3857	411.0054	13618.85	12767.95
811.5293	413.1868	13828.8	12973.35
811.673	415.3675	13938.6	13080.45
811.8166	417.5477	13962.3	13107.3
811.9603	419.7273	13916.75	13057.4
812.104	421.9064	13825.25	12960.15
812.2477	424.0848	13751.4	12892.05
812.3914	426.2627	13598.45	12741.7
812.5351	428.4399	13383.55	12523.8
812.6788	430.6166	13023.7	12158.35
812.8226	432.7928	12679.7	11817.65
812.9663	434.9683	12374.55	11508.25
813.1101	437.1432	12161.9	11300.8
813.2539	439.3176	11971.85	11112.4
813.3977	441.4914	11862.45	11005.05
813.5415	443.6645	11815.8	10958.55
813.6853	445.8371	11761.55	10901.45
813.8291	448.0091	11739.45	10879.05
813.973	450.1806	11706	10840.1
814.1168	452.3514	11707.35	10846.15
814.2607	454.5216	11769.4	10897.3
814.4046	456.6913	11730.2	10865
814.5485	458.8603	11759.75	10899.8
814.6924	461.0288	11827.6	10969.8
814.8363	463.1967	11813.4	10956.7
814.9802	465.3639	11836.7	10974.55
815.1241	467.5306	11837.75	10975.4
815.2681	469.6967	11853.7	10993.8
815.412	471.8622	11896.65	11038.5
815.556	474.0271	11976.65	11113.5
815.7	476.1914	12015.55	11148.35
815.844	478.3551	12017.4	11154.25
815.988	480.5182	12059.9	11197.3
816.132	482.6807	12130.6	11270.4
816.276	484.8426	12307.45	11453.85
816.4201	487.0039	12660.15	11799.45
816.5641	489.1647	13037.2	12174.4
816.7082	491.3248	13403.75	12537.25
816.8522	493.4843	13504.9	12640.55
816.9963	495.6432	13487.2	12623.75
817.1404	497.8015	13317.6	12448.8
817.2845	499.9592	13222.8	12346.5
817.4286	502.1163	13066.05	12188.8
817.5727	504.2728	12736.15	11865.1
817.7168	506.4287	12457.75	11596.55
817.861	508.5839	12101.05	11237
818.0051	510.7386	11903.45	11035.55
818.1493	512.8927	11776.8	10896.35
818.2935	515.0461	11771.85	10897.95
818.4377	517.199	11812.55	10936.9
818.5818	519.3512	11996.3	11116.8
818.726	521.5029	12247.3	11367.2
818.8703	523.6539	12478.45	11601.15
819.0145	525.8043	12572.55	11697.35
819.1587	527.9541	12528.9	11649.45
819.303	530.1033	12365.15	11490.9
819.4472	532.2519	12238.7	11362.1
819.5915	534.3999	12174.9	11296.8
819.7357	536.5472	12282.7	11404.45
819.88	538.694	12526.25	11652.3
820.0243	540.8401	12827.9	11950.45
820.1686	542.9856	13081.65	12195.95
820.3129	545.1305	13160.1	12270.75
820.4572	547.2748	13083.35	12192.6
820.6016	549.4185	12841.25	11948.35
820.7459	551.5615	12691.75	11802.25
820.8902	553.704	12676.25	11786.05
821.0346	555.8458	12746.55	11861.1
821.1789	557.987	12885.75	12002
821.3233	560.1276	13087.25	12197.6
821.4677	562.2675	13442	12551.7
821.6121	564.4069	13928.6	13044
821.7565	566.5456	14329.65	13446.7
821.9009	568.6837	14448.4	13565.05
822.0453	570.8212	14057.35	13178.7
822.1897	572.958	13399.15	12509.6
822.3342	575.0942	12802.25	11918.3
822.4786	577.2299	12360.15	11479.7
822.6231	579.3648	12180.35	11309.1
822.7675	581.4992	12115.35	11248.3
822.912	583.6329	12230.75	11364.9
823.0565	585.766	12428.4	11556.85
823.201	587.8985	12580.85	11707.1
823.3454	590.0304	12648	11745.95
823.4899	592.1616	12571.6	11682.05
823.6345	594.2922	12467.55	11580.15
823.779	596.4222	12269.25	11377.3
823.9235	598.5515	12076.25	11182.5
824.068	600.6802	11892.2	11001.3
824.2126	602.8083	11718.45	10827.1
824.3571	604.9358	11722.2	10828.55
824.5017	607.0626	11713.55	10818.9
824.6462	609.1888	11818.75	10920.75
824.7908	611.3144	11932.45	11035.4
824.9354	613.4393	12048.6	11149.35
825.08	615.5636	12140.25	11242.1
825.2246	617.6873	12130.45	11232.25
825.3692	619.8103	12069.8	11174.3
825.5138	621.9327	11857.65	10961.95
825.6584	624.0544	11679.15	10788.15
825.803	626.1756	11503.2	10611.35
825.9477	628.2961	11361.95	10467.15
826.0923	630.4159	11289.9	10392.8
826.237	632.5351	11253.25	10358.65
826.3816	634.6537	11248.35	10351.5
826.5263	636.7716	11236.35	10333.8
826.6709	638.8889	11253.25	10351.05
826.8156	641.0056	11300.6	10397.35
826.9603	643.1216	11252.7	10351.6
827.105	645.237	11229.2	10327.55
827.2497	647.3518	11156.95	10261.55
827.3944	649.4659	11102.45	10211.4
827.5391	651.5793	11024.35	10132.25
827.6838	653.6922	10987.1	10095
827.8285	655.8043	11000.2	10104.7
827.9733	657.9159	10985.15	10089.25
828.118	660.0268	10964.2	10067.35
828.2627	662.137	10988.7	10088.8
828.4075	664.2466	10972.85	10074.15
828.5522	666.3556	10959.6	10057.5
828.697	668.4639	10926	10024.25
828.8418	670.5716	10889.1	9993.7
828.9865	672.6786	10877.25	9975.65
829.1313	674.785	10851.55	9943.65
829.2761	676.8907	10810.25	9910.15
829.4209	678.9958	10836.55	9941.5
829.5657	681.1002	10816.55	9912.05
829.7105	683.204	10798.35	9889.5
829.8553	685.3072	10786.35	9879.8
830.0001	687.4097	10751.45	9847.3
830.1449	689.5115	10736.55	9829.7
830.2898	691.6127	10735.55	9834.9
830.4346	693.7132	10717.45	9817.65
830.5794	695.8131	10727.05	9807.35
830.7243	697.9123	10755.3	9849.25
830.8691	700.0109	10753.85	9845.2
831.014	702.1089	10783.15	9876.15
831.1588	704.2061	10825.85	9919.15
831.3037	706.3028	10889.75	9975.4
831.4486	708.3987	10929	10022.05
831.5935	710.4941	10956.7	10048.7
831.7383	712.5887	11046.1	10141.7
831.8832	714.6827	11142.4	10232.7
832.0281	716.7761	11327.85	10422.7
832.173	718.8688	11502.3	10593.15
832.3179	720.9608	11650.75	10736.65
832.4628	723.0522	11785.7	10869.95
832.6077	725.1429	11809.35	10899.9
832.7527	727.233	11844.75	10933.35
832.8976	729.3224	11857.3	10947.4
833.0425	731.4112	11803.9	10891.4
833.1874	733.4993	11618	10706.75
833.3324	735.5867	11397.45	10489
833.4773	737.6735	11195.25	10285.05
833.6222	739.7596	11012.85	10098.75
833.7672	741.845	10907.55	9994.1
833.9122	743.9298	10810.6	9898.35
834.0571	746.014	10792.8	9882.3
834.2021	748.0974	10782.25	9866.35
834.347	750.1802	10773.45	9860.1
834.492	752.2624	10802.15	9885.75
834.637	754.3439	10834.65	9919.05
834.782	756.4247	10945.05	10023.85
834.9269	758.5048	11117.4	10204.1
835.0719	760.5843	11414.25	10498.15
835.2169	762.6631	11851.45	10935.3
835.3619	764.7413	12424.15	11507.6
835.5069	766.8188	13108.8	12189.85
835.6519	768.8956	13684.6	12770
835.7969	770.9718	14075.7	13162.3
835.9419	773.0473	13995.9	13077.1
836.0869	775.1221	13704.05	12789.6
836.232	777.1962	13439.75	12524.6
836.377	779.2697	13326.95	12408.15
836.522	781.3426	13400.4	12474.95
836.667	783.4147	13481.8	12563.35
836.8121	785.4862	13592.7	12677.1
836.9571	787.557	13438.7	12519.5
837.1021	789.6271	12994.4	12076.85
837.2472	791.6966	12372.25	11453.6
837.3922	793.7654	11760.9	10841.95
837.5373	795.8335	11340.65	10422.75
837.6823	797.901	11045.2	10124.35
837.8274	799.9678	10880.15	9958.65
837.9724	802.0339	10803.35	9885
838.1175	804.0993	10769.8	9841.6
838.2626	806.1641	10696.75	9775.75
838.4076	808.2282	10625.95	9707.25
838.5527	810.2916	10565.55	9642.2
838.6978	812.3544	10478.15	9560.6
838.8428	814.4164	10415.25	9498.25
838.9879	816.4778	10467.8	9543.25
839.133	818.5385	10486.55	9564.05
839.2781	820.5986	10663.7	9744.2
839.4232	822.658	10874.05	9951.85
839.5682	824.7166	11201.45	10283.45
839.7133	826.7747	11693.4	10770.9
839.8584	828.832	12220.35	11298.55
840.0035	830.8886	12561.5	11638.8
840.1486	832.9446	12756.3	11832.05
840.2937	834.9999	12631.25	11710.8
840.4388	837.0545	12352.5	11428.75
840.5839	839.1085	12043.3	11119.45
840.729	841.1618	11753.05	10829.3
840.8741	843.2143	11504.65	10582.85
841.0192	845.2662	11303.75	10384
841.1643	847.3175	11190.2	10268.55
841.3095	849.368	11062.9	10137.8
841.4546	851.4179	10983.95	10062.1
841.5997	853.467	10863.4	9939.8
841.7448	855.5155	10787.8	9864.5
841.8899	857.5633	10720.8	9795.95
842.0351	859.6105	10587.7	9667.35
842.1802	861.6569	10537.4	9613.55
842.3253	863.7027	10484	9554.6
842.4704	865.7478	10426.2	9499.85
842.6156	867.7922	10417.75	9491.35
842.7607	869.8359	10382.8	9455.95
842.9058	871.8789	10435.8	9510.4
843.0509	873.9212	10536.8	9579.9
843.1961	875.9629	10602.2	9677.45
843.3412	878.0039	10713.6	9789.4
843.4863	880.0441	10828.9	9905.9
843.6315	882.0837	10867.4	9940.9
843.7766	884.1226	10883.6	9957.25
843.9218	886.1609	10906.3	9981.5
844.0669	888.1984	11022.5	10096.75
844.212	890.2352	11121.95	10196.95
844.3572	892.2714	11151.5	10222.25
844.5023	894.3069	11098.7	10173
844.6475	896.3416	10916.75	9994.6
844.7926	898.3757	10786.9	9865.6
844.9377	900.4091	10711	9782.75
845.0829	902.4418	10716.4	9785.85
845.228	904.4739	10759.6	9828.85
845.3732	906.5052	10790.35	9862.1
845.5183	908.5358	10751.95	9825.85
845.6635	910.5658	10597.6	9671
845.8086	912.595	10407.45	9479.6
845.9538	914.6236	10200.95	9271.35
846.0989	916.6515	10068.85	9141.9
846.2441	918.6786	9979.55	9048.65
846.3892	920.7051	10000.75	9072.35
846.5344	922.7309	10053.55	9124.55
846.6795	924.756	10081.9	9155.45
846.8246	926.7804	10152.15	9223.3
846.9698	928.8041	10135.85	9210.2
847.1149	930.8272	10224.7	9295.8
847.2601	932.8495	10185.3	9256.75
847.4052	934.8711	10151.45	9222
847.5504	936.892	10083.55	9155.8
847.6955	938.9123	10094.3	9165.15
847.8407	940.9318	10086.15	9154.25
847.9858	942.9506	10074.55	9149.55
848.131	944.9688	10019.05	9088.05
848.2761	946.9862	9931.35	9002.45
848.4213	949.003	9793.35	8865.9
848.5664	951.019	9703.7	8776.45
848.7115	953.0344	9633.55	8706.85
848.8567	955.0491	9655	8725.55
849.0018	957.063	9689.25	8761.95
849.147	959.0763	9759.15	8828.85
849.2921	961.0888	9808.35	8876.75
849.4373	963.1007	9861.05	8936.25
849.5824	965.1119	9874	8951
849.7275	967.1223	9883.8	8966.25
849.8727	969.1321	9860.3	8944.45
850.0178	971.1412	9856.85	8937.3
850.1629	973.1495	9860.25	8934.25
850.3081	975.1572	9917.9	8944.3
850.4532	977.1641	9897.6	8970.2
850.5983	979.1704	9866.65	8938.75
850.7435	981.1759	9849.9	8916.2
850.8886	983.1808	9861.6	8930.75
851.0337	985.1849	9898.1	8959.55
851.1788	987.1884	9957.85	9027.3
851.324	989.1911	10055.05	9124.85
851.4691	991.1932	10110.35	9181.85
851.6142	993.1945	10155.95	9230.7
851.7593	995.1951	10134.9	9204.2
851.9045	997.1951	10088.45	9152.45
852.0496	999.1943	10079.05	9151.35
852.1947	1001.1928	10052.6	9121.15
852.3398	1003.1906	10110.6	9181.05
852.4849	1005.1877	10211.2	9282.1
852.63	1007.1841	10289.1	9361
852.7751	1009.1798	10305.6	9375.8
852.9202	1011.1748	10224.05	9295.8
853.0653	1013.1691	10050.8	9122.35
853.2104	1015.1627	9853.65	8924.7
853.3555	1017.1556	9639.3	8713.35
853.5006	1019.1477	9512.05	8586.8
853.6457	1021.1392	9426.7	8505.4
853.7908	1023.1299	9382.05	8464.15
853.9359	1025.12	9378.1	8460.3
854.081	1027.1093	9451	8544.6
854.2261	1029.0979	9546.4	8641.15
854.3712	1031.0859	9665.35	8754.9
854.5163	1033.0731	9712.75	8795.35
854.6613	1035.0596	9661.75	8741.7
854.8064	1037.0454	9553.85	8629.5
854.9515	1039.0304	9462.75	8540
855.0965	1041.0148	9321.45	8396.25
855.2416	1042.9985	9246.75	8316
855.3867	1044.9814	9189.35	8263.05
855.5317	1046.9636	9133.55	8205
855.6768	1048.9452	9120.15	8194.75
855.8219	1050.926	9152.25	8227.6
855.9669	1052.9061	9208.7	8283.6
856.112	1054.8855	9220.55	8293.3
856.257	1056.8642	9240.75	8311.45
856.4021	1058.8421	9293.35	8364.65
856.5471	1060.8194	9329.65	8402.25
856.6921	1062.7959	9396.35	8469.05
856.8372	1064.7717	9438.45	8509.15
856.9822	1066.7469	9501.55	8569.8
857.1272	1068.7213	9588.15	8657.95
857.2723	1070.695	9648.05	8722.3
857.4173	1072.6679	9684.1	8754.4
857.5623	1074.6402	9686.85	8758.95
857.7073	1076.6117	9662.95	8729
857.8523	1078.5826	9562	8635.75
857.9973	1080.5527	9427.15	8497.05
858.1423	1082.5221	9362.7	8437.55
858.2873	1084.4908	9372.55	8443.55
858.4323	1086.4587	9404.2	8475.95
858.5773	1088.426	9463.95	8537.05
858.7223	1090.3925	9468.35	8536.75
858.8673	1092.3584	9494.7	8571
859.0123	1094.3235	9468.35	8541.95
859.1573	1096.2879	9570.7	8642.65
859.3022	1098.2515	9653.8	8727.3
859.4472	1100.2145	9844.75	8918.35
859.5922	1102.1767	10023.8	9095
859.7371	1104.1382	10251.45	9323.5
859.8821	1106.099	10518.15	9588.95
860.027	1108.0591	10700.45	9771.6
860.172	1110.0185	10868.1	9940.15
860.3169	1111.9771	10934.25	10008.65
860.4619	1113.9351	10851.1	9924.45
860.6068	1115.8923	10710.1	9783.05
860.7517	1117.8488	10533.85	9605.1
860.8967	1119.8045	10353.75	9428.35
861.0416	1121.7596	10212.25	9286.15
861.1865	1123.7139	10093.15	9166.5
861.3314	1125.6675	10040.4	9116.45
861.4763	1127.6204	10070.75	9142.5
861.6212	1129.5726	10011.45	9082.95
861.7661	1131.524	9944.25	9015.75
861.911	1133.4748	9813.7	8884.65
862.0559	1135.4248	9646.1	8720.2
862.2008	1137.3741	9512.3	8587.15
862.3457	1139.3226	9390.8	8462.7
862.4905	1141.2705	9324.75	8397.95
862.6354	1143.2176	9248.9	8318.75
862.7803	1145.164	9228.75	8299.4
862.9251	1147.1097	9169.3	8241.65
863.07	1149.0546	9054.5	8127.5
863.2148	1150.9989	8960.35	8031.85
863.3597	1152.9424	8869.3	7942.65
863.5045	1154.8852	8798.45	7868.75
863.6493	1156.8272	8754.5	7823.65
863.7942	1158.7686	8756.6	7822.25
863.939	1160.7092	8757.65	7832.2
864.0838	1162.6491	8793.1	7863.9
864.2286	1164.5883	8899.7	7972.45
864.3734	1166.5267	9020.9	8094.45
864.5182	1168.4644	9171.15	8245.25
864.663	1170.4014	9374.05	8444.15
864.8078	1172.3377	9658.05	8734.5
864.9526	1174.2732	9958.2	9033.9
865.0974	1176.2081	10366.2	9440.95
865.2421	1178.1421	10840.25	9910.55
865.3869	1180.0755	11347.45	10421.2
865.5317	1182.0082	11719.25	10795.75
865.6764	1183.9401	11858	10933.15
865.8212	1185.8713	11719.2	10797.75
865.9659	1187.8017	11394.8	10477.1
866.1106	1189.7315	11015.6	10104.05
866.2554	1191.6605	10590.55	9678.95
866.4001	1193.5888	10320.1	9406.2
