Software Version:	3.9.2.0
Unit SN:	10000200
Spectrometer SN:	6960
Date:	3/8/2024 11:27:47 AM
Data Line Index:	25
Spectral Points:	2048
Integration time (ms):	125
Averages:	20
Delay (ms):	30000
Sequence Number:	1
Processing:	dark subtract
Laser Power (mW):	305
Laser Current (mA):	822
Laser Diode Temp (C):	25
Laser Case Temp (C):	25
System Temp (C):	25
Spectrometer Temp (C):	22.8
CCD Temp (C):	0.002
Secondary Temp (C):	20.004
Heatsink Temp (C):	19.359
CCDPCB Temp (C):	32.439
SecondaryPCB Temp (C):	26.758

Wavelength	RamanShift	Raw Counts	Dark Subtracted
787.061	30.1047	415.45	5.8
787.2016	32.3739	414.15	7.1
787.3422	34.6426	414.95	6.35
787.4828	36.9109	416.85	7.7
787.6235	39.1787	420.75	5.8
787.7642	41.4461	426.8	6.95
787.9049	43.7131	430.6	8.2
788.0456	45.9796	432.5	8.4
788.1863	48.2456	437.5	9.95
788.3271	50.5112	442.3	11.2
788.4679	52.7764	446	9.3
788.6087	55.0411	451.75	10.6
788.7496	57.3054	456.25	11.9
788.8904	59.5692	460.75	12.15
789.0313	61.8326	462.05	13.6
789.1722	64.0955	467.15	15.85
789.3132	66.3579	475.85	18.9
789.4541	68.6199	477.7	16.25
789.5951	70.8815	491.4	25.6
789.7361	73.1426	506.9	37.9
789.8771	75.4032	540.45	66.3
790.0181	77.6634	610.4	134.7
790.1592	79.9231	771.95	290.55
790.3003	82.1824	1113.25	624.85
790.4414	84.4412	1660.35	1153.7
790.5825	86.6995	2372.2	1845.25
790.7237	88.9574	3027.1	2484.9
790.8648	91.2148	3490.1	2939
791.006	93.4717	3673.2	3116.6
791.1472	95.7282	3706.3	3145.1
791.2885	97.9842	3693	3131.7
791.4297	100.2398	3641.65	3074.75
791.571	102.4949	3595.5	3024.8
791.7123	104.7495	3556.7	2982.15
791.8536	107.0036	3526.35	2951.45
791.9949	109.2573	3464.55	2889.5
792.1363	111.5105	3389.35	2815.3
792.2777	113.7632	3293.4	2715.9
792.4191	116.0154	3225.85	2639.3
792.5605	118.2672	3125.1	2540.7
792.7019	120.5185	3026.7	2439
792.8434	122.7693	2937.05	2348.4
792.9849	125.0197	2862.4	2268.2
793.1264	127.2696	2777.2	2182.3
793.2679	129.519	2742.3	2140.35
793.4094	131.7679	2701.3	2102.3
793.551	134.0163	2678.75	2073.8
793.6926	136.2642	2683	2075.3
793.8342	138.5117	2681.3	2070.8
793.9758	140.7587	2656	2046.1
794.1175	143.0052	2611.3	1997.4
794.2591	145.2512	2564.95	1945.5
794.4008	147.4967	2510.8	1895.65
794.5425	149.7417	2464.9	1845.9
794.6842	151.9863	2450.7	1829.5
794.826	154.2304	2445.25	1816.75
794.9677	156.4739	2425.15	1792.55
795.1095	158.717	2445.5	1812.1
795.2513	160.9596	2481.55	1843.65
795.3931	163.2017	2498.6	1859.55
795.535	165.4433	2506	1867
795.6768	167.6844	2511.8	1865.55
795.8187	169.925	2486.65	1842.35
795.9606	172.1651	2442.85	1794.85
796.1025	174.4047	2396.6	1742.35
796.2445	176.6439	2352.6	1697.75
796.3864	178.8825	2324.35	1666.55
796.5284	181.1206	2310.45	1648.7
796.6704	183.3582	2306.8	1642.3
796.8124	185.5954	2301.3	1635.1
796.9544	187.832	2299.8	1628.9
797.0965	190.0681	2307.1	1629.95
797.2386	192.3037	2313.3	1633.5
797.3806	194.5388	2306.7	1628.65
797.5228	196.7734	2320.85	1641.95
797.6649	199.0075	2338.35	1655.6
797.807	201.2411	2357.25	1674.9
797.9492	203.4742	2373.8	1687.95
798.0914	205.7068	2409.4	1718.2
798.2336	207.9389	2428.5	1738.05
798.3758	210.1704	2437.5	1753.45
798.518	212.4015	2432.75	1759.85
798.6603	214.632	2441.75	1774.5
798.8025	216.862	2432.5	1763.15
798.9448	219.0915	2440.35	1770.1
799.0871	221.3205	2468.7	1796.6
799.2294	223.549	2454.55	1788.8
799.3718	225.777	2465.45	1796.7
799.5141	228.0044	2468	1790
799.6565	230.2314	2463.9	1786.45
799.7989	232.4578	2451.2	1770.15
799.9413	234.6837	2434.15	1742.55
800.0837	236.909	2424.95	1732.7
800.2262	239.1339	2440.75	1721.95
800.3687	241.3582	2424.9	1725.35
800.5111	243.582	2439.35	1707.4
800.6536	245.8053	2449.35	1729.35
800.7961	248.0281	2439.05	1721.2
800.9387	250.2503	2431.6	1713.05
801.0812	252.472	2464.4	1745.85
801.2238	254.6932	2460.5	1738.25
801.3664	256.9139	2470.15	1749.45
801.509	259.134	2479.3	1757.9
801.6516	261.3536	2502	1785.9
801.7942	263.5727	2543.05	1818.15
801.9369	265.7912	2589.6	1866.2
802.0795	268.0092	2633.05	1911.75
802.2222	270.2267	2689.8	1964.95
802.3649	272.4436	2731.65	2002.7
802.5076	274.6601	2770.9	2032.3
802.6504	276.8759	2797.95	2065.35
802.7931	279.0913	2812.75	2079.8
802.9359	281.3061	2838.25	2104.9
803.0787	283.5204	2848.1	2108.55
803.2215	285.7341	2872	2133.15
803.3643	287.9473	2891.95	2149.5
803.5071	290.16	2894.8	2147.55
803.6499	292.3721	2857.55	2119.25
803.7928	294.5837	2821.15	2081.15
803.9357	296.7947	2781.65	2040.55
804.0786	299.0052	2778.7	2039
804.2215	301.2152	2755.15	2012.75
804.3644	303.4246	2746.05	2003.95
804.5074	305.6334	2729.3	1989.3
804.6503	307.8418	2715.25	1971.85
804.7933	310.0495	2696.95	1951.25
804.9363	312.2568	2667.3	1918.8
805.0793	314.4635	2626.1	1874.95
805.2223	316.6696	2574.9	1823.6
805.3653	318.8752	2530.35	1770.9
805.5084	321.0802	2512.35	1760.3
805.6514	323.2847	2500.5	1745.2
805.7945	325.4887	2501	1744.1
805.9376	327.692	2512.6	1756.2
806.0807	329.8949	2565.85	1809.45
806.2238	332.0972	2606.95	1848.75
806.367	334.2989	2633	1870.2
806.5101	336.5001	2635.6	1870.6
806.6533	338.7007	2616.1	1850.15
806.7965	340.9008	2564.3	1799.85
806.9397	343.1003	2499	1731.4
807.0829	345.2992	2459.85	1695.1
807.2261	347.4976	2415.3	1645.55
807.3693	349.6955	2393.55	1619.2
807.5126	351.8927	2385.35	1609.45
807.6559	354.0895	2370.8	1586.45
807.7991	356.2856	2356.45	1581.35
807.9424	358.4812	2337.8	1561.05
808.0857	360.6763	2332.85	1556.9
808.2291	362.8707	2331	1552.5
808.3724	365.0646	2341.1	1557.3
808.5158	367.258	2351.65	1566.15
808.6591	369.4508	2363.3	1578.8
808.8025	371.643	2389.1	1600.8
808.9459	373.8346	2416.45	1628.45
809.0893	376.0257	2461	1668.5
809.2327	378.2162	2472.4	1684.15
809.3762	380.4062	2486.65	1693.45
809.5196	382.5956	2467.05	1679.05
809.6631	384.7844	2431.1	1645.85
809.8066	386.9726	2381.95	1595.65
809.9501	389.1603	2359.4	1575.5
810.0936	391.3474	2372.75	1559.05
810.2371	393.5339	2347.75	1561.85
810.3806	395.7199	2328.6	1547.9
810.5241	397.9052	2364.95	1581.5
810.6677	400.09	2402	1617.5
810.8113	402.2743	2441.65	1652.75
810.9548	404.4579	2490.2	1704.05
811.0984	406.641	2527.6	1738.9
811.2421	408.8235	2574.9	1785.55
811.3857	411.0054	2616.65	1823.55
811.5293	413.1868	2686.95	1891.45
811.673	415.3675	2724.2	1922.15
811.8166	417.5477	2743.4	1944.2
811.9603	419.7273	2683.95	1881.05
812.104	421.9064	2602.7	1791.6
812.2477	424.0848	2538.9	1734.05
812.3914	426.2627	2480.5	1676.7
812.5351	428.4399	2414.1	1609.1
812.6788	430.6166	2363.65	1553.95
812.8226	432.7928	2317	1506.7
812.9663	434.9683	2280.65	1470.6
813.1101	437.1432	2254.1	1442.65
813.2539	439.3176	2227.5	1423.35
813.3977	441.4914	2209.9	1404.15
813.5415	443.6645	2217.85	1408.45
813.6853	445.8371	2209.95	1400.35
813.8291	448.0091	2225.75	1413.55
813.973	450.1806	2221.55	1412.6
814.1168	452.3514	2212.7	1400.9
814.2607	454.5216	2215.4	1393.5
814.4046	456.6913	2212.4	1398.25
814.5485	458.8603	2214.65	1399.35
814.6924	461.0288	2230	1421.3
814.8363	463.1967	2209.05	1396.25
814.9802	465.3639	2213.45	1400.3
815.1241	467.5306	2207.4	1393.35
815.2681	469.6967	2208.7	1394.55
815.412	471.8622	2184.7	1372.7
815.556	474.0271	2188.15	1374.85
815.7	476.1914	2190.85	1375.55
815.844	478.3551	2181.75	1363.55
815.988	480.5182	2193.15	1375.55
816.132	482.6807	2188.9	1372.35
816.276	484.8426	2215.05	1403.2
816.4201	487.0039	2250.45	1434.7
816.5641	489.1647	2295.95	1474.2
816.7082	491.3248	2345.4	1528
816.8522	493.4843	2355.25	1539.5
816.9963	495.6432	2346.9	1529
817.1404	497.8015	2324.85	1498.9
817.2845	499.9592	2268.1	1441.6
817.4286	502.1163	2229.4	1404.25
817.5727	504.2728	2178.65	1355.75
817.7168	506.4287	2149.35	1329.7
817.861	508.5839	2134.35	1312.45
818.0051	510.7386	2138.1	1315.35
818.1493	512.8927	2146.6	1313.5
818.2935	515.0461	2157.9	1332
818.4377	517.199	2163.35	1338.5
818.5818	519.3512	2209.35	1380.25
818.726	521.5029	2277.45	1442.05
818.8703	523.6539	2332.6	1504.45
819.0145	525.8043	2338.6	1507.55
819.1587	527.9541	2285.95	1451.7
819.303	530.1033	2224.65	1392.6
819.4472	532.2519	2159.95	1328.7
819.5915	534.3999	2152.3	1319.2
819.7357	536.5472	2144.95	1311.95
819.88	538.694	2144.6	1312.8
820.0243	540.8401	2155.5	1326.3
820.1686	542.9856	2174.65	1336.65
820.3129	545.1305	2184.75	1342.25
820.4572	547.2748	2201.5	1360.55
820.6016	549.4185	2212.25	1367.9
820.7459	551.5615	2214.9	1371.35
820.8902	553.704	2227.1	1387.5
821.0346	555.8458	2248.05	1408.9
821.1789	557.987	2268.9	1431.1
821.3233	560.1276	2293.3	1453
821.4677	562.2675	2348.2	1507.45
821.6121	564.4069	2410.25	1570.7
821.7565	566.5456	2450.75	1614.55
821.9009	568.6837	2440.1	1600.55
822.0453	570.8212	2360.7	1523.7
822.1897	572.958	2294.65	1457.05
822.3342	575.0942	2224.9	1388.7
822.4786	577.2299	2193.4	1356.15
822.6231	579.3648	2164.3	1329.4
822.7675	581.4992	2141.2	1310.5
822.912	583.6329	2149.6	1319.35
823.0565	585.766	2183.2	1352.8
823.201	587.8985	2215.7	1380.95
823.3454	590.0304	2282.4	1428.8
823.4899	592.1616	2309.1	1464.25
823.6345	594.2922	2304.65	1460.45
823.779	596.4222	2278.65	1431.95
823.9235	598.5515	2214.05	1365.7
824.068	600.6802	2155.25	1308.95
824.2126	602.8083	2107.2	1260.95
824.3571	604.9358	2102.5	1257.35
824.5017	607.0626	2105.25	1259.95
824.6462	609.1888	2109.2	1259.25
824.7908	611.3144	2127.75	1277.65
824.9354	613.4393	2158.35	1307.95
825.08	615.5636	2220.4	1370.4
825.2246	617.6873	2263.5	1412.2
825.3692	619.8103	2301.75	1452.6
825.5138	621.9327	2297.3	1445.15
825.6584	624.0544	2259	1409.4
825.803	626.1756	2197.65	1347.9
825.9477	628.2961	2154.55	1303.8
826.0923	630.4159	2132.85	1280.8
826.237	632.5351	2135.15	1285.2
826.3816	634.6537	2106.3	1253.2
826.5263	636.7716	2095.45	1239.3
826.6709	638.8889	2101.8	1245.8
826.8156	641.0056	2116.4	1261.2
826.9603	643.1216	2113.85	1256.4
827.105	645.237	2119.55	1262.15
827.2497	647.3518	2098.85	1247.15
827.3944	649.4659	2069.35	1216.75
827.5391	651.5793	2055.65	1202.85
827.6838	653.6922	2042.75	1189.85
827.8285	655.8043	2035.85	1181.2
827.9733	657.9159	2020.5	1166.05
828.118	660.0268	2014.05	1157.4
828.2627	662.137	2007.95	1149.6
828.4075	664.2466	2015.05	1155.55
828.5522	666.3556	2010.6	1152.5
828.697	668.4639	2010.85	1153.2
828.8418	670.5716	2002.1	1146.65
828.9865	672.6786	1999.35	1139.45
829.1313	674.785	1991.85	1130.4
829.2761	676.8907	1980.7	1121.9
829.4209	678.9958	1978.9	1121.5
829.5657	681.1002	1986.8	1125.9
829.7105	683.204	1980.6	1114.1
829.8553	685.3072	1973.6	1111.5
830.0001	687.4097	1979.6	1118.4
830.1449	689.5115	1985.65	1121.6
830.2898	691.6127	1981.1	1123.85
830.4346	693.7132	1965.05	1104.85
830.5794	695.8131	1983.55	1109.6
830.7243	697.9123	1971.75	1108.75
830.8691	700.0109	1979.7	1116
831.014	702.1089	1991.15	1126.6
831.1588	704.2061	2001.05	1133.1
831.3037	706.3028	2022.95	1156.3
831.4486	708.3987	2047.3	1180.85
831.5935	710.4941	2053.15	1189.15
831.7383	712.5887	2063.65	1197.75
831.8832	714.6827	2069.35	1202.65
832.0281	716.7761	2044.5	1181.5
832.173	718.8688	2049.35	1182.65
832.3179	720.9608	2050.25	1178.95
832.4628	723.0522	2069.95	1198.9
832.6077	725.1429	2090.35	1220.55
832.7527	727.233	2117.65	1250.65
832.8976	729.3224	2175.35	1306.75
833.0425	731.4112	2224.4	1354.85
833.1874	733.4993	2252.85	1380.2
833.3324	735.5867	2206.9	1336.95
833.4773	737.6735	2134.25	1261.9
833.6222	739.7596	2081.65	1210.7
833.7672	741.845	2041.2	1173
833.9122	743.9298	2033.55	1159.1
834.0571	746.014	2044.75	1173.65
834.2021	748.0974	2071.2	1200.6
834.347	750.1802	2066.9	1194.5
834.492	752.2624	2049.2	1176.7
834.637	754.3439	2025.95	1152.05
834.782	756.4247	2036.5	1153.4
834.9269	758.5048	2025.15	1154.2
835.0719	760.5843	2055.8	1181.75
835.2169	762.6631	2066.9	1193.25
835.3619	764.7413	2132.75	1261.7
835.5069	766.8188	2197.75	1322.7
835.6519	768.8956	2285.8	1407.8
835.7969	770.9718	2346.05	1472.5
835.9419	773.0473	2330.6	1454.35
836.0869	775.1221	2304.85	1432.25
836.232	777.1962	2291.75	1419
836.377	779.2697	2340.35	1462.95
836.522	781.3426	2455.7	1564.9
836.667	783.4147	2508.15	1629.1
836.8121	785.4862	2507.05	1634.95
836.9571	787.557	2425.65	1547.5
837.1021	789.6271	2296.25	1421
837.2472	791.6966	2153.1	1276.65
837.3922	793.7654	2062.7	1188.3
837.5373	795.8335	2009.6	1134.55
837.6823	797.901	1983.15	1104.7
837.8274	799.9678	1971.9	1094.9
837.9724	802.0339	1971.15	1095.3
838.1175	804.0993	1979.15	1091.2
838.2626	806.1641	1968.55	1089.55
838.4076	808.2282	1941.85	1065.05
838.5527	810.2916	1941.65	1062.3
838.6978	812.3544	1928.9	1052.1
838.8428	814.4164	1910.55	1032.25
838.9879	816.4778	1920.35	1042.2
839.133	818.5385	1927.45	1050.05
839.2781	820.5986	1966.2	1086.5
839.4232	822.658	2022.75	1142.1
839.5682	824.7166	2074.35	1195.05
839.7133	826.7747	2165.3	1286.15
839.8584	828.832	2243.6	1363.55
840.0035	830.8886	2306.55	1425.05
840.1486	832.9446	2321.65	1439.15
840.2937	834.9999	2294.45	1414.85
840.4388	837.0545	2225.25	1340.95
840.5839	839.1085	2128.85	1248.8
840.729	841.1618	2074.75	1191.05
840.8741	843.2143	2012.5	1130.9
841.0192	845.2662	1974.65	1093.9
841.1643	847.3175	1958.2	1079.05
841.3095	849.368	1955.2	1074.95
841.4546	851.4179	1947.05	1064.65
841.5997	853.467	1948.75	1068.9
841.7448	855.5155	1951.65	1071.75
841.8899	857.5633	1959.1	1076.9
842.0351	859.6105	1955.85	1074.25
842.1802	861.6569	1947.8	1067.8
842.3253	863.7027	1921.9	1036.9
842.4704	865.7478	1923.15	1039.9
842.6156	867.7922	1902.25	1018.95
842.7607	869.8359	1891.3	1006.9
842.9058	871.8789	1888.5	1005
843.0509	873.9212	1915.45	999.95
843.1961	875.9629	1889.7	1006.05
843.3412	878.0039	1901.7	1016.5
843.4863	880.0441	1921.1	1038.2
843.6315	882.0837	1926.15	1042.05
843.7766	884.1226	1963.2	1077.1
843.9218	886.1609	1990.4	1107.55
844.0669	888.1984	2039.65	1155.35
844.212	890.2352	2092.55	1211.45
844.3572	892.2714	2109.8	1219.35
844.5023	894.3069	2081.9	1196.3
844.6475	896.3416	2018.6	1133.5
844.7926	898.3757	1978.7	1093.05
844.9377	900.4091	1953.65	1068
845.0829	902.4418	1957.8	1065.2
845.228	904.4739	1976.6	1091.05
845.3732	906.5052	2000.1	1114.7
845.5183	908.5358	1990.55	1103.05
845.6635	910.5658	1967.4	1079
845.8086	912.595	1939.75	1051.55
845.9538	914.6236	1908.4	1023.4
846.0989	916.6515	1866.5	979.45
846.2441	918.6786	1853.35	965.15
846.3892	920.7051	1850.95	962.3
846.5344	922.7309	1850.4	960.5
846.6795	924.756	1843.65	953.3
846.8246	926.7804	1854.1	967.35
846.9698	928.8041	1860.15	972.3
847.1149	930.8272	1882.55	995.45
847.2601	932.8495	1888.35	1001.1
847.4052	934.8711	1914.25	1025
847.5504	936.892	1898.85	1011.35
847.6955	938.9123	1914	1026.25
847.8407	940.9318	1947.25	1059.85
847.9858	942.9506	1968.8	1078.7
848.131	944.9688	1944.4	1058.05
848.2761	946.9862	1925.15	1035.5
848.4213	949.003	1901.15	1011.35
848.5664	951.019	1868.75	979.25
848.7115	953.0344	1845.5	954.05
848.8567	955.0491	1844.7	954.4
849.0018	957.063	1840.05	952.4
849.147	959.0763	1831.95	944.15
849.2921	961.0888	1831.05	939.8
849.4373	963.1007	1840.5	950.95
849.5824	965.1119	1822.95	938.5
849.7275	967.1223	1811.3	928.05
849.8727	969.1321	1809.7	925.9
850.0178	971.1412	1803.15	916.3
850.1629	973.1495	1799.25	911.6
850.3081	975.1572	1823.35	903.95
850.4532	977.1641	1797.4	907.7
850.5983	979.1704	1802.05	912.05
850.7435	981.1759	1803.75	911.3
850.8886	983.1808	1791.4	899.55
851.0337	985.1849	1794.6	893
851.1788	987.1884	1783.9	890.45
851.324	989.1911	1788.95	894.9
851.4691	991.1932	1804.55	913.9
851.6142	993.1945	1801.2	913.15
851.7593	995.1951	1795.5	905.55
851.9045	997.1951	1796.2	899.6
852.0496	999.1943	1791.2	901.75
852.1947	1001.1928	1797.45	902.7
852.3398	1003.1906	1795.8	904.4
852.4849	1005.1877	1825.4	931.5
852.63	1007.1841	1850.15	958.15
852.7751	1009.1798	1863.35	972.95
852.9202	1011.1748	1847.65	956.75
853.0653	1013.1691	1827.75	936.6
853.2104	1015.1627	1803.1	912.15
853.3555	1017.1556	1763.55	872.6
853.5006	1019.1477	1752.25	861.5
853.6457	1021.1392	1732.25	843.8
853.7908	1023.1299	1719.3	832.65
853.9359	1025.12	1721.05	834.15
854.081	1027.1093	1721.05	840.75
854.2261	1029.0979	1743.45	863.4
854.3712	1031.0859	1758.7	877.9
854.5163	1033.0731	1784.1	897.5
854.6613	1035.0596	1791.1	901.75
854.8064	1037.0454	1783.4	890.25
854.9515	1039.0304	1761.4	866.9
855.0965	1041.0148	1742.15	852.55
855.2416	1042.9985	1723	827.65
855.3867	1044.9814	1715.55	823.85
855.5317	1046.9636	1711.95	818.35
855.6768	1048.9452	1719	829.3
855.8219	1050.926	1724.25	835.3
855.9669	1052.9061	1742.8	851.3
856.112	1054.8855	1754.1	862.65
856.257	1056.8642	1752.25	858.45
856.4021	1058.8421	1757.25	860.7
856.5471	1060.8194	1747.45	856.25
856.6921	1062.7959	1741.15	849.05
856.8372	1064.7717	1743.05	847.9
856.9822	1066.7469	1744	852.8
857.1272	1068.7213	1751.75	858.55
857.2723	1070.695	1758.05	865.05
857.4173	1072.6679	1775.3	880.35
857.5623	1074.6402	1800.9	905.3
857.7073	1076.6117	1821.8	923.85
857.8523	1078.5826	1797.2	903.95
857.9973	1080.5527	1767.85	875.1
858.1423	1082.5221	1720.15	825.5
858.2873	1084.4908	1694.9	802.3
858.4323	1086.4587	1688.7	794.6
858.5773	1088.426	1675.25	782.4
858.7223	1090.3925	1682	782.85
858.8673	1092.3584	1668.8	774.3
859.0123	1094.3235	1683.75	791.5
859.1573	1096.2879	1705.15	808.75
859.3022	1098.2515	1726.35	834.8
859.4472	1100.2145	1750.45	858.05
859.5922	1102.1767	1788.35	893.1
859.7371	1104.1382	1827.8	933.05
859.8821	1106.099	1886.8	989.85
860.027	1108.0591	1929.05	1034.65
860.172	1110.0185	1966.5	1070.85
860.3169	1111.9771	1997.5	1103.9
860.4619	1113.9351	2038.35	1147.8
860.6068	1115.8923	2095.35	1201.95
860.7517	1117.8488	2134.1	1237.45
860.8967	1119.8045	2095.8	1201.65
861.0416	1121.7596	2007.9	1113.55
861.1865	1123.7139	1894.35	1002.85
861.3314	1125.6675	1840.65	949.65
861.4763	1127.6204	1840.2	948.75
861.6212	1129.5726	1860.3	964.5
861.7661	1131.524	1857.55	963.4
861.911	1133.4748	1821.9	927.8
862.0559	1135.4248	1761.8	866.05
862.2008	1137.3741	1711.65	816.45
862.3457	1139.3226	1696.1	802.6
862.4905	1141.2705	1679.4	783.85
862.6354	1143.2176	1688.6	788.7
862.7803	1145.164	1705.6	807.55
862.9251	1147.1097	1710.7	815.65
863.07	1149.0546	1686	792.45
863.2148	1150.9989	1666.3	773.55
863.3597	1152.9424	1649.55	754.3
863.5045	1154.8852	1630.2	735.55
863.6493	1156.8272	1621.25	726.65
863.7942	1158.7686	1629.4	728.85
863.939	1160.7092	1623.85	729.2
864.0838	1162.6491	1625.75	729.95
864.2286	1164.5883	1639.95	743.6
864.3734	1166.5267	1653.1	756.05
864.5182	1168.4644	1676.95	780.5
864.663	1170.4014	1704.15	808.1
864.8078	1172.3377	1741.2	847.95
864.9526	1174.2732	1786.9	891.9
865.0974	1176.2081	1873.5	977.05
865.2421	1178.1421	1986.3	1087.8
865.3869	1180.0755	2106.7	1214
865.5317	1182.0082	2172.95	1279.3
865.6764	1183.9401	2165.1	1268.15
865.8212	1185.8713	2064.65	1170.2
865.9659	1187.8017	1934.95	1043.25
866.1106	1189.7315	1834.35	946.9
866.2554	1191.6605	1777.9	861.95
866.4001	1193.5888	1710.05	818.45
866.5448	1195.5163	1682.9	790.45
866.6895	1197.4432	1661.1	765.95
866.8342	1199.3693	1647.35	752.2
866.9789	1201.2947	1632.8	733
867.1236	1203.2193	1630.55	734.45
867.2683	1205.1432	1625.95	730.1
867.413	1207.0664	1622.7	727.45
867.5576	1208.9889	1624.25	726.7
867.7023	1210.9106	1619.7	728.25
867.847	1212.8316	1624.45	730.35
867.9916	1214.7519	1640.9	738.9
868.1363	1216.6715	1640.6	746.7
868.2809	1218.5903	1662.2	766.5
868.4255	1220.5084	1667.25	774.2
868.5701	1222.4257	1690.25	795.9
868.7148	1224.3424	1691.7	799.95
868.8594	1226.2583	1718.7	820.35
869.004	1228.1735	1744.15	848.25
869.1486	1230.0879	1783.45	885.4
869.2932	1232.0016	1812.95	919.2
869.4377	1233.9146	1847.35	951.8
869.5823	1235.8269	1867.3	972
869.7269	1237.7384	1868.25	971.8
869.8715	1239.6492	1871.7	978.05
870.016	1241.5592	1873.05	977.9
870.1606	1243.4686	1925.5	1029.7
870.3051	1245.3772	1989.2	1092.65
870.4496	1247.285	2074.4	1178.5
870.5941	1249.1922	2153.35	1259.9
