Software Version:	3.9.2.0
Unit SN:	10000200
Spectrometer SN:	6960
Date:	3/8/2024 11:15:46 AM
Data Line Index:	25
Spectral Points:	2048
Integration time (ms):	125
Averages:	20
Delay (ms):	30000
Sequence Number:	1
Processing:	dark subtract
Laser Power (mW):	300
Laser Current (mA):	823
Laser Diode Temp (C):	25.1
Laser Case Temp (C):	24.7
System Temp (C):	24.6
Spectrometer Temp (C):	22.4
CCD Temp (C):	0.007
Secondary Temp (C):	20.008
Heatsink Temp (C):	19.426
CCDPCB Temp (C):	33.317
SecondaryPCB Temp (C):	26.147

Wavelength	RamanShift	Raw Counts	Dark Subtracted
787.061	30.1047	418.95	8.65
787.2016	32.3739	419.75	12.75
787.3422	34.6426	421.9	13
787.4828	36.9109	421.7	11.05
787.6235	39.1787	427.8	12
787.7642	41.4461	435.1	17.3
787.9049	43.7131	440.45	16.8
788.0456	45.9796	442.9	18.1
788.1863	48.2456	446	17
788.3271	50.5112	451.95	19.45
788.4679	52.7764	456.35	21.65
788.6087	55.0411	462.1	23
788.7496	57.3054	468.75	22.5
788.8904	59.5692	470.15	25.85
789.0313	61.8326	475.1	25.55
789.1722	64.0955	482.25	30.45
789.3132	66.3579	492.4	33.55
789.4541	68.6199	499.65	37.65
789.5951	70.8815	515.35	49.95
789.7361	73.1426	539.15	69.4
789.8771	75.4032	597.65	124.25
790.0181	77.6634	735.25	259.95
790.1592	79.9231	1055.95	574.3
790.3003	82.1824	1717.1	1232.85
790.4414	84.4412	2807.65	2313.05
790.5825	86.6995	4209.1	3705.25
790.7237	88.9574	5555.05	5041.45
790.8648	91.2148	6461	5940.05
791.006	93.4717	6884.85	6358.45
791.1472	95.7282	6964.2	6438
791.2885	97.9842	6938.95	6407.75
791.4297	100.2398	6826.2	6293.2
791.571	102.4949	6711.15	6176
791.7123	104.7495	6637.45	6097.9
791.8536	107.0036	6547.85	6006.45
791.9949	109.2573	6409.8	5870.25
792.1363	111.5105	6264.85	5723.5
792.2777	113.7632	6086.2	5542.25
792.4191	116.0154	5916.8	5362.05
792.5605	118.2672	5681.65	5131
792.7019	120.5185	5462.9	4913.1
792.8434	122.7693	5264.6	4711.2
792.9849	125.0197	5073.05	4515.8
793.1264	127.2696	4911.75	4350.95
793.2679	129.519	4801.05	4237.65
793.4094	131.7679	4721.35	4156.8
793.551	134.0163	4670.55	4101.05
793.6926	136.2642	4648.85	4076.1
793.8342	138.5117	4628.2	4052.55
793.9758	140.7587	4579.6	4003.8
794.1175	143.0052	4523.5	3943.4
794.2591	145.2512	4434.1	3854
794.4008	147.4967	4306.15	3723.5
794.5425	149.7417	4182.9	3596.3
794.6842	151.9863	4126.25	3538.95
794.826	154.2304	4094.4	3502.75
794.9677	156.4739	4071.2	3475.3
795.1095	158.717	4096.65	3498.9
795.2513	160.9596	4146.35	3543.9
795.3931	163.2017	4220.95	3614.85
795.535	165.4433	4277.55	3670.55
795.6768	167.6844	4259.1	3650.25
795.8187	169.925	4201.7	3589.2
795.9606	172.1651	4100.95	3485.65
796.1025	174.4047	3994.25	3372.9
796.2445	176.6439	3901.05	3279.65
796.3864	178.8825	3826.45	3204.05
796.5284	181.1206	3796.5	3166.7
796.6704	183.3582	3771.65	3138.85
796.8124	185.5954	3762.7	3129.1
796.9544	187.832	3743.5	3106.7
797.0965	190.0681	3738.5	3098.2
797.2386	192.3037	3748.8	3105.9
797.3806	194.5388	3770.4	3124.55
797.5228	196.7734	3788.2	3139.9
797.6649	199.0075	3824.7	3175.05
797.807	201.2411	3869.9	3220.4
797.9492	203.4742	3911.85	3259.15
798.0914	205.7068	3970.65	3312.3
798.2336	207.9389	4014.95	3359.25
798.3758	210.1704	4042.05	3390.9
798.518	212.4015	4034.75	3392.45
798.6603	214.632	4042.6	3408.85
798.8025	216.862	4033.1	3398.85
798.9448	219.0915	4054.9	3417.85
799.0871	221.3205	4102.15	3459.6
799.2294	223.549	4103.95	3470.05
799.3718	225.777	4123.3	3484.6
799.5141	228.0044	4131.85	3490.2
799.6565	230.2314	4099.55	3458.05
799.7989	232.4578	4083.3	3437.7
799.9413	234.6837	4045.95	3387.8
800.0837	236.909	4017.05	3358.65
800.2262	239.1339	4006	3323.25
800.3687	241.3582	3974.05	3304.9
800.5111	243.582	3982.7	3282.5
800.6536	245.8053	3996.05	3308.05
800.7961	248.0281	4009.3	3329.15
800.9387	250.2503	4025	3338.3
801.0812	252.472	4046.6	3358.55
801.2238	254.6932	4040.95	3356.7
801.3664	256.9139	4036.35	3348.4
801.509	259.134	4071.8	3378
801.6516	261.3536	4122.5	3431.85
801.7942	263.5727	4185.25	3494.45
801.9369	265.7912	4279.1	3590.05
802.0795	268.0092	4416.6	3725.8
802.2222	270.2267	4544.65	3852.2
802.3649	272.4436	4656.8	3960.9
802.5076	274.6601	4721.35	4015.1
802.6504	276.8759	4775.2	4072.75
802.7931	279.0913	4832.95	4131.35
802.9359	281.3061	4854.95	4154
803.0787	283.5204	4919.7	4215.75
803.2215	285.7341	4963.5	4255.7
803.3643	287.9473	5020.85	4309.85
803.5071	290.16	5014.75	4306.55
803.6499	292.3721	4933.45	4226.3
803.7928	294.5837	4848.65	4141.25
803.9357	296.7947	4748.15	4041.35
804.0786	299.0052	4702.35	3992.75
804.2215	301.2152	4659.2	3948.1
804.3644	303.4246	4632.55	3924.15
804.5074	305.6334	4629.7	3917.8
804.6503	307.8418	4605.9	3891.75
804.7933	310.0495	4552.2	3835.35
804.9363	312.2568	4482.05	3767.25
805.0793	314.4635	4383.4	3667.05
805.2223	316.6696	4289.35	3568.65
805.3653	318.8752	4190.45	3462
805.5084	321.0802	4126.95	3403
805.6514	323.2847	4095.05	3369.85
805.7945	325.4887	4107.8	3382.85
805.9376	327.692	4138.75	3410.1
806.0807	329.8949	4236.15	3508.6
806.2238	332.0972	4340.6	3611
806.367	334.2989	4424.8	3693.65
806.5101	336.5001	4440.95	3710.55
806.6533	338.7007	4384.15	3651.15
806.7965	340.9008	4272.85	3537.15
806.9397	343.1003	4148.55	3410.3
807.0829	345.2992	4027.4	3289.3
807.2261	347.4976	3913.95	3175.7
807.3693	349.6955	3852.7	3110.05
807.5126	351.8927	3810.4	3069.05
807.6559	354.0895	3762	3005.85
807.7991	356.2856	3740.9	2993.15
807.9424	358.4812	3712.9	2965.6
808.0857	360.6763	3711.75	2962.55
808.2291	362.8707	3690	2940.9
808.3724	365.0646	3695.75	2942.1
808.5158	367.258	3706.8	2952.6
808.6591	369.4508	3730.75	2973.7
808.8025	371.643	3797.45	3040.55
808.9459	373.8346	3863	3104.35
809.0893	376.0257	3939.85	3179
809.2327	378.2162	4010.65	3247.95
809.3762	380.4062	4045.5	3282.25
809.5196	382.5956	3998.5	3238.8
809.6631	384.7844	3922.05	3169.45
809.8066	386.9726	3822.2	3069.55
809.9501	389.1603	3744.1	2992.5
810.0936	391.3474	3726.6	2932.35
810.2371	393.5339	3690.5	2934.6
810.3806	395.7199	3707.35	2954.15
810.5241	397.9052	3770.3	3015.2
810.6677	400.09	3858.05	3100.75
810.8113	402.2743	3970.95	3212.6
810.9548	404.4579	4055.25	3296.55
811.0984	406.641	4120.4	3359.9
811.2421	408.8235	4225.1	3463.05
811.3857	411.0054	4311.8	3547.05
811.5293	413.1868	4370.2	3601.35
811.673	415.3675	4410.35	3637.45
811.8166	417.5477	4390.75	3616.45
811.9603	419.7273	4324.05	3546.7
812.104	421.9064	4245.2	3461.95
812.2477	424.0848	4119.05	3342.65
812.3914	426.2627	3982.85	3205.45
812.5351	428.4399	3847.35	3070.95
812.6788	430.6166	3737.3	2957.8
812.8226	432.7928	3642.05	2858.45
812.9663	434.9683	3545.25	2763.2
813.1101	437.1432	3489.25	2704.85
813.2539	439.3176	3455.05	2673.25
813.3977	441.4914	3429.8	2647.4
813.5415	443.6645	3419.85	2636.05
813.6853	445.8371	3417.65	2633.4
813.8291	448.0091	3423.45	2639.65
813.973	450.1806	3405.4	2622.45
814.1168	452.3514	3389.4	2601.4
814.2607	454.5216	3400.55	2603.7
814.4046	456.6913	3412.6	2622.55
814.5485	458.8603	3415.1	2627.15
814.6924	461.0288	3428.65	2641.75
814.8363	463.1967	3423.45	2636.35
814.9802	465.3639	3434.8	2644.1
815.1241	467.5306	3415.85	2626
815.2681	469.6967	3392.3	2601.6
815.412	471.8622	3375.35	2584.25
815.556	474.0271	3381.5	2592.95
815.7	476.1914	3373.85	2579.7
815.844	478.3551	3354.55	2562.25
815.988	480.5182	3359.2	2567.3
816.132	482.6807	3366.6	2574.05
816.276	484.8426	3393.6	2601.35
816.4201	487.0039	3486.4	2692.95
816.5641	489.1647	3612.05	2814.7
816.7082	491.3248	3731.6	2937.25
816.8522	493.4843	3755.85	2959.65
816.9963	495.6432	3748.25	2953.15
817.1404	497.8015	3676.8	2875.25
817.2845	499.9592	3568	2767.25
817.4286	502.1163	3452.85	2650
817.5727	504.2728	3356.9	2553.6
817.7168	506.4287	3305.35	2508
817.861	508.5839	3255.65	2456.55
818.0051	510.7386	3233.5	2435.25
818.1493	512.8927	3248.25	2440.5
818.2935	515.0461	3274.6	2471.15
818.4377	517.199	3297.6	2493.05
818.5818	519.3512	3396.05	2590.7
818.726	521.5029	3544.15	2729.6
818.8703	523.6539	3700.6	2893.2
819.0145	525.8043	3723.55	2915.5
819.1587	527.9541	3609.05	2799.2
819.303	530.1033	3436.6	2627.2
819.4472	532.2519	3314	2504.35
819.5915	534.3999	3272.2	2461.65
819.7357	536.5472	3253.1	2442.4
819.88	538.694	3253.7	2444
820.0243	540.8401	3262.3	2450.35
820.1686	542.9856	3307.45	2494.9
820.3129	545.1305	3351.75	2536.3
820.4572	547.2748	3390.95	2575.55
820.6016	549.4185	3402.1	2585.85
820.7459	551.5615	3417.05	2603.45
820.8902	553.704	3451.1	2637.9
821.0346	555.8458	3476.25	2663.85
821.1789	557.987	3535.3	2722.5
821.3233	560.1276	3608.55	2795.15
821.4677	562.2675	3745.3	2932.8
821.6121	564.4069	3917.35	3102.2
821.7565	566.5456	4016.85	3203.4
821.9009	568.6837	3973.65	3158.95
822.0453	570.8212	3789.9	2976.1
822.1897	572.958	3566.65	2746.45
822.3342	575.0942	3407.9	2592.45
822.4786	577.2299	3336.65	2519
822.6231	579.3648	3287.8	2470
822.7675	581.4992	3260.6	2443.8
822.912	583.6329	3280.2	2462.5
823.0565	585.766	3353.45	2537.35
823.201	587.8985	3438.1	2622.35
823.3454	590.0304	3571.7	2740
823.4899	592.1616	3657.15	2833.75
823.6345	594.2922	3686.65	2862.65
823.779	596.4222	3612.15	2788.85
823.9235	598.5515	3479.5	2655.85
824.068	600.6802	3327.95	2504.15
824.2126	602.8083	3232.65	2406.6
824.3571	604.9358	3192.55	2366
824.5017	607.0626	3169.8	2342.85
824.6462	609.1888	3197	2369.6
824.7908	611.3144	3242.1	2415.35
824.9354	613.4393	3339.8	2512.1
825.08	615.5636	3441.6	2613.35
825.2246	617.6873	3570.8	2744.55
825.3692	619.8103	3662.4	2834.45
825.5138	621.9327	3661.6	2828.9
825.6584	624.0544	3594.3	2765.6
825.803	626.1756	3451.6	2622.5
825.9477	628.2961	3317.55	2486.5
826.0923	630.4159	3252	2423.05
826.237	632.5351	3228.05	2396.5
826.3816	634.6537	3234.1	2401.45
826.5263	636.7716	3208.9	2377.15
826.6709	638.8889	3198.8	2364.9
826.8156	641.0056	3210.25	2376.4
826.9603	643.1216	3230.4	2395.05
827.105	645.237	3239.65	2402.25
827.2497	647.3518	3195.05	2361.6
827.3944	649.4659	3140.7	2308.9
827.5391	651.5793	3103.1	2271.05
827.6838	653.6922	3044.75	2213.05
827.8285	655.8043	3034.45	2201.55
827.9733	657.9159	3007.4	2171.6
828.118	660.0268	2990.8	2154.15
828.2627	662.137	2989.65	2152.8
828.4075	664.2466	2992.05	2153.15
828.5522	666.3556	2992.05	2154.6
828.697	668.4639	2975.35	2136.3
828.8418	670.5716	2962.5	2124.7
828.9865	672.6786	2940.75	2103.6
829.1313	674.785	2918.3	2077.25
829.2761	676.8907	2912.4	2072.4
829.4209	678.9958	2913.35	2076.2
829.5657	681.1002	2919.7	2077.4
829.7105	683.204	2916.95	2072.6
829.8553	685.3072	2924.7	2079.45
830.0001	687.4097	2914.1	2071.6
830.1449	689.5115	2920.85	2078.1
830.2898	691.6127	2895.8	2053.55
830.4346	693.7132	2897.35	2056.5
830.5794	695.8131	2905.1	2049.2
830.7243	697.9123	2908.65	2063.4
830.8691	700.0109	2909.65	2066.75
831.014	702.1089	2932.9	2088.9
831.1588	704.2061	2967.15	2123.5
831.3037	706.3028	3034.85	2189.7
831.4486	708.3987	3075.1	2230.05
831.5935	710.4941	3116.95	2271.4
831.7383	712.5887	3126.45	2280.25
831.8832	714.6827	3121.5	2271.15
832.0281	716.7761	3103.65	2258.8
832.173	718.8688	3093.45	2249.85
832.3179	720.9608	3085.35	2234.7
832.4628	723.0522	3118.65	2268
832.6077	725.1429	3139.1	2291.55
832.7527	727.233	3225.05	2376.6
832.8976	729.3224	3373.7	2524.5
833.0425	731.4112	3507.1	2657.65
833.1874	733.4993	3546.65	2696.25
833.3324	735.5867	3447.75	2598.1
833.4773	737.6735	3271.6	2423.1
833.6222	739.7596	3117.95	2268.15
833.7672	741.845	3028.35	2177.15
833.9122	743.9298	2982.75	2130.8
834.0571	746.014	2985.9	2136.45
834.2021	748.0974	2993.35	2140.6
834.347	750.1802	2992.7	2140.65
834.492	752.2624	2981	2129.6
834.637	754.3439	2986.7	2131.1
834.782	756.4247	2994.35	2131.35
834.9269	758.5048	3001.5	2150
835.0719	760.5843	3054.15	2201.45
835.2169	762.6631	3118.25	2264
835.3619	764.7413	3250.2	2398.7
835.5069	766.8188	3442.7	2585.85
835.6519	768.8956	3651.5	2795.25
835.7969	770.9718	3775.5	2922.05
835.9419	773.0473	3762.5	2909.05
836.0869	775.1221	3678.7	2824.8
836.232	777.1962	3634.45	2780.75
836.377	779.2697	3764.35	2908.85
836.522	781.3426	4029.5	3155.95
836.667	783.4147	4215.4	3357.65
836.8121	785.4862	4219.55	3364.35
836.9571	787.557	4021.6	3166.6
837.1021	789.6271	3729.15	2872.55
837.2472	791.6966	3430.45	2571.2
837.3922	793.7654	3172	2316.05
837.5373	795.8335	3032.25	2176.1
837.6823	797.901	2954.6	2098.7
837.8274	799.9678	2928.7	2069.55
837.9724	802.0339	2938.35	2082
838.1175	804.0993	2950.25	2081.65
838.2626	806.1641	2942.2	2084.6
838.4076	808.2282	2911.15	2051.45
838.5527	810.2916	2873.15	2011.1
838.6978	812.3544	2832.25	1976.7
838.8428	814.4164	2805.35	1949.2
838.9879	816.4778	2830.35	1971.6
839.133	818.5385	2846.25	1986.7
839.2781	820.5986	2921.55	2064.45
839.4232	822.658	3048.85	2187.1
839.5682	824.7166	3187.9	2328.05
839.7133	826.7747	3382.45	2522.65
839.8584	828.832	3580.45	2720.25
840.0035	830.8886	3731.35	2867.6
840.1486	832.9446	3780.25	2921.3
840.2937	834.9999	3725.25	2866.35
840.4388	837.0545	3592.35	2727.55
840.5839	839.1085	3375.15	2513.95
840.729	841.1618	3192.6	2328.25
840.8741	843.2143	3067	2205.5
841.0192	845.2662	2970.3	2109.05
841.1643	847.3175	2918.45	2054.95
841.3095	849.368	2904.05	2041.25
841.4546	851.4179	2886.05	2025.7
841.5997	853.467	2899.9	2039.05
841.7448	855.5155	2899.25	2034.1
841.8899	857.5633	2918.5	2055.65
842.0351	859.6105	2905.1	2042.65
842.1802	861.6569	2885.85	2022.55
842.3253	863.7027	2853.25	1986.6
842.4704	865.7478	2825.85	1961.45
842.6156	867.7922	2789.05	1924.8
842.7607	869.8359	2768.6	1905.8
842.9058	871.8789	2758.55	1895
843.0509	873.9212	2785.4	1888.1
843.1961	875.9629	2775.55	1910.5
843.3412	878.0039	2808.35	1940.3
843.4863	880.0441	2833.5	1968.45
843.6315	882.0837	2866.6	2001.7
843.7766	884.1226	2928.2	2060.5
843.9218	886.1609	3012.55	2147.6
844.0669	888.1984	3131.35	2266.55
844.212	890.2352	3233.25	2367.3
844.3572	892.2714	3266.75	2397.4
844.5023	894.3069	3226.45	2357.9
844.6475	896.3416	3099.55	2233.95
844.7926	898.3757	2986.9	2119.65
844.9377	900.4091	2915.9	2047.35
845.0829	902.4418	2928.25	2055.95
845.228	904.4739	2979.8	2108.8
845.3732	906.5052	3026.95	2159.5
845.5183	908.5358	3042.15	2173.95
845.6635	910.5658	2994.6	2123.2
845.8086	912.595	2903.35	2034.95
845.9538	914.6236	2825.9	1957.05
846.0989	916.6515	2756.45	1888.05
846.2441	918.6786	2719.95	1849.4
846.3892	920.7051	2689.2	1817.35
846.5344	922.7309	2690.6	1821.25
846.6795	924.756	2686.35	1817.6
846.8246	926.7804	2731.5	1861.65
846.9698	928.8041	2748.7	1879.55
847.1149	930.8272	2784.8	1916
847.2601	932.8495	2803.85	1933.45
847.4052	934.8711	2814.85	1942.2
847.5504	936.892	2840.5	1967.95
847.6955	938.9123	2884.1	2010.4
847.8407	940.9318	2950.35	2079.65
847.9858	942.9506	2987.4	2116.65
848.131	944.9688	2986.8	2115.55
848.2761	946.9862	2927	2055.75
848.4213	949.003	2840.5	1967.9
848.5664	951.019	2785.95	1915.3
848.7115	953.0344	2747.05	1875.75
848.8567	955.0491	2708.3	1836.4
849.0018	957.063	2678.6	1806.55
849.147	959.0763	2697.35	1825.45
849.2921	961.0888	2690.5	1817.7
849.4373	963.1007	2677.05	1805.2
849.5824	965.1119	2656.4	1786.6
849.7275	967.1223	2650.9	1782.7
849.8727	969.1321	2624.2	1753.6
850.0178	971.1412	2623.7	1755.45
850.1629	973.1495	2615.25	1743
850.3081	975.1572	2631.35	1728.4
850.4532	977.1641	2626.35	1753.05
850.5983	979.1704	2624.95	1753.6
850.7435	981.1759	2619.05	1740.6
850.8886	983.1808	2599.6	1726.25
851.0337	985.1849	2579.9	1694.4
851.1788	987.1884	2562.5	1686.4
851.324	989.1911	2589.65	1712.95
851.4691	991.1932	2612.65	1739.9
851.6142	993.1945	2618.1	1744.55
851.7593	995.1951	2615.9	1740.2
851.9045	997.1951	2611.5	1733.25
852.0496	999.1943	2607.3	1733.9
852.1947	1001.1928	2604.6	1731.2
852.3398	1003.1906	2631.4	1757.5
852.4849	1005.1877	2664.55	1789.05
852.63	1007.1841	2751.95	1876.3
852.7751	1009.1798	2780.1	1907.25
852.9202	1011.1748	2766.65	1891.4
853.0653	1013.1691	2711.55	1835.7
853.2104	1015.1627	2648.25	1773
853.3555	1017.1556	2556.15	1680.3
853.5006	1019.1477	2527.4	1651.9
853.6457	1021.1392	2482.65	1610.65
853.7908	1023.1299	2469.55	1595.1
853.9359	1025.12	2459.25	1586
854.081	1027.1093	2483.9	1613.75
854.2261	1029.0979	2520.25	1651.5
854.3712	1031.0859	2578.7	1706.95
854.5163	1033.0731	2624.85	1750.7
854.6613	1035.0596	2624.65	1753.3
854.8064	1037.0454	2606.8	1731.2
854.9515	1039.0304	2581.1	1705.15
855.0965	1041.0148	2532.1	1656
855.2416	1042.9985	2481.9	1603.8
855.3867	1044.9814	2444.3	1566.95
855.5317	1046.9636	2437.75	1557.75
855.6768	1048.9452	2449.65	1578.25
855.8219	1050.926	2497	1622.2
855.9669	1052.9061	2537.65	1663.45
856.112	1054.8855	2563.35	1685.3
856.257	1056.8642	2555.6	1679.25
856.4021	1058.8421	2543.2	1661.35
856.5471	1060.8194	2546.55	1669.2
856.6921	1062.7959	2544.15	1666.9
856.8372	1064.7717	2542.7	1664.05
856.9822	1066.7469	2530.55	1652.6
857.1272	1068.7213	2545.05	1665.15
857.2723	1070.695	2572.2	1695.05
857.4173	1072.6679	2615.15	1734.8
857.5623	1074.6402	2665.7	1787.25
857.7073	1076.6117	2715.65	1832.75
857.8523	1078.5826	2672.3	1791
857.9973	1080.5527	2591	1711.8
858.1423	1082.5221	2500.6	1623.45
858.2873	1084.4908	2437.65	1560.95
858.4323	1086.4587	2397.35	1516.3
858.5773	1088.426	2388.5	1510.75
858.7223	1090.3925	2382.2	1498.15
858.8673	1092.3584	2385.4	1509
859.0123	1094.3235	2403.4	1526.25
859.1573	1096.2879	2448.55	1570.1
859.3022	1098.2515	2488.35	1611.5
859.4472	1100.2145	2553.4	1676.8
859.5922	1102.1767	2627.6	1747.45
859.7371	1104.1382	2717.45	1839.8
859.8821	1106.099	2863.1	1981.4
860.027	1108.0591	2978.8	2098
860.172	1110.0185	3062	2178.65
860.3169	1111.9771	3148.85	2271.25
860.4619	1113.9351	3273.35	2394.35
860.6068	1115.8923	3420.4	2541.95
860.7517	1117.8488	3525.7	2645.3
860.8967	1119.8045	3454.15	2575.35
861.0416	1121.7596	3237.55	2356.65
861.1865	1123.7139	2965.95	2087.65
861.3314	1125.6675	2808.15	1927.6
861.4763	1127.6204	2793.75	1915.6
861.6212	1129.5726	2835.85	1955.45
861.7661	1131.524	2854.7	1976.9
861.911	1133.4748	2769.05	1887.4
862.0559	1135.4248	2634.95	1752.7
862.2008	1137.3741	2514.35	1636.1
862.3457	1139.3226	2448.95	1566.9
862.4905	1141.2705	2426.35	1547.4
862.6354	1143.2176	2454.1	1565.85
862.7803	1145.164	2501.2	1619.7
862.9251	1147.1097	2501.55	1621.5
863.07	1149.0546	2464.05	1582.6
863.2148	1150.9989	2388.4	1508.85
863.3597	1152.9424	2350.5	1470.8
863.5045	1154.8852	2315.85	1435.5
863.6493	1156.8272	2302.3	1422.25
863.7942	1158.7686	2299.6	1410.75
863.939	1160.7092	2291.4	1408.6
864.0838	1162.6491	2301.1	1418.45
864.2286	1164.5883	2311.25	1430.55
864.3734	1166.5267	2347.6	1465.2
864.5182	1168.4644	2392.35	1509.5
864.663	1170.4014	2476.2	1594.75
864.8078	1172.3377	2557.35	1676.25
864.9526	1174.2732	2679.7	1799.7
865.0974	1176.2081	2860.85	1979.85
865.2421	1178.1421	3146.35	2262.6
865.3869	1180.0755	3454.35	2576.05
865.5317	1182.0082	3646.8	2765.35
865.6764	1183.9401	3644.8	2764.25
865.8212	1185.8713	3452.05	2571.4
865.9659	1187.8017	3127.1	2249.1
866.1106	1189.7315	2876	1997.9
866.2554	1191.6605	2688.9	1784.45
866.4001	1193.5888	2554.85	1677.4
866.5448	1195.5163	2476.55	1597.05
866.6895	1197.4432	2425.45	1542.65
866.8342	1199.3693	2385.45	1506.8
866.9789	1201.2947	2349	1461
867.1236	1203.2193	2331.35	1452.8
867.2683	1205.1432	2320	1437.95
867.413	1207.0664	2327.65	1446.05
867.5576	1208.9889	2330.9	1445
867.7023	1210.9106	2314.9	1434.6
867.847	1212.8316	2334.7	1454.45
867.9916	1214.7519	2352.1	1461.4
868.1363	1216.6715	2369.65	1489.7
868.2809	1218.5903	2405.25	1525.1
868.4255	1220.5084	2442.4	1560.35
868.5701	1222.4257	2463.8	1581.85
868.7148	1224.3424	2492.15	1611.65
868.8594	1226.2583	2531.8	1644.75
869.004	1228.1735	2590.25	1708.25
869.1486	1230.0879	2663.85	1781.25
869.2932	1232.0016	2765.15	1883.95
869.4377	1233.9146	2863.85	1978.95
869.5823	1235.8269	2893.05	2011
869.7269	1237.7384	2913.65	2029.95
869.8715	1239.6492	2887.6	2007.8
