Software Version:	3.9.2.0
Unit SN:	10000200
Spectrometer SN:	6960
Date:	3/8/2024 11:25:25 AM
Data Line Index:	25
Spectral Points:	2048
Integration time (ms):	125
Averages:	20
Delay (ms):	30000
Sequence Number:	1
Processing:	dark subtract
Laser Power (mW):	300
Laser Current (mA):	823
Laser Diode Temp (C):	25
Laser Case Temp (C):	25
System Temp (C):	24.9
Spectrometer Temp (C):	22.7
CCD Temp (C):	0.012
Secondary Temp (C):	20.007
Heatsink Temp (C):	19.443
CCDPCB Temp (C):	33.539
SecondaryPCB Temp (C):	26.97

Wavelength	RamanShift	Raw Counts	Dark Subtracted
787.061	30.1047	415.8	5.8
787.2016	32.3739	415.7	8.2
787.3422	34.6426	415.2	7.2
787.4828	36.9109	416.65	7.1
787.6235	39.1787	421.2	6.85
787.7642	41.4461	427.05	7.85
787.9049	43.7131	433.45	11.15
788.0456	45.9796	435.65	12.25
788.1863	48.2456	440.85	13.05
788.3271	50.5112	444.5	13.5
788.4679	52.7764	446.6	11.55
788.6087	55.0411	453.55	13.1
788.7496	57.3054	457.55	11.55
788.8904	59.5692	460.2	13.9
789.0313	61.8326	464.35	14.75
789.1722	64.0955	468.45	16.05
789.3132	66.3579	475.2	16.95
789.4541	68.6199	483.75	22.8
789.5951	70.8815	491.2	25.25
789.7361	73.1426	513.65	44.65
789.8771	75.4032	545.65	71.7
790.0181	77.6634	624.95	147.5
790.1592	79.9231	801.7	321.3
790.3003	82.1824	1175.1	687.1
790.4414	84.4412	1783.8	1278
790.5825	86.6995	2547.7	2025.4
790.7237	88.9574	3291.25	2754.3
790.8648	91.2148	3796.15	3251.55
791.006	93.4717	4018.2	3464.3
791.1472	95.7282	4056.65	3496.95
791.2885	97.9842	4038.45	3479.25
791.4297	100.2398	3981.7	3418.95
791.571	102.4949	3939.25	3375.1
791.7123	104.7495	3900.15	3332.7
791.8536	107.0036	3856.4	3286.8
791.9949	109.2573	3770.7	3204.15
792.1363	111.5105	3684.9	3112.85
792.2777	113.7632	3602.75	3027.8
792.4191	116.0154	3507.7	2923.9
792.5605	118.2672	3405.55	2827.8
792.7019	120.5185	3290.5	2711.45
792.8434	122.7693	3191.95	2608.5
792.9849	125.0197	3114.8	2526.45
793.1264	127.2696	3017.1	2427.5
793.2679	129.519	2981.75	2389.05
793.4094	131.7679	2945.5	2348.85
793.551	134.0163	2928.2	2330.05
793.6926	136.2642	2905.5	2302.4
793.8342	138.5117	2927.9	2321.25
793.9758	140.7587	2890.2	2283.4
794.1175	143.0052	2838.9	2232.4
794.2591	145.2512	2801.5	2191.3
794.4008	147.4967	2739.7	2128.6
794.5425	149.7417	2691.85	2078.6
794.6842	151.9863	2650.15	2032.25
794.826	154.2304	2652.7	2029.35
794.9677	156.4739	2637.75	2009.3
795.1095	158.717	2644.05	2017.6
795.2513	160.9596	2690.7	2056.1
795.3931	163.2017	2707.9	2072.35
795.535	165.4433	2729.95	2091.45
795.6768	167.6844	2718.55	2080.2
795.8187	169.925	2708.2	2067.8
795.9606	172.1651	2652.9	2009.3
796.1025	174.4047	2587.6	1938.25
796.2445	176.6439	2555.9	1905.35
796.3864	178.8825	2525.05	1870.35
796.5284	181.1206	2511.2	1856.55
796.6704	183.3582	2491.3	1829.9
796.8124	185.5954	2487.2	1825.6
796.9544	187.832	2490.25	1823.45
797.0965	190.0681	2496.1	1827.3
797.2386	192.3037	2498.95	1825.15
797.3806	194.5388	2500	1825.35
797.5228	196.7734	2520.85	1844.2
797.6649	199.0075	2538.4	1860.55
797.807	201.2411	2556.7	1875.7
797.9492	203.4742	2579.95	1900.25
798.0914	205.7068	2617.7	1931.55
798.2336	207.9389	2634.95	1946.45
798.3758	210.1704	2632.3	1950.6
798.518	212.4015	2641.9	1971.95
798.6603	214.632	2647.7	1981.45
798.8025	216.862	2652.35	1989.7
798.9448	219.0915	2647.8	1981.9
799.0871	221.3205	2672.4	2003.25
799.2294	223.549	2672.45	2008.65
799.3718	225.777	2673.5	2013.15
799.5141	228.0044	2678.4	2006.4
799.6565	230.2314	2675.4	2002.35
799.7989	232.4578	2654.65	1977.55
799.9413	234.6837	2646.85	1961.65
800.0837	236.909	2637.75	1950.25
800.2262	239.1339	2642.7	1936.15
800.3687	241.3582	2617.35	1919.1
800.5111	243.582	2644.2	1916.25
800.6536	245.8053	2640.2	1926.7
800.7961	248.0281	2651.8	1946.4
800.9387	250.2503	2648	1936.9
801.0812	252.472	2649	1934.55
801.2238	254.6932	2667.4	1952.1
801.3664	256.9139	2664.9	1946.15
801.509	259.134	2697.35	1976.5
801.6516	261.3536	2700.15	1983.95
801.7942	263.5727	2759.6	2042.35
801.9369	265.7912	2801.05	2082.4
802.0795	268.0092	2853.05	2133.7
802.2222	270.2267	2918.3	2198.6
802.3649	272.4436	2962.75	2241.25
802.5076	274.6601	3002.45	2270.2
802.6504	276.8759	3025.75	2298.3
802.7931	279.0913	3055.35	2325.15
802.9359	281.3061	3071.3	2342.7
803.0787	283.5204	3097.5	2363.85
803.2215	285.7341	3126.05	2391.3
803.3643	287.9473	3140.1	2400.4
803.5071	290.16	3149	2410.1
803.6499	292.3721	3098.1	2363.2
803.7928	294.5837	3057.8	2321.9
803.9357	296.7947	3026.55	2291.95
804.0786	299.0052	3007.3	2268.5
804.2215	301.2152	2990.75	2250.85
804.3644	303.4246	2982.5	2246.3
804.5074	305.6334	2961.95	2226
804.6503	307.8418	2953.95	2212.75
804.7933	310.0495	2930.45	2189.75
804.9363	312.2568	2895.2	2151.05
805.0793	314.4635	2849.75	2104.95
805.2223	316.6696	2801.85	2055.45
805.3653	318.8752	2750.4	1994.05
805.5084	321.0802	2713.45	1966.05
805.6514	323.2847	2706.2	1958.25
805.7945	325.4887	2714.1	1965.45
805.9376	327.692	2743.6	1992.5
806.0807	329.8949	2777.65	2022.75
806.2238	332.0972	2823.95	2069.3
806.367	334.2989	2856.5	2099.75
806.5101	336.5001	2867.45	2108.55
806.6533	338.7007	2841.75	2082.45
806.7965	340.9008	2785.05	2024.05
806.9397	343.1003	2724.8	1961.75
807.0829	345.2992	2670	1904.65
807.2261	347.4976	2617.55	1855.5
807.3693	349.6955	2588.3	1816.9
807.5126	351.8927	2570.25	1801.9
807.6559	354.0895	2551.7	1770.45
807.7991	356.2856	2531	1756.5
807.9424	358.4812	2522	1749.95
808.0857	360.6763	2519.8	1743.7
808.2291	362.8707	2515.8	1741.45
808.3724	365.0646	2518.85	1740.1
808.5158	367.258	2528.6	1749.2
808.6591	369.4508	2535.75	1752.45
808.8025	371.643	2568.7	1784.8
808.9459	373.8346	2607.25	1822.75
809.0893	376.0257	2641.2	1851.65
809.2327	378.2162	2669.45	1884.9
809.3762	380.4062	2686.95	1900.4
809.5196	382.5956	2666.8	1882.15
809.6631	384.7844	2621.15	1839.9
809.8066	386.9726	2559.2	1779.1
809.9501	389.1603	2527.3	1750.6
810.0936	391.3474	2538.35	1729.1
810.2371	393.5339	2516.7	1735.55
810.3806	395.7199	2524.35	1743.65
810.5241	397.9052	2548.3	1767.45
810.6677	400.09	2580.95	1796.6
810.8113	402.2743	2649.95	1869.45
810.9548	404.4579	2690.95	1906.95
811.0984	406.641	2733.85	1949.55
811.2421	408.8235	2777.55	1992.7
811.3857	411.0054	2828.15	2039
811.5293	413.1868	2884.9	2092.6
811.673	415.3675	2946.3	2150.15
811.8166	417.5477	2949.25	2153.4
811.9603	419.7273	2888.45	2088.9
812.104	421.9064	2801.75	1997.2
812.2477	424.0848	2745.25	1946.9
812.3914	426.2627	2671.6	1873.25
812.5351	428.4399	2602	1800.1
812.6788	430.6166	2542.15	1737.2
812.8226	432.7928	2489.65	1685.85
812.9663	434.9683	2446.9	1644.55
813.1101	437.1432	2423.15	1617.45
813.2539	439.3176	2403.3	1599.15
813.3977	441.4914	2388.35	1584.3
813.5415	443.6645	2379.8	1574.8
813.6853	445.8371	2386.4	1579.5
813.8291	448.0091	2382	1572.7
813.973	450.1806	2382.45	1577.1
814.1168	452.3514	2375.95	1568.35
814.2607	454.5216	2385.3	1568.45
814.4046	456.6913	2370.4	1558.4
814.5485	458.8603	2370.35	1558.3
814.6924	461.0288	2381.25	1573.3
814.8363	463.1967	2379.8	1571.1
814.9802	465.3639	2379.7	1570.25
815.1241	467.5306	2375.4	1564
815.2681	469.6967	2361.2	1548.45
815.412	471.8622	2352.4	1542.7
815.556	474.0271	2343.6	1534.4
815.7	476.1914	2350.35	1533.95
815.844	478.3551	2339.5	1525.6
815.988	480.5182	2344.4	1530.55
816.132	482.6807	2335.15	1521.85
816.276	484.8426	2370.5	1559.7
816.4201	487.0039	2409.85	1597.2
816.5641	489.1647	2462.1	1645.55
816.7082	491.3248	2510.1	1693.55
816.8522	493.4843	2529.35	1716.3
816.9963	495.6432	2533.6	1718.6
817.1404	497.8015	2493.25	1672.7
817.2845	499.9592	2444.8	1620.8
817.4286	502.1163	2385.2	1563
817.5727	504.2728	2351.5	1530.7
817.7168	506.4287	2315.95	1497.5
817.861	508.5839	2306.55	1487.75
818.0051	510.7386	2289.75	1470.4
818.1493	512.8927	2304.85	1475.5
818.2935	515.0461	2314.45	1491.65
818.4377	517.199	2329.65	1504.05
818.5818	519.3512	2372.05	1547.5
818.726	521.5029	2438.1	1608.6
818.8703	523.6539	2504.85	1678.15
819.0145	525.8043	2511.7	1686.1
819.1587	527.9541	2452.75	1623.75
819.303	530.1033	2384.05	1551.7
819.4472	532.2519	2329.3	1499.6
819.5915	534.3999	2306.75	1474.85
819.7357	536.5472	2297.1	1469.6
819.88	538.694	2297.1	1468.35
820.0243	540.8401	2310.35	1477.35
820.1686	542.9856	2333.5	1501.25
820.3129	545.1305	2350.35	1513.55
820.4572	547.2748	2355.95	1520.5
820.6016	549.4185	2376.45	1538.8
820.7459	551.5615	2380	1543.95
820.8902	553.704	2400.25	1565.15
821.0346	555.8458	2420.35	1587.5
821.1789	557.987	2421.35	1587.05
821.3233	560.1276	2459.45	1626.3
821.4677	562.2675	2522.6	1690.4
821.6121	564.4069	2610.85	1775.35
821.7565	566.5456	2641.8	1808.95
821.9009	568.6837	2627.15	1792.8
822.0453	570.8212	2544	1709.75
822.1897	572.958	2442.25	1603.85
822.3342	575.0942	2382.75	1547.5
822.4786	577.2299	2334.7	1499.7
822.6231	579.3648	2309.5	1477.9
822.7675	581.4992	2291.45	1460.8
822.912	583.6329	2303.4	1472.05
823.0565	585.766	2340.45	1509.1
823.201	587.8985	2378.7	1547.4
823.3454	590.0304	2438.9	1588.25
823.4899	592.1616	2477.3	1635.55
823.6345	594.2922	2478.65	1635.9
823.779	596.4222	2443.9	1601.4
823.9235	598.5515	2384.75	1540.9
824.068	600.6802	2316.8	1476.8
824.2126	602.8083	2255.3	1413.95
824.3571	604.9358	2250.9	1406.7
824.5017	607.0626	2239.75	1394.6
824.6462	609.1888	2255.45	1410.8
824.7908	611.3144	2285.45	1439.55
824.9354	613.4393	2326.15	1478.8
825.08	615.5636	2372.9	1526.05
825.2246	617.6873	2434.95	1588.95
825.3692	619.8103	2466.5	1615.9
825.5138	621.9327	2473.35	1622.75
825.6584	624.0544	2428.2	1580.9
825.803	626.1756	2370.1	1525.7
825.9477	628.2961	2305.8	1458.5
826.0923	630.4159	2284.9	1437.05
826.237	632.5351	2266.9	1414.95
826.3816	634.6537	2255.95	1403.45
826.5263	636.7716	2244.75	1391.7
826.6709	638.8889	2251.05	1398.3
826.8156	641.0056	2266.9	1413.4
826.9603	643.1216	2274.9	1423.35
827.105	645.237	2270	1416.35
827.2497	647.3518	2256.4	1407.5
827.3944	649.4659	2212.8	1363.85
827.5391	651.5793	2183.2	1334.05
827.6838	653.6922	2180.65	1330.05
827.8285	655.8043	2166.5	1316.3
827.9733	657.9159	2150.55	1298
828.118	660.0268	2151.5	1295.5
828.2627	662.137	2147.1	1292.65
828.4075	664.2466	2154.95	1298.35
828.5522	666.3556	2155.9	1297.1
828.697	668.4639	2147	1288.45
828.8418	670.5716	2129.9	1275.75
828.9865	672.6786	2127.05	1270.5
829.1313	674.785	2116.7	1257.9
829.2761	676.8907	2103.05	1245.8
829.4209	678.9958	2119.5	1264.4
829.5657	681.1002	2116.05	1257.65
829.7105	683.204	2126.7	1264.15
829.8553	685.3072	2115.5	1257.45
830.0001	687.4097	2109.3	1248.9
830.1449	689.5115	2110.7	1247.95
830.2898	691.6127	2100.85	1243
830.4346	693.7132	2095.95	1237.8
830.5794	695.8131	2117.15	1244.25
830.7243	697.9123	2105.5	1244.15
830.8691	700.0109	2098.95	1237.5
831.014	702.1089	2119.65	1256.65
831.1588	704.2061	2133.7	1271.55
831.3037	706.3028	2166.3	1301.85
831.4486	708.3987	2185.9	1320.15
831.5935	710.4941	2196.5	1334.7
831.7383	712.5887	2200.9	1338.15
831.8832	714.6827	2198.95	1333.1
832.0281	716.7761	2193.95	1332.75
832.173	718.8688	2190.4	1325.6
832.3179	720.9608	2190.95	1321.45
832.4628	723.0522	2208.45	1336.4
832.6077	725.1429	2217.85	1350.65
832.7527	727.233	2268.1	1401.25
832.8976	729.3224	2330.65	1465.95
833.0425	731.4112	2386.8	1520.5
833.1874	733.4993	2406.05	1539
833.3324	735.5867	2354.6	1489.4
833.4773	737.6735	2272.2	1402.55
833.6222	739.7596	2207.65	1336.7
833.7672	741.845	2171.15	1303.8
833.9122	743.9298	2178.9	1309.95
834.0571	746.014	2171.15	1303.05
834.2021	748.0974	2177.6	1308.15
834.347	750.1802	2185.05	1314.05
834.492	752.2624	2174.65	1303.55
834.637	754.3439	2162.4	1294.75
834.782	756.4247	2171.9	1294.85
834.9269	758.5048	2168.45	1298.8
835.0719	760.5843	2183.05	1311.2
835.2169	762.6631	2216.45	1345.55
835.3619	764.7413	2266.5	1394.8
835.5069	766.8188	2378.45	1504.3
835.6519	768.8956	2446.7	1575.65
835.7969	770.9718	2511.8	1642
835.9419	773.0473	2501.95	1631.15
836.0869	775.1221	2456.2	1584.7
836.232	777.1962	2444.65	1574
836.377	779.2697	2507.1	1633.55
836.522	781.3426	2642.35	1750
836.667	783.4147	2701.7	1829.3
836.8121	785.4862	2693.35	1821.2
836.9571	787.557	2605.9	1732.55
837.1021	789.6271	2452.65	1579.8
837.2472	791.6966	2322.85	1449.1
837.3922	793.7654	2209.45	1334.05
837.5373	795.8335	2150.25	1278.15
837.6823	797.901	2105.15	1232.75
837.8274	799.9678	2110.3	1234.05
837.9724	802.0339	2096.35	1222.55
838.1175	804.0993	2108.7	1223.75
838.2626	806.1641	2099.2	1224.5
838.4076	808.2282	2074.75	1199.4
838.5527	810.2916	2056.95	1180.85
838.6978	812.3544	2044.65	1169.9
838.8428	814.4164	2041.9	1167.7
838.9879	816.4778	2038.25	1161.4
839.133	818.5385	2050.25	1170.05
839.2781	820.5986	2093.45	1216.4
839.4232	822.658	2146	1267.3
839.5682	824.7166	2213.1	1337.4
839.7133	826.7747	2305.9	1429.6
839.8584	828.832	2386.35	1508.2
840.0035	830.8886	2464.3	1584.95
840.1486	832.9446	2493	1616.85
840.2937	834.9999	2458.75	1581.35
840.4388	837.0545	2376.95	1495.45
840.5839	839.1085	2287.6	1405.2
840.729	841.1618	2205.6	1321.6
840.8741	843.2143	2134.05	1254.05
841.0192	845.2662	2098	1216.7
841.1643	847.3175	2084.75	1204.8
841.3095	849.368	2073.55	1194.4
841.4546	851.4179	2068.1	1188.9
841.5997	853.467	2057.5	1178.5
841.7448	855.5155	2080.95	1199.55
841.8899	857.5633	2078.75	1197.95
842.0351	859.6105	2078.1	1198.2
842.1802	861.6569	2063.1	1182.45
842.3253	863.7027	2047.4	1163.95
842.4704	865.7478	2033.05	1149.65
842.6156	867.7922	2021.15	1142
842.7607	869.8359	2014.75	1134.85
842.9058	871.8789	2005.45	1122
843.0509	873.9212	2019.25	1106.8
843.1961	875.9629	2011.85	1129.35
843.3412	878.0039	2021.95	1137.75
843.4863	880.0441	2049.25	1167.15
843.6315	882.0837	2060	1177.2
843.7766	884.1226	2081.75	1199.15
843.9218	886.1609	2124.6	1242.55
844.0669	888.1984	2177	1295.3
844.212	890.2352	2235.8	1351.2
844.3572	892.2714	2237	1348.25
844.5023	894.3069	2218.95	1334.95
844.6475	896.3416	2158.95	1273.6
844.7926	898.3757	2110.9	1226.45
844.9377	900.4091	2084.05	1199.3
845.0829	902.4418	2084.45	1195.1
845.228	904.4739	2112.7	1224.1
845.3732	906.5052	2128.5	1240.1
845.5183	908.5358	2125.7	1241.4
845.6635	910.5658	2099.55	1212.45
845.8086	912.595	2053.1	1168.1
845.9538	914.6236	2021.3	1137.5
846.0989	916.6515	1976.7	1092.5
846.2441	918.6786	1966.85	1079.45
846.3892	920.7051	1958.85	1072.2
846.5344	922.7309	1955.5	1067.55
846.6795	924.756	1954.25	1067.5
846.8246	926.7804	1966.35	1078.25
846.9698	928.8041	1978.1	1088.65
847.1149	930.8272	2004.95	1117.95
847.2601	932.8495	2014.9	1128.95
847.4052	934.8711	2009.1	1121.7
847.5504	936.892	2014.2	1126.85
847.6955	938.9123	2048.2	1160.55
847.8407	940.9318	2072.4	1184.45
847.9858	942.9506	2098.5	1208.4
848.131	944.9688	2078.9	1191.55
848.2761	946.9862	2051.65	1163.8
848.4213	949.003	2013.7	1124.35
848.5664	951.019	1987.65	1100.45
848.7115	953.0344	1966.15	1078
848.8567	955.0491	1953.15	1066.95
849.0018	957.063	1950.25	1060.95
849.147	959.0763	1947.1	1059.85
849.2921	961.0888	1938.8	1046.05
849.4373	963.1007	1950.35	1061.95
849.5824	965.1119	1924.5	1040.3
849.7275	967.1223	1912.6	1031.7
849.8727	969.1321	1910.35	1027.45
850.0178	971.1412	1913.25	1028.9
850.1629	973.1495	1904.4	1018.65
850.3081	975.1572	1931.45	1011.25
850.4532	977.1641	1909.1	1020.3
850.5983	979.1704	1913.15	1022.1
850.7435	981.1759	1908.3	1017.65
850.8886	983.1808	1899.9	1007.7
851.0337	985.1849	1895.3	994.95
851.1788	987.1884	1891.75	1002.7
851.324	989.1911	1887.55	996.95
851.4691	991.1932	1904.55	1014.5
851.6142	993.1945	1903.4	1017.9
851.7593	995.1951	1898.35	1008.55
851.9045	997.1951	1914.3	1019.15
852.0496	999.1943	1890.65	1001.25
852.1947	1001.1928	1892.15	1001.6
852.3398	1003.1906	1904.95	1015.95
852.4849	1005.1877	1928.75	1037
852.63	1007.1841	1946.45	1056.95
852.7751	1009.1798	1988.7	1101.2
852.9202	1011.1748	1965.8	1077.8
853.0653	1013.1691	1938.05	1046.55
853.2104	1015.1627	1900.1	1009.8
853.3555	1017.1556	1866.3	979.6
853.5006	1019.1477	1854.25	963.9
853.6457	1021.1392	1830.65	945.55
853.7908	1023.1299	1820.55	936.1
853.9359	1025.12	1825.15	937.05
854.081	1027.1093	1816.35	933.8
854.2261	1029.0979	1841.8	962.7
854.3712	1031.0859	1859.7	978.3
854.5163	1033.0731	1882.05	996.5
854.6613	1035.0596	1887.5	1002.75
854.8064	1037.0454	1881.8	993.1
854.9515	1039.0304	1857.9	969.45
855.0965	1041.0148	1832.15	941.95
855.2416	1042.9985	1823.2	932.35
855.3867	1044.9814	1801.4	911.25
855.5317	1046.9636	1799.75	909.05
855.6768	1048.9452	1811.45	924.5
855.8219	1050.926	1826.2	936.3
855.9669	1052.9061	1852.95	962.25
856.112	1054.8855	1849.8	957.2
856.257	1056.8642	1856.8	965.35
856.4021	1058.8421	1847.85	953.85
856.5471	1060.8194	1847.45	956.1
856.6921	1062.7959	1849.3	959
856.8372	1064.7717	1853.3	960.3
856.9822	1066.7469	1836.3	943.4
857.1272	1068.7213	1851.6	956.9
857.2723	1070.695	1854.6	963.4
857.4173	1072.6679	1875.4	982.55
857.5623	1074.6402	1915.4	1023.3
857.7073	1076.6117	1927.5	1031.8
857.8523	1078.5826	1899.25	1007.55
857.9973	1080.5527	1859.1	961.65
858.1423	1082.5221	1819.35	927.1
858.2873	1084.4908	1794.1	902.2
858.4323	1086.4587	1777.55	885.35
858.5773	1088.426	1766.65	871.9
858.7223	1090.3925	1765.05	864.4
858.8673	1092.3584	1770.65	879.7
859.0123	1094.3235	1775.55	884.75
859.1573	1096.2879	1800.05	910.1
859.3022	1098.2515	1830.2	937.95
859.4472	1100.2145	1853.4	962.85
859.5922	1102.1767	1886.85	995.35
859.7371	1104.1382	1935	1042.3
859.8821	1106.099	1996.95	1103.25
860.027	1108.0591	2037	1145.8
860.172	1110.0185	2083.9	1190.55
860.3169	1111.9771	2126.45	1233.7
860.4619	1113.9351	2175.75	1282
860.6068	1115.8923	2251	1357.8
860.7517	1117.8488	2283.25	1392
860.8967	1119.8045	2241.8	1348.05
861.0416	1121.7596	2134.05	1241.2
861.1865	1123.7139	2013.9	1121.75
861.3314	1125.6675	1956.75	1065.4
861.4763	1127.6204	1946.8	1055.95
861.6212	1129.5726	1973.95	1079.35
861.7661	1131.524	1962.55	1072.65
861.911	1133.4748	1935.45	1043.75
862.0559	1135.4248	1874.15	981.95
862.2008	1137.3741	1811.1	918.75
862.3457	1139.3226	1781.6	887.9
862.4905	1141.2705	1777.8	883.7
862.6354	1143.2176	1786.05	885.95
862.7803	1145.164	1803.3	908.35
862.9251	1147.1097	1801	907.15
863.07	1149.0546	1784.1	889.05
863.2148	1150.9989	1752.35	862.5
863.3597	1152.9424	1739.6	845.4
863.5045	1154.8852	1716.9	821.05
863.6493	1156.8272	1712	820.05
863.7942	1158.7686	1708.65	807.5
863.939	1160.7092	1712	818
864.0838	1162.6491	1714.7	816.9
864.2286	1164.5883	1725.7	830.8
864.3734	1166.5267	1738.3	843.2
864.5182	1168.4644	1761.1	867.6
864.663	1170.4014	1793.2	899.9
864.8078	1172.3377	1838.4	946.2
864.9526	1174.2732	1886.35	995.5
865.0974	1176.2081	1990.45	1098.25
865.2421	1178.1421	2112.6	1216.4
865.3869	1180.0755	2255.15	1362.95
865.5317	1182.0082	2331.05	1438.05
865.6764	1183.9401	2321.4	1427.2
865.8212	1185.8713	2214.35	1323.65
865.9659	1187.8017	2078.1	1189.05
866.1106	1189.7315	1944.4	1058.65
866.2554	1191.6605	1881.95	967.3
866.4001	1193.5888	1813.55	924.2
866.5448	1195.5163	1781.5	892.25
866.6895	1197.4432	1755.2	861.75
866.8342	1199.3693	1747.3	855.35
866.9789	1201.2947	1717.55	821.95
867.1236	1203.2193	1717.9	824.2
867.2683	1205.1432	1714.2	819.8
867.413	1207.0664	1704.9	810.95
867.5576	1208.9889	1714.2	817.2
867.7023	1210.9106	1712.55	819.7
867.847	1212.8316	1711.9	819.8
867.9916	1214.7519	1734.1	832.2
868.1363	1216.6715	1731.15	837.1
868.2809	1218.5903	1751.55	857.7
868.4255	1220.5084	1766.85	875.7
868.5701	1222.4257	1778.2	886.05
868.7148	1224.3424	1794	902.7
868.8594	1226.2583	1813.65	916.75
869.004	1228.1735	1842.2	945
869.1486	1230.0879	1864.05	968.3
869.2932	1232.0016	1922.2	1027.25
869.4377	1233.9146	1959.75	1065.1
869.5823	1235.8269	1976.25	1083.5
869.7269	1237.7384	1981.9	1085
869.8715	1239.6492	1976.2	1082.75
870.016	1241.5592	2001.45	1107.4
870.1606	1243.4686	2046.4	1151.95
870.3051	1245.3772	2113.25	1221.1
870.4496	1247.285	2208.8	1313.15
