Software Version:	3.9.2.0
Unit SN:	10000200
Spectrometer SN:	6960
Date:	3/8/2024 1:45:26 PM
Data Line Index:	25
Spectral Points:	2048
Integration time (ms):	125
Averages:	20
Delay (ms):	30000
Sequence Number:	1
Processing:	dark subtract
Laser Power (mW):	300
Laser Current (mA):	823
Laser Diode Temp (C):	25.1
Laser Case Temp (C):	26.3
System Temp (C):	26.3
Spectrometer Temp (C):	24.1
CCD Temp (C):	0.005
Secondary Temp (C):	20.006
Heatsink Temp (C):	21.327
CCDPCB Temp (C):	36.162
SecondaryPCB Temp (C):	31.016

Wavelength	RamanShift	Raw Counts	Dark Subtracted
787.061	30.1047	467.9	58.65
787.2016	32.3739	473.2	66.25
787.3422	34.6426	476	66.3
787.4828	36.9109	481.85	70.05
787.6235	39.1787	492.2	80.1
787.7642	41.4461	503.4	84.65
787.9049	43.7131	510.15	87.45
788.0456	45.9796	517.55	96.85
788.1863	48.2456	526.3	97.65
788.3271	50.5112	541.55	110.3
788.4679	52.7764	552.4	118.65
788.6087	55.0411	562.4	120.4
788.7496	57.3054	574.9	130.45
788.8904	59.5692	586	138.45
789.0313	61.8326	598.25	149.4
789.1722	64.0955	607.95	154.95
789.3132	66.3579	629.8	172
789.4541	68.6199	645.55	183.45
789.5951	70.8815	689.85	223.95
789.7361	73.1426	771.95	301.35
789.8771	75.4032	993.15	518.85
790.0181	77.6634	1533.25	1053.1
790.1592	79.9231	2805.25	2317.7
790.3003	82.1824	5583.05	5080.15
790.4414	84.4412	10598.15	10065.7
790.5825	86.6995	17571.95	16996.45
790.7237	88.9574	24366.35	23762.4
790.8648	91.2148	29071.2	28444.65
791.006	93.4717	31271.6	30626.55
791.1472	95.7282	31819.2	31167.5
791.2885	97.9842	31813.6	31157.65
791.4297	100.2398	31346.05	30689.65
791.571	102.4949	30728.1	30067.6
791.7123	104.7495	30015.25	29347.9
791.8536	107.0036	29205.6	28543.7
791.9949	109.2573	28475.55	27813.8
792.1363	111.5105	27782.45	27114.65
792.2777	113.7632	27124.8	26458.2
792.4191	116.0154	26524.6	25848.7
792.5605	118.2672	26135.3	25464.95
792.7019	120.5185	25663.9	24985.8
792.8434	122.7693	25370.25	24692.5
792.9849	125.0197	25073	24391.8
793.1264	127.2696	24808.65	24123.9
793.2679	129.519	24678.1	23986.9
793.4094	131.7679	24475.35	23781.95
793.551	134.0163	24364.95	23667.05
793.6926	136.2642	24206.65	23505.9
793.8342	138.5117	24030.1	23327.05
793.9758	140.7587	23755.65	23052.6
794.1175	143.0052	23590.3	22884.55
794.2591	145.2512	23358.2	22649.15
794.4008	147.4967	23138.6	22434.3
794.5425	149.7417	22990.15	22282.35
794.6842	151.9863	22892.75	22175.05
794.826	154.2304	22802.2	22085.65
794.9677	156.4739	22689.05	21963.2
795.1095	158.717	22649.95	21923.65
795.2513	160.9596	22495.9	21770.3
795.3931	163.2017	22237.65	21510.2
795.535	165.4433	21981.5	21250.2
795.6768	167.6844	21686.8	20952.45
795.8187	169.925	21395.55	20664
795.9606	172.1651	21031.4	20294.85
796.1025	174.4047	20771.7	20032.55
796.2445	176.6439	20560.35	19823.35
796.3864	178.8825	20342.1	19596.25
796.5284	181.1206	20177.1	19421.1
796.6704	183.3582	20046.05	19291.6
796.8124	185.5954	19920.15	19160.45
796.9544	187.832	19881.15	19122.2
797.0965	190.0681	19870.6	19105.5
797.2386	192.3037	19893.05	19127.4
797.3806	194.5388	19898.3	19127.65
797.5228	196.7734	19989.35	19218.6
797.6649	199.0075	20108.55	19335.1
797.807	201.2411	20252.95	19478.1
797.9492	203.4742	20372.35	19597.75
798.0914	205.7068	20513.9	19731.05
798.2336	207.9389	20649.85	19863.85
798.3758	210.1704	20820.2	20044.5
798.518	212.4015	20941.7	20180.15
798.6603	214.632	21125.85	20365.5
798.8025	216.862	21330.75	20573.35
798.9448	219.0915	21499.35	20737.5
799.0871	221.3205	21708.7	20946.45
799.2294	223.549	22007.1	21248.65
799.3718	225.777	22324.9	21564.45
799.5141	228.0044	22658.9	21891.7
799.6565	230.2314	23138.5	22371.1
799.7989	232.4578	23523.85	22755.45
799.9413	234.6837	23871.05	23090.1
800.0837	236.909	24115.6	23334.1
800.2262	239.1339	24093.2	23288.45
800.3687	241.3582	23916.7	23121.65
800.5111	243.582	23645.15	22823.2
800.6536	245.8053	23331.25	22524.65
800.7961	248.0281	23076.9	22273.65
800.9387	250.2503	22818.3	22012.35
801.0812	252.472	22718.6	21907.6
801.2238	254.6932	22714.95	21908.7
801.3664	256.9139	22640.5	21836.7
801.509	259.134	22703.95	21890.6
801.6516	261.3536	22763.6	21952.7
801.7942	263.5727	22810.2	21998
801.9369	265.7912	22800.45	21984.4
802.0795	268.0092	22911.05	22098.95
802.2222	270.2267	22892.15	22080.55
802.3649	272.4436	22905.6	22094.5
802.5076	274.6601	22869.15	22044
802.6504	276.8759	22786.25	21969.15
802.7931	279.0913	22777.1	21959.55
802.9359	281.3061	22737.05	21915.05
803.0787	283.5204	22779.05	21953.9
803.2215	285.7341	22906.15	22076.6
803.3643	287.9473	23054.5	22216.6
803.5071	290.16	23281.95	22450.2
803.6499	292.3721	23617.05	22791.7
803.7928	294.5837	24019.85	23194.05
803.9357	296.7947	24404.35	23578
804.0786	299.0052	24568.6	23741.6
804.2215	301.2152	24429.6	23596.9
804.3644	303.4246	24141.45	23317.9
804.5074	305.6334	23655.6	22829.35
804.6503	307.8418	23107.5	22278.9
804.7933	310.0495	22733.25	21901.35
804.9363	312.2568	22465.9	21635.45
805.0793	314.4635	22204.95	21368.5
805.2223	316.6696	22149.1	21310.35
805.3653	318.8752	22104.85	21260.25
805.5084	321.0802	22126.45	21284.6
805.6514	323.2847	22230.05	21387.8
805.7945	325.4887	22289.85	21445.05
805.9376	327.692	22235.7	21393.05
806.0807	329.8949	22178.1	21334.95
806.2238	332.0972	21919.85	21075.3
806.367	334.2989	21703.5	20855
806.5101	336.5001	21397.05	20548.6
806.6533	338.7007	21207.35	20358.9
806.7965	340.9008	21144.5	20293.45
806.9397	343.1003	21059.8	20206.4
807.0829	345.2992	21011.15	20159.45
807.2261	347.4976	21002.6	20147.15
807.3693	349.6955	21044.05	20186.05
807.5126	351.8927	21107.35	20247.9
807.6559	354.0895	21090	20219.45
807.7991	356.2856	21150.3	20288.85
807.9424	358.4812	21134.95	20274.75
808.0857	360.6763	21197.85	20333.55
808.2291	362.8707	21175.6	20312.85
808.3724	365.0646	21261.45	20394.3
808.5158	367.258	21295	20432.95
808.6591	369.4508	21341	20468.8
808.8025	371.643	21443.15	20571.05
808.9459	373.8346	21393.2	20521.85
809.0893	376.0257	21412.45	20536.4
809.2327	378.2162	21351.95	20476.35
809.3762	380.4062	21278.55	20404.75
809.5196	382.5956	21119.8	20247.3
809.6631	384.7844	21077.85	20214.15
809.8066	386.9726	20962.9	20100.25
809.9501	389.1603	20881.2	20018.05
810.0936	391.3474	20924.8	20026.7
810.2371	393.5339	20919.4	20049.45
810.3806	395.7199	20841.05	19976.65
810.5241	397.9052	20869.35	20004.3
810.6677	400.09	20893.25	20027.9
810.8113	402.2743	21030.25	20163.55
810.9548	404.4579	21071.1	20204.1
811.0984	406.641	21276.35	20411.8
811.2421	408.8235	21549.8	20678.5
811.3857	411.0054	21826.65	20955.4
811.5293	413.1868	22264.35	21388.9
811.673	415.3675	22567.25	21689.9
811.8166	417.5477	22752.75	21870.65
811.9603	419.7273	22774	21893.15
812.104	421.9064	22695.9	21811.05
812.2477	424.0848	22588.1	21711.45
812.3914	426.2627	22378.9	21496.5
812.5351	428.4399	22107.3	21226.8
812.6788	430.6166	21801.85	20917.5
812.8226	432.7928	21398.15	20509
812.9663	434.9683	21106.15	20223.05
813.1101	437.1432	20912.45	20032
813.2539	439.3176	20736.55	19858.35
813.3977	441.4914	20637.15	19763.3
813.5415	443.6645	20644.65	19770.45
813.6853	445.8371	20524.75	19641.2
813.8291	448.0091	20503.05	19619.75
813.973	450.1806	20476.9	19599
814.1168	452.3514	20404.8	19523.8
814.2607	454.5216	20446.8	19553.7
814.4046	456.6913	20408.65	19524.55
814.5485	458.8603	20447	19564.8
814.6924	461.0288	20533.05	19655.7
814.8363	463.1967	20517.8	19642.45
814.9802	465.3639	20670.5	19791.5
815.1241	467.5306	20745.75	19863.95
815.2681	469.6967	20887.25	20011.85
815.412	471.8622	21003.5	20129.85
815.556	474.0271	21178.8	20298.8
815.7	476.1914	21255.4	20367.6
815.844	478.3551	21278.35	20390
815.988	480.5182	21277.3	20397.1
816.132	482.6807	21286.85	20415.75
816.276	484.8426	21440.3	20572
816.4201	487.0039	21749.65	20876.35
816.5641	489.1647	22178.4	21296.4
816.7082	491.3248	22579	21695.85
816.8522	493.4843	22764.15	21885.65
816.9963	495.6432	22775.25	21896.25
817.1404	497.8015	22665.8	21773.05
817.2845	499.9592	22709.55	21816.35
817.4286	502.1163	22637.5	21741.55
817.5727	504.2728	22369.35	21482.25
817.7168	506.4287	22131.05	21253.7
817.861	508.5839	21690.5	20812
818.0051	510.7386	21407.05	20523
818.1493	512.8927	21261.2	20371.85
818.2935	515.0461	21221.75	20328.05
818.4377	517.199	21186.5	20292.65
818.5818	519.3512	21213.1	20316.95
818.726	521.5029	21339.95	20445.05
818.8703	523.6539	21453.65	20559.2
819.0145	525.8043	21484.3	20590.55
819.1587	527.9541	21494.45	20598.05
819.303	530.1033	21500.25	20608.15
819.4472	532.2519	21487.05	20592.35
819.5915	534.3999	21627.6	20729.05
819.7357	536.5472	21885.45	20994.2
819.88	538.694	22393.5	21502.7
820.0243	540.8401	22935.75	22042.55
820.1686	542.9856	23429.7	22522.15
820.3129	545.1305	23549.3	22636.5
820.4572	547.2748	23481.85	22565.75
820.6016	549.4185	23113	22200.75
820.7459	551.5615	22766.6	21854.05
820.8902	553.704	22699.25	21788.95
821.0346	555.8458	22637.7	21732
821.1789	557.987	22724.55	21822.2
821.3233	560.1276	22750	21842.3
821.4677	562.2675	22828.75	21922.65
821.6121	564.4069	22908.65	22000.55
821.7565	566.5456	22945.65	22040.35
821.9009	568.6837	22872.2	21973.5
822.0453	570.8212	22596.85	21691.55
822.1897	572.958	22244.35	21338.1
822.3342	575.0942	21951.35	21049.8
822.4786	577.2299	21743.6	20845.15
822.6231	579.3648	21641.8	20754.15
822.7675	581.4992	21705.5	20828.95
822.912	583.6329	21900.55	21024.05
823.0565	585.766	22154.05	21271.9
823.201	587.8985	22282.1	21394.6
823.3454	590.0304	22298.95	21381.1
823.4899	592.1616	22216.9	21311.5
823.6345	594.2922	22120.65	21211.05
823.779	596.4222	21968.4	21053.2
823.9235	598.5515	21821.95	20907.5
824.068	600.6802	21663.45	20749.75
824.2126	602.8083	21467.9	20559.05
824.3571	604.9358	21452.3	20542.85
824.5017	607.0626	21406.2	20494.9
824.6462	609.1888	21385.9	20467.25
824.7908	611.3144	21405.25	20489.65
824.9354	613.4393	21284.65	20367.7
825.08	615.5636	21216.15	20298.45
825.2246	617.6873	21184.2	20266.55
825.3692	619.8103	21131.5	20209.95
825.5138	621.9327	21079.95	20162.7
825.6584	624.0544	21010.1	20100.1
825.803	626.1756	20967.35	20056
825.9477	628.2961	20925.45	20012.15
826.0923	630.4159	20881.95	19964.35
826.237	632.5351	20887.1	19970.2
826.3816	634.6537	20833.45	19911.9
826.5263	636.7716	20856.75	19934.75
826.6709	638.8889	20869.65	19945.55
826.8156	641.0056	20932.7	20009.7
826.9603	643.1216	20900.7	19977.35
827.105	645.237	20961.6	20040.5
827.2497	647.3518	20937.95	20028.5
827.3944	649.4659	20983.9	20072.6
827.5391	651.5793	20946.55	20039.2
827.6838	653.6922	20944.65	20035.9
827.8285	655.8043	20958.15	20046.05
827.9733	657.9159	20974.95	20057.55
828.118	660.0268	20895.75	19978.9
828.2627	662.137	20859.9	19941.85
828.4075	664.2466	20852.05	19925.35
828.5522	666.3556	20865.75	19940.75
828.697	668.4639	20825.05	19903.75
828.8418	670.5716	20898.8	19985.85
828.9865	672.6786	20978.25	20057.6
829.1313	674.785	21004.55	20081
829.2761	676.8907	21063.9	20141.05
829.4209	678.9958	21138.85	20221.2
829.5657	681.1002	21126.05	20204.15
829.7105	683.204	21133.5	20208.6
829.8553	685.3072	21101.8	20172.6
830.0001	687.4097	21041.75	20120.5
830.1449	689.5115	21061.8	20134.7
830.2898	691.6127	20980.1	20058.8
830.4346	693.7132	20931.3	20015.2
830.5794	695.8131	20929.05	19991.4
830.7243	697.9123	20951.1	20022.8
830.8691	700.0109	20943	20013
831.014	702.1089	20939.9	20012.4
831.1588	704.2061	20932.75	20007
831.3037	706.3028	21001.9	20069.95
831.4486	708.3987	21064.15	20137.2
831.5935	710.4941	21142.2	20215.1
831.7383	712.5887	21317.2	20395.65
831.8832	714.6827	21593.9	20666.95
832.0281	716.7761	21914.6	20991.4
832.173	718.8688	22280	21354.45
832.3179	720.9608	22471.8	21541.2
832.4628	723.0522	22558.2	21623.35
832.6077	725.1429	22384.8	21452.75
832.7527	727.233	22180.45	21251.65
832.8976	729.3224	22000.85	21072.2
833.0425	731.4112	21693.1	20763.3
833.1874	733.4993	21557.15	20626.65
833.3324	735.5867	21365	20437.35
833.4773	737.6735	21310.45	20379
833.6222	739.7596	21201.6	20269.95
833.7672	741.845	21143.2	20214.5
833.9122	743.9298	21124.3	20192.5
834.0571	746.014	21134.55	20206.35
834.2021	748.0974	21174.05	20235.75
834.347	750.1802	21140.1	20205.05
834.492	752.2624	21179.45	20246.55
834.637	754.3439	21263.2	20324.3
834.782	756.4247	21316.5	20371.95
834.9269	758.5048	21394.65	20456.35
835.0719	760.5843	21648.35	20710.45
835.2169	762.6631	21988.05	21051.7
835.3619	764.7413	22436.6	21498.15
835.5069	766.8188	23026.8	22091.35
835.6519	768.8956	23459.55	22520.6
835.7969	770.9718	23793.45	22858.25
835.9419	773.0473	23604.95	22673.25
836.0869	775.1221	23308.85	22373.6
836.232	777.1962	22965.75	22031.2
836.377	779.2697	22779	21840.65
836.522	781.3426	22888.1	21931.3
836.667	783.4147	23066.9	22127.5
836.8121	785.4862	23359.4	22424.95
836.9571	787.557	23365.45	22429.7
837.1021	789.6271	23037.85	22093.75
837.2472	791.6966	22502.2	21564.65
837.3922	793.7654	21952.6	21015.85
837.5373	795.8335	21666.55	20729.75
837.6823	797.901	21474.45	20536.85
837.8274	799.9678	21397.1	20458.8
837.9724	802.0339	21428.8	20491.95
838.1175	804.0993	21512.85	20561.9
838.2626	806.1641	21437.45	20498.45
838.4076	808.2282	21407.8	20470.5
838.5527	810.2916	21335.6	20394.65
838.6978	812.3544	21235.65	20299.05
838.8428	814.4164	21187.4	20250.95
838.9879	816.4778	21245.6	20304.75
839.133	818.5385	21221.05	20277
839.2781	820.5986	21291.9	20347.6
839.4232	822.658	21428.5	20479.8
839.5682	824.7166	21570.9	20631.9
839.7133	826.7747	21865.2	20921.9
839.8584	828.832	22119.35	21174.1
840.0035	830.8886	22239.45	21295.85
840.1486	832.9446	22389.55	21443.35
840.2937	834.9999	22383	21443.1
840.4388	837.0545	22415.35	21469.05
840.5839	839.1085	22374.45	21427.65
840.729	841.1618	22307.55	21357.75
840.8741	843.2143	22256.35	21312.7
841.0192	845.2662	22146.35	21207.05
841.1643	847.3175	22099.05	21154.1
841.3095	849.368	21984.65	21038.95
841.4546	851.4179	21915.8	20968.65
841.5997	853.467	21732	20791.25
841.7448	855.5155	21663.2	20720.3
841.8899	857.5633	21590.2	20646.75
842.0351	859.6105	21461.9	20518.25
842.1802	861.6569	21422.4	20477
842.3253	863.7027	21379.1	20430.15
842.4704	865.7478	21370.6	20426.2
842.6156	867.7922	21406.1	20459.35
842.7607	869.8359	21453.55	20508.1
842.9058	871.8789	21565.65	20618.45
843.0509	873.9212	21754.95	20779.55
843.1961	875.9629	21879.85	20930.3
843.3412	878.0039	22046	21102.7
843.4863	880.0441	22156.1	21212.55
843.6315	882.0837	22220.6	21277.9
843.7766	884.1226	22163.35	21219.4
843.9218	886.1609	22081.4	21139.15
844.0669	888.1984	22009.7	21065.5
844.212	890.2352	22086.55	21143.9
844.3572	892.2714	22019.8	21067.55
844.5023	894.3069	22044.4	21098.25
844.6475	896.3416	21940.6	20997.45
844.7926	898.3757	21885.15	20937.35
844.9377	900.4091	21925.1	20976.15
845.0829	902.4418	21891.25	20939.4
845.228	904.4739	21932.3	20979.2
845.3732	906.5052	21965.35	21013.5
845.5183	908.5358	21852.3	20905.7
845.6635	910.5658	21725.5	20774.95
845.8086	912.595	21556.85	20605.3
845.9538	914.6236	21370.75	20422.55
846.0989	916.6515	21368.15	20418.5
846.2441	918.6786	21304.1	20354.15
846.3892	920.7051	21434.05	20480.85
846.5344	922.7309	21548.95	20601.55
846.6795	924.756	21613.75	20671.75
846.8246	926.7804	21730.9	20783.4
846.9698	928.8041	21661.65	20713.8
847.1149	930.8272	21706.9	20757.15
847.2601	932.8495	21586.35	20635.55
847.4052	934.8711	21569.6	20622.3
847.5504	936.892	21383.4	20433.55
847.6955	938.9123	21265.65	20311.6
847.8407	940.9318	21209.65	20260.2
847.9858	942.9506	21065.1	20119.75
848.131	944.9688	20951.95	20006.5
848.2761	946.9862	20941.8	19989.7
848.4213	949.003	20851.3	19901.95
848.5664	951.019	20834.8	19883
848.7115	953.0344	20852.85	19904.25
848.8567	955.0491	20871.6	19923.05
849.0018	957.063	20993.4	20042.1
849.147	959.0763	21122.9	20173
849.2921	961.0888	21136.75	20188.25
849.4373	963.1007	21261.25	20311.85
849.5824	965.1119	21307.95	20368.6
849.7275	967.1223	21385.35	20453.2
849.8727	969.1321	21336.25	20405.5
850.0178	971.1412	21386.3	20446.4
850.1629	973.1495	21400.6	20454.45
850.3081	975.1572	21435.8	20434.5
850.4532	977.1641	21493.05	20542.75
850.5983	979.1704	21474.7	20524
850.7435	981.1759	21475.05	20522
850.8886	983.1808	21530.75	20581
851.0337	985.1849	21585.25	20626.65
851.1788	987.1884	21733.1	20782.05
851.324	989.1911	21889.7	20939
851.4691	991.1932	22006.05	21058.1
851.6142	993.1945	21998.95	21054
851.7593	995.1951	21950.65	21003.7
851.9045	997.1951	21963.95	21008.85
852.0496	999.1943	21866.55	20917.65
852.1947	1001.1928	21821	20871.9
852.3398	1003.1906	21766.45	20814.7
852.4849	1005.1877	21875.2	20924.55
852.63	1007.1841	21830.35	20881.4
852.7751	1009.1798	21762.9	20813.1
852.9202	1011.1748	21584.7	20637.15
853.0653	1013.1691	21382.45	20433.55
853.2104	1015.1627	21155.25	20206.25
853.3555	1017.1556	20932.15	19987.95
853.5006	1019.1477	20858.1	19911.55
853.6457	1021.1392	20729.4	19790.8
853.7908	1023.1299	20711.4	19771.15
853.9359	1025.12	20723.65	19789.1
854.081	1027.1093	20739.3	19819.25
854.2261	1029.0979	20852.15	19933.15
854.3712	1031.0859	20870	19944.75
854.5163	1033.0731	20866.2	19933.6
854.6613	1035.0596	20816.75	19881.65
854.8064	1037.0454	20642.15	19699.9
854.9515	1039.0304	20519.2	19574.45
855.0965	1041.0148	20368	19422.75
855.2416	1042.9985	20291.15	19347.3
855.3867	1044.9814	20306.55	19360.6
855.5317	1046.9636	20193.8	19250.9
855.6768	1048.9452	20149.75	19207.65
855.8219	1050.926	20191.6	19246.45
855.9669	1052.9061	20210.9	19263.65
856.112	1054.8855	20224	19281.8
856.257	1056.8642	20264.5	19317.7
856.4021	1058.8421	20327.05	19376.3
856.5471	1060.8194	20311.5	19365.35
856.6921	1062.7959	20339.25	19393.15
856.8372	1064.7717	20368.6	19418.75
856.9822	1066.7469	20412.35	19464.15
857.1272	1068.7213	20385.3	19435
857.2723	1070.695	20434.6	19483.9
857.4173	1072.6679	20354.55	19411.3
857.5623	1074.6402	20320.9	19374.2
857.7073	1076.6117	20334.5	19380.1
857.8523	1078.5826	20324.75	19379.55
857.9973	1080.5527	20313.85	19361.45
858.1423	1082.5221	20359.75	19414.2
858.2873	1084.4908	20516.9	19571.25
858.4323	1086.4587	20646.85	19702.95
858.5773	1088.426	20768.1	19819.45
858.7223	1090.3925	20762.45	19810.15
858.8673	1092.3584	20765.15	19819.85
859.0123	1094.3235	20599.6	19657.3
859.1573	1096.2879	20569.85	19623.85
859.3022	1098.2515	20536.65	19592.2
859.4472	1100.2145	20607.5	19662
859.5922	1102.1767	20727.15	19777
859.7371	1104.1382	20913.15	19968.7
859.8821	1106.099	21099.25	20151.7
860.027	1108.0591	21281.85	20336.65
860.172	1110.0185	21436.4	20487.1
860.3169	1111.9771	21451.45	20506.85
860.4619	1113.9351	21243.75	20298.45
860.6068	1115.8923	20975.05	20029.65
860.7517	1117.8488	20735	19786.2
860.8967	1119.8045	20409.45	19466.55
861.0416	1121.7596	20313.55	19369.25
861.1865	1123.7139	20219.75	19274.25
861.3314	1125.6675	20211.85	19268.95
861.4763	1127.6204	20328.45	19386.15
861.6212	1129.5726	20262.75	19319.45
861.7661	1131.524	20237.25	19291.75
861.911	1133.4748	20253.2	19303.85
862.0559	1135.4248	20177.3	19232.05
862.2008	1137.3741	20149.6	19204.35
862.3457	1139.3226	20100.4	19153.9
862.4905	1141.2705	20055.7	19109.1
862.6354	1143.2176	19958.3	19010.45
862.7803	1145.164	19964.45	19016.1
862.9251	1147.1097	19964.05	19014.25
863.07	1149.0546	19942.7	18995.15
863.2148	1150.9989	19852.3	18906.1
863.3597	1152.9424	19760.9	18817.8
863.5045	1154.8852	19596.1	18651.2
863.6493	1156.8272	19505.15	18566.55
863.7942	1158.7686	19485.15	18531.4
863.939	1160.7092	19383.95	18433.85
864.0838	1162.6491	19363.25	18413.15
864.2286	1164.5883	19500.4	18553.3
864.3734	1166.5267	19561.4	18613.4
864.5182	1168.4644	19692.3	18745.55
864.663	1170.4014	19873.8	18929.3
864.8078	1172.3377	20111.6	19169.15
864.9526	1174.2732	20377.45	19437.8
865.0974	1176.2081	20630.4	19687.45
865.2421	1178.1421	20891.9	19942.25
865.3869	1180.0755	21190.4	20248.95
865.5317	1182.0082	21249.3	20310.25
