Software Version:	3.9.2.0
Unit SN:	10000200
Spectrometer SN:	6960
Date:	3/8/2024 12:40:48 PM
Data Line Index:	25
Spectral Points:	2048
Integration time (ms):	125
Averages:	20
Delay (ms):	30000
Sequence Number:	1
Processing:	dark subtract
Laser Power (mW):	300
Laser Current (mA):	823
Laser Diode Temp (C):	25
Laser Case Temp (C):	26.1
System Temp (C):	26
Spectrometer Temp (C):	23.9
CCD Temp (C):	0.007
Secondary Temp (C):	20.006
Heatsink Temp (C):	21.092
CCDPCB Temp (C):	35.773
SecondaryPCB Temp (C):	29.07

Wavelength	RamanShift	Raw Counts	Dark Subtracted
787.061	30.1047	456.8	47.3
787.2016	32.3739	456.9	48.6
787.3422	34.6426	463.15	51.75
787.4828	36.9109	470.85	60.25
787.6235	39.1787	478.95	61.8
787.7642	41.4461	488.05	69.25
787.9049	43.7131	494.15	71.1
788.0456	45.9796	503.8	78.2
788.1863	48.2456	514.3	85.95
788.3271	50.5112	521.9	89.15
788.4679	52.7764	527.1	92.1
788.6087	55.0411	540.15	98.55
788.7496	57.3054	552.7	106.15
788.8904	59.5692	562.8	114.65
789.0313	61.8326	575.7	125.95
789.1722	64.0955	584.9	132.15
789.3132	66.3579	604.1	146.1
789.4541	68.6199	621.85	156.4
789.5951	70.8815	661.2	193.15
789.7361	73.1426	747.4	276.15
789.8771	75.4032	967.7	493.1
790.0181	77.6634	1521.6	1039.35
790.1592	79.9231	2792.9	2302.15
790.3003	82.1824	5566.05	5055.45
790.4414	84.4412	10494.5	9949.25
790.5825	86.6995	17210.6	16616.6
790.7237	88.9574	23590.5	22956.65
790.8648	91.2148	27947.4	27288.4
791.006	93.4717	29815.3	29140.2
791.1472	95.7282	30016.6	29329.65
791.2885	97.9842	29683.3	28991.4
791.4297	100.2398	28856.1	28162.25
791.571	102.4949	27970.15	27280.4
791.7123	104.7495	26942.4	26246.3
791.8536	107.0036	25975.55	25274.8
791.9949	109.2573	25098.05	24403.4
792.1363	111.5105	24333.95	23632.05
792.2777	113.7632	23614.3	22912.45
792.4191	116.0154	23044.4	22327.6
792.5605	118.2672	22632.6	21926.05
792.7019	120.5185	22218.5	21508.3
792.8434	122.7693	21917.15	21203.25
792.9849	125.0197	21664.2	20947.55
793.1264	127.2696	21379.1	20658.25
793.2679	129.519	21193.05	20473.75
793.4094	131.7679	20850.35	20123.55
793.551	134.0163	20550.4	19821.6
793.6926	136.2642	20204.8	19473.6
793.8342	138.5117	19828.15	19082.6
793.9758	140.7587	19405.1	18667.15
794.1175	143.0052	19036.95	18295.7
794.2591	145.2512	18656.3	17914.5
794.4008	147.4967	18345.55	17602.8
794.5425	149.7417	18067.7	17325.95
794.6842	151.9863	17862	17118
794.826	154.2304	17786.25	17034.55
794.9677	156.4739	17562	16803.35
795.1095	158.717	17447.1	16685.95
795.2513	160.9596	17263.2	16506.1
795.3931	163.2017	16985.5	16222.5
795.535	165.4433	16687.7	15920.7
795.6768	167.6844	16371.5	15606
795.8187	169.925	16059.55	15289.55
795.9606	172.1651	15668.7	14896.85
796.1025	174.4047	15392	14622
796.2445	176.6439	15173.8	14404.25
796.3864	178.8825	14933.95	14157.75
796.5284	181.1206	14786.4	14003.25
796.6704	183.3582	14652.15	13865.35
796.8124	185.5954	14554.25	13763.85
796.9544	187.832	14492.95	13701.7
797.0965	190.0681	14465.65	13671.9
797.2386	192.3037	14478.1	13679.35
797.3806	194.5388	14454.65	13651
797.5228	196.7734	14496.2	13685.8
797.6649	199.0075	14570.6	13763.5
797.807	201.2411	14702.65	13895.25
797.9492	203.4742	14760.2	13950.3
798.0914	205.7068	14942.65	14129.45
798.2336	207.9389	15058.45	14242.3
798.3758	210.1704	15213.1	14403.45
798.518	212.4015	15360	14558.25
798.6603	214.632	15527.6	14737.65
798.8025	216.862	15641.4	14852
798.9448	219.0915	15747.1	14954.85
799.0871	221.3205	15826.15	15026.1
799.2294	223.549	15927.7	15136.95
799.3718	225.777	16003.85	15213.4
799.5141	228.0044	16102.1	15304.1
799.6565	230.2314	16206.9	15407.8
799.7989	232.4578	16250.05	15451.8
799.9413	234.6837	16355.65	15544.3
800.0837	236.909	16467.4	15657.95
800.2262	239.1339	16467.4	15627.65
800.3687	241.3582	16401.5	15580.5
800.5111	243.582	16312.7	15459.05
800.6536	245.8053	16276.85	15439.6
800.7961	248.0281	16213.45	15379.05
800.9387	250.2503	16203.95	15363.95
801.0812	252.472	16279.9	15437.4
801.2238	254.6932	16424.65	15585.95
801.3664	256.9139	16563.4	15722.1
801.509	259.134	16778.5	15927.1
801.6516	261.3536	17032.35	16186.4
801.7942	263.5727	17391.75	16545.35
801.9369	265.7912	17693.65	16848.6
802.0795	268.0092	18051.7	17205
802.2222	270.2267	18271.45	17428.75
802.3649	272.4436	18384.55	17539.1
802.5076	274.6601	18453	17600.75
802.6504	276.8759	18305.95	17457.7
802.7931	279.0913	18248.65	17397.3
802.9359	281.3061	18098.9	17247.55
803.0787	283.5204	18047.45	17190.3
803.2215	285.7341	18003.25	17135.9
803.3643	287.9473	18031.65	17163.5
803.5071	290.16	18118.05	17256.4
803.6499	292.3721	18170.05	17313.7
803.7928	294.5837	18357.5	17497.15
803.9357	296.7947	18537.5	17671.85
804.0786	299.0052	18692.3	17832.75
804.2215	301.2152	18706.1	17845
804.3644	303.4246	18573.5	17718.6
804.5074	305.6334	18217.25	17359.5
804.6503	307.8418	17818.85	16961.55
804.7933	310.0495	17398	16535.8
804.9363	312.2568	16941.55	16078.15
805.0793	314.4635	16526.4	15659.75
805.2223	316.6696	16172.5	15302.35
805.3653	318.8752	15892.35	15018.9
805.5084	321.0802	15807.9	14935.15
805.6514	323.2847	15828.2	14956.5
805.7945	325.4887	15862.3	14990.85
805.9376	327.692	15868.6	14994.95
806.0807	329.8949	15826.75	14949.5
806.2238	332.0972	15644.15	14771.2
806.367	334.2989	15445.05	14561.7
806.5101	336.5001	15182.2	14303.9
806.6533	338.7007	14961.15	14080
806.7965	340.9008	14822.4	13944.15
806.9397	343.1003	14616.15	13734.35
807.0829	345.2992	14510	13627.2
807.2261	347.4976	14393.25	13507.05
807.3693	349.6955	14271.3	13383.3
807.5126	351.8927	14285.1	13391.8
807.6559	354.0895	14210.8	13309.9
807.7991	356.2856	14176.3	13285.15
807.9424	358.4812	14097.3	13208.95
808.0857	360.6763	14088.25	13193.2
808.2291	362.8707	14069.1	13172.95
808.3724	365.0646	14133.45	13234.5
808.5158	367.258	14159.2	13261.15
808.6591	369.4508	14264.85	13362.3
808.8025	371.643	14383.55	13477.65
808.9459	373.8346	14471.3	13566.65
809.0893	376.0257	14590.65	13679.65
809.2327	378.2162	14624.45	13720.15
809.3762	380.4062	14610	13707.6
809.5196	382.5956	14495.85	13596.4
809.6631	384.7844	14373.2	13476.6
809.8066	386.9726	14205.8	13312.55
809.9501	389.1603	14119.35	13227.45
810.0936	391.3474	14081.45	13154.35
810.2371	393.5339	14050.95	13152.65
810.3806	395.7199	13994.95	13101.3
810.5241	397.9052	14079.1	13184.2
810.6677	400.09	14133.6	13241.8
810.8113	402.2743	14315.4	13421.65
810.9548	404.4579	14494.5	13602.4
811.0984	406.641	14746.45	13847.5
811.2421	408.8235	14923.15	14022.5
811.3857	411.0054	15036.4	14134
811.5293	413.1868	15172.9	14265.05
811.673	415.3675	15235.3	14321.8
811.8166	417.5477	15178.3	14276.1
811.9603	419.7273	15157.1	14253.1
812.104	421.9064	15051.35	14137.6
812.2477	424.0848	14982.8	14071.9
812.3914	426.2627	14830.45	13919.95
812.5351	428.4399	14611.15	13705.75
812.6788	430.6166	14278	13364.55
812.8226	432.7928	13932.5	13019.8
812.9663	434.9683	13636.75	12719.25
813.1101	437.1432	13410.15	12502.25
813.2539	439.3176	13229	12321.75
813.3977	441.4914	13082.45	12182.4
813.5415	443.6645	13054.45	12151.95
813.6853	445.8371	12995.7	12087.05
813.8291	448.0091	12948.55	12040
813.973	450.1806	12923.15	12016.75
814.1168	452.3514	12945.55	12040.9
814.2607	454.5216	12990.55	12072.55
814.4046	456.6913	12940.25	12029
814.5485	458.8603	12976.15	12067.45
814.6924	461.0288	13027.05	12125.75
814.8363	463.1967	13010.95	12115.45
814.9802	465.3639	13046	12138.4
815.1241	467.5306	13029.05	12120.1
815.2681	469.6967	13052.05	12148.3
815.412	471.8622	13011.15	12109.45
815.556	474.0271	13062.8	12158.6
815.7	476.1914	13061.4	12150.7
815.844	478.3551	13083.9	12168.45
815.988	480.5182	13183.9	12279.65
816.132	482.6807	13269.35	12372
816.276	484.8426	13450.35	12559.95
816.4201	487.0039	13766.75	12868.6
816.5641	489.1647	14206.65	13292.65
816.7082	491.3248	14541.15	13629
816.8522	493.4843	14622.4	13720.7
816.9963	495.6432	14577.75	13672.6
817.1404	497.8015	14440.65	13523.35
817.2845	499.9592	14318.95	13394.8
817.4286	502.1163	14058.4	13135.7
817.5727	504.2728	13750.6	12841.7
817.7168	506.4287	13471.3	12570
817.861	508.5839	13153.9	12257.15
818.0051	510.7386	12976.4	12069.75
818.1493	512.8927	12861.85	11940.25
818.2935	515.0461	12856	11942.9
818.4377	517.199	12943.55	12022.65
818.5818	519.3512	13140.65	12222.85
818.726	521.5029	13448.45	12527.2
818.8703	523.6539	13747.9	12829.5
819.0145	525.8043	13863.35	12945.1
819.1587	527.9541	13773.8	12851.6
819.303	530.1033	13570.85	12649.7
819.4472	532.2519	13373.35	12455.15
819.5915	534.3999	13285.7	12363.05
819.7357	536.5472	13323.8	12407.45
819.88	538.694	13527.35	12612.7
820.0243	540.8401	13761.45	12837.85
820.1686	542.9856	13971.2	13040.85
820.3129	545.1305	13989.3	13049.35
820.4572	547.2748	13948.5	13005.65
820.6016	549.4185	13776.3	12832.3
820.7459	551.5615	13643.15	12704.45
820.8902	553.704	13668.95	12733.7
821.0346	555.8458	13745.55	12809.95
821.1789	557.987	13958.8	13028.05
821.3233	560.1276	14174.7	13238.25
821.4677	562.2675	14649.5	13717.25
821.6121	564.4069	15223.25	14289.4
821.7565	566.5456	15729.55	14802.6
821.9009	568.6837	15920.15	14991.25
822.0453	570.8212	15477.25	14548.45
822.1897	572.958	14736.8	13804.85
822.3342	575.0942	14047.75	13123.75
822.4786	577.2299	13548.55	12631.3
822.6231	579.3648	13300.25	12398.15
822.7675	581.4992	13232.35	12334.7
822.912	583.6329	13305.25	12408.55
823.0565	585.766	13482.2	12580.5
823.201	587.8985	13602.1	12695.1
823.3454	590.0304	13704.7	12759.1
823.4899	592.1616	13674	12741.5
823.6345	594.2922	13533.35	12598.45
823.779	596.4222	13326.2	12389.45
823.9235	598.5515	13129.15	12195.15
824.068	600.6802	12931.6	11991
824.2126	602.8083	12737.65	11804.15
824.3571	604.9358	12762.65	11827.3
824.5017	607.0626	12784.6	11847.9
824.6462	609.1888	12895.6	11951.4
824.7908	611.3144	13077.75	12140.3
824.9354	613.4393	13217.8	12276.95
825.08	615.5636	13386.75	12445.3
825.2246	617.6873	13411.05	12469.35
825.3692	619.8103	13345.35	12399.35
825.5138	621.9327	13111.7	12170.5
825.6584	624.0544	12875.6	11944.15
825.803	626.1756	12673.95	11736.5
825.9477	628.2961	12499.85	11560.55
826.0923	630.4159	12398.95	11456.9
826.237	632.5351	12364.2	11420.1
826.3816	634.6537	12378.05	11434.35
826.5263	636.7716	12394.1	11447.25
826.6709	638.8889	12397.5	11448.3
826.8156	641.0056	12420.25	11468.8
826.9603	643.1216	12373.5	11423.2
827.105	645.237	12376	11431
827.2497	647.3518	12262.55	11329.6
827.3944	649.4659	12187.75	11251.3
827.5391	651.5793	12146.95	11213.15
827.6838	653.6922	12058.95	11123.35
827.8285	655.8043	12032.7	11098.65
827.9733	657.9159	12071.5	11133.8
828.118	660.0268	12026.3	11089.95
828.2627	662.137	12031.8	11090.4
828.4075	664.2466	12047.2	11099.65
828.5522	666.3556	12045.95	11099
828.697	668.4639	11985.5	11044
828.8418	670.5716	11935.8	11000
828.9865	672.6786	11899	10953.65
829.1313	674.785	11836.1	10884.65
829.2761	676.8907	11792.5	10848.05
829.4209	678.9958	11805.2	10866
829.5657	681.1002	11738.55	10792.8
829.7105	683.204	11745.1	10789.3
829.8553	685.3072	11733.6	10782.95
830.0001	687.4097	11702.55	10756.1
830.1449	689.5115	11692.75	10742.85
830.2898	691.6127	11725.4	10782.05
830.4346	693.7132	11687	10746.9
830.5794	695.8131	11738.9	10770.9
830.7243	697.9123	11769.25	10818.3
830.8691	700.0109	11773.15	10819.55
831.014	702.1089	11826.6	10875.3
831.1588	704.2061	11891.2	10939.85
831.3037	706.3028	11947.6	10994.35
831.4486	708.3987	12038	11087.4
831.5935	710.4941	12038.55	11088.9
831.7383	712.5887	12043.15	11097.9
831.8832	714.6827	12108.8	11158.95
832.0281	716.7761	12241.4	11299.8
832.173	718.8688	12404.1	11453.4
832.3179	720.9608	12536.15	11580.85
832.4628	723.0522	12653.05	11691.65
832.6077	725.1429	12751.25	11796.2
832.7527	727.233	12867.65	11914.7
832.8976	729.3224	12962.35	12008.45
833.0425	731.4112	12911.55	11956.5
833.1874	733.4993	12763	11808.7
833.3324	735.5867	12491.8	11539.85
833.4773	737.6735	12267.05	11310.3
833.6222	739.7596	12065.1	11110.9
833.7672	741.845	11907.2	10954.35
833.9122	743.9298	11800	10850.4
834.0571	746.014	11764.95	10812.95
834.2021	748.0974	11742.35	10784.15
834.347	750.1802	11744.4	10787.9
834.492	752.2624	11783.35	10823.1
834.637	754.3439	11844.15	10885.6
834.782	756.4247	11953.6	10984.6
834.9269	758.5048	12083.65	11125.75
835.0719	760.5843	12396.45	11435.65
835.2169	762.6631	12845.45	11887.7
835.3619	764.7413	13453.85	12493.3
835.5069	766.8188	14199.5	13238.25
835.6519	768.8956	14807.1	13850.55
835.7969	770.9718	15236.2	14277.95
835.9419	773.0473	15167.6	14208.9
836.0869	775.1221	14949.15	13992.7
836.232	777.1962	14655.05	13696.95
836.377	779.2697	14564.45	13604.2
836.522	781.3426	14675.5	13702.8
836.667	783.4147	14781.45	13825.2
836.8121	785.4862	14815.95	13857.55
836.9571	787.557	14584.9	13621.7
837.1021	789.6271	14063.65	13100.7
837.2472	791.6966	13405.2	12444.3
837.3922	793.7654	12741.1	11781.15
837.5373	795.8335	12302.5	11342.55
837.6823	797.901	11998.85	11041.85
837.8274	799.9678	11804.55	10842.2
837.9724	802.0339	11698.05	10736.45
838.1175	804.0993	11684.35	10710.6
838.2626	806.1641	11594.85	10631.3
838.4076	808.2282	11512	10553.35
838.5527	810.2916	11432.05	10466.45
838.6978	812.3544	11346.25	10389.35
838.8428	814.4164	11295.45	10338.6
838.9879	816.4778	11348.05	10377.75
839.133	818.5385	11384.7	10417.1
839.2781	820.5986	11545.85	10582.4
839.4232	822.658	11808.3	10845.5
839.5682	824.7166	12168.4	11205.45
839.7133	826.7747	12764.95	11802.8
839.8584	828.832	13331.75	12364.2
840.0035	830.8886	13743.65	12775.15
840.1486	832.9446	13987.55	13018.8
840.2937	834.9999	13830.2	12867.5
840.4388	837.0545	13504.2	12536.6
840.5839	839.1085	13071.8	12104.35
840.729	841.1618	12717	11751.3
840.8741	843.2143	12403.95	11440.3
841.0192	845.2662	12157.6	11192
841.1643	847.3175	12029.6	11062
841.3095	849.368	11928.65	10963.15
841.4546	851.4179	11805.35	10838.6
841.5997	853.467	11731.35	10763.65
841.7448	855.5155	11676.2	10706.85
841.8899	857.5633	11583.05	10615.55
842.0351	859.6105	11470.8	10502.7
842.1802	861.6569	11382.3	10420.05
842.3253	863.7027	11311.75	10344.15
842.4704	865.7478	11279.75	10311
842.6156	867.7922	11228.35	10260.85
842.7607	869.8359	11164.2	10196.65
842.9058	871.8789	11204.6	10234.7
843.0509	873.9212	11281.05	10280
843.1961	875.9629	11340.4	10368.9
843.3412	878.0039	11465.8	10498.3
843.4863	880.0441	11558.4	10596.55
843.6315	882.0837	11635.55	10667.4
843.7766	884.1226	11656.25	10688.65
843.9218	886.1609	11747.45	10777.75
844.0669	888.1984	11872.85	10904.5
844.212	890.2352	12018.85	11053.55
844.3572	892.2714	12037	11061
844.5023	894.3069	11976.35	11006.85
844.6475	896.3416	11808.45	10836.25
844.7926	898.3757	11656.7	10687.6
844.9377	900.4091	11549.5	10575.6
845.0829	902.4418	11548.4	10575.5
845.228	904.4739	11536.55	10562.6
845.3732	906.5052	11596.9	10620.25
845.5183	908.5358	11562.05	10589.5
845.6635	910.5658	11458.2	10482.15
845.8086	912.595	11231.35	10263.55
845.9538	914.6236	11006.3	10035.55
846.0989	916.6515	10861.9	9888.65
846.2441	918.6786	10744	9771.95
846.3892	920.7051	10693.55	9720.9
846.5344	922.7309	10753.05	9779.95
846.6795	924.756	10806.8	9836.9
846.8246	926.7804	10844.4	9872.7
846.9698	928.8041	10829.5	9860
847.1149	930.8272	10910.65	9940.95
847.2601	932.8495	10875.15	9906.45
847.4052	934.8711	10889.75	9916
847.5504	936.892	10861.35	9889.95
847.6955	938.9123	10867.5	9896.2
847.8407	940.9318	10901.75	9932.6
847.9858	942.9506	10930.4	9961.65
848.131	944.9688	10830.5	9864.15
848.2761	946.9862	10742.7	9769.55
848.4213	949.003	10572.7	9603.55
848.5664	951.019	10471.35	9501.4
848.7115	953.0344	10389.05	9418.5
848.8567	955.0491	10368.45	9396.9
849.0018	957.063	10409.45	9440.25
849.147	959.0763	10472.95	9506.7
849.2921	961.0888	10506.75	9536.55
849.4373	963.1007	10534.25	9566.15
849.5824	965.1119	10568.4	9612.9
849.7275	967.1223	10548.45	9599.1
849.8727	969.1321	10526.85	9577.6
850.0178	971.1412	10526.9	9567.35
850.1629	973.1495	10508.6	9544.95
850.3081	975.1572	10539.25	9525.75
850.4532	977.1641	10542.9	9573.45
850.5983	979.1704	10529.85	9556.75
850.7435	981.1759	10483.25	9507.9
850.8886	983.1808	10489.2	9515.8
851.0337	985.1849	10472.8	9492.45
851.1788	987.1884	10541.2	9572.35
851.324	989.1911	10632.3	9665.35
851.4691	991.1932	10670.95	9702.45
851.6142	993.1945	10689.3	9722.95
851.7593	995.1951	10626.15	9655.2
851.9045	997.1951	10641.5	9667.65
852.0496	999.1943	10595.55	9628.1
852.1947	1001.1928	10601.35	9631.25
852.3398	1003.1906	10650.45	9680.05
852.4849	1005.1877	10781.35	9811.05
852.63	1007.1841	10867.1	9897.5
852.7751	1009.1798	10889.05	9915.75
852.9202	1011.1748	10855.3	9888
853.0653	1013.1691	10681.5	9711.65
853.2104	1015.1627	10485.6	9514.65
853.3555	1017.1556	10246.6	9279.45
853.5006	1019.1477	10125.95	9162.05
853.6457	1021.1392	9983.45	9026.1
853.7908	1023.1299	9982.5	9027.4
853.9359	1025.12	9972.35	9027
854.081	1027.1093	10027.5	9094.7
854.2261	1029.0979	10154.15	9218.6
854.3712	1031.0859	10260.3	9317.8
854.5163	1033.0731	10279.4	9332.3
854.6613	1035.0596	10238.3	9278.7
854.8064	1037.0454	10133.55	9171.9
854.9515	1039.0304	10067.4	9102.3
855.0965	1041.0148	9919.5	8952.55
855.2416	1042.9985	9816.2	8848.4
855.3867	1044.9814	9798.95	8835.2
855.5317	1046.9636	9699.55	8734.55
855.6768	1048.9452	9686.3	8726.05
855.8219	1050.926	9739.15	8773.3
855.9669	1052.9061	9782.9	8820.8
856.112	1054.8855	9791.6	8822.8
856.257	1056.8642	9852	8882.5
856.4021	1058.8421	9903.1	8932.95
856.5471	1060.8194	9952.35	8983.05
856.6921	1062.7959	9959.7	8993.7
856.8372	1064.7717	10032	9068.5
856.9822	1066.7469	10119.25	9152.15
857.1272	1068.7213	10205.05	9232.65
857.2723	1070.695	10296.85	9330.6
857.4173	1072.6679	10362.1	9394.4
857.5623	1074.6402	10386.15	9421.55
857.7073	1076.6117	10346.8	9376.05
857.8523	1078.5826	10210.2	9240.35
857.9973	1080.5527	10070.65	9105.1
858.1423	1082.5221	9936.55	8969.05
858.2873	1084.4908	9896.05	8930.95
858.4323	1086.4587	9883.6	8914.15
858.5773	1088.426	9918.2	8949.9
858.7223	1090.3925	9923.95	8953.7
858.8673	1092.3584	9944.8	8982.8
859.0123	1094.3235	10001.8	9038.7
859.1573	1096.2879	10098.95	9133
859.3022	1098.2515	10232.45	9264.9
859.4472	1100.2145	10421.35	9460.25
859.5922	1102.1767	10613.25	9647.45
859.7371	1104.1382	10878.5	9916.55
859.8821	1106.099	11148.5	10178.3
860.027	1108.0591	11369.35	10402.95
860.172	1110.0185	11520.05	10552.45
860.3169	1111.9771	11626.45	10658.05
860.4619	1113.9351	11532.6	10571.15
860.6068	1115.8923	11430.25	10465
860.7517	1117.8488	11311.35	10345.45
860.8967	1119.8045	11087.65	10124.45
861.0416	1121.7596	10940.6	9980.95
861.1865	1123.7139	10802.85	9841.25
861.3314	1125.6675	10735.7	9775.5
861.4763	1127.6204	10780.45	9817.35
861.6212	1129.5726	10711	9745.25
861.7661	1131.524	10595.45	9633.7
861.911	1133.4748	10478.15	9515.9
862.0559	1135.4248	10237.6	9274.5
862.2008	1137.3741	10078.6	9115.9
862.3457	1139.3226	9965.6	9000.7
862.4905	1141.2705	9883.6	8921.4
862.6354	1143.2176	9814.7	8842.85
862.7803	1145.164	9770.6	8804.9
862.9251	1147.1097	9678.45	8715.75
863.07	1149.0546	9571	8605.25
863.2148	1150.9989	9469.05	8504.35
863.3597	1152.9424	9379.25	8418.9
863.5045	1154.8852	9281	8318.2
863.6493	1156.8272	9278.75	8319.8
863.7942	1158.7686	9286.5	8316.8
863.939	1160.7092	9298.2	8335.1
864.0838	1162.6491	9326	8359.8
864.2286	1164.5883	9438.4	8474.5
864.3734	1166.5267	9575.45	8612.65
864.5182	1168.4644	9743.45	8779.25
864.663	1170.4014	9952.95	8987.95
864.8078	1172.3377	10200.2	9242.55
864.9526	1174.2732	10539.7	9579.8
865.0974	1176.2081	11009.4	10047.35
865.2421	1178.1421	11560.75	10596
865.3869	1180.0755	12163.6	11201.95
865.5317	1182.0082	12572.9	11613.8
865.6764	1183.9401	12762.35	11804.75
865.8212	1185.8713	12584	11632.6
865.9659	1187.8017	12225.55	11280.15
866.1106	1189.7315	11790.25	10853.2
866.2554	1191.6605	11367.2	10432.25
866.4001	1193.5888	11013.7	10072.05
