Software Version:	3.9.2.0
Unit SN:	10000200
Spectrometer SN:	6960
Date:	3/8/2024 12:02:51 PM
Data Line Index:	25
Spectral Points:	2048
Integration time (ms):	125
Averages:	20
Delay (ms):	30000
Sequence Number:	1
Processing:	dark subtract
Laser Power (mW):	300
Laser Current (mA):	822
Laser Diode Temp (C):	25
Laser Case Temp (C):	25.6
System Temp (C):	25.5
Spectrometer Temp (C):	23.4
CCD Temp (C):	0.005
Secondary Temp (C):	20.007
Heatsink Temp (C):	20.38
CCDPCB Temp (C):	34.895
SecondaryPCB Temp (C):	28.103

Wavelength	RamanShift	Raw Counts	Dark Subtracted
787.061	30.1047	413.85	4.8
787.2016	32.3739	412.35	7
787.3422	34.6426	413.35	4.4
787.4828	36.9109	417.4	5.95
787.6235	39.1787	419.1	4.95
787.7642	41.4461	425.05	6.25
787.9049	43.7131	428.9	8.55
788.0456	45.9796	432.55	9.3
788.1863	48.2456	437.05	7.55
788.3271	50.5112	441.4	9.7
788.4679	52.7764	447	9.2
788.6087	55.0411	450.1	8.35
788.7496	57.3054	458.5	11.9
788.8904	59.5692	458.75	12.15
789.0313	61.8326	463.2	16.35
789.1722	64.0955	467.4	14.7
789.3132	66.3579	474.1	15.85
789.4541	68.6199	480.85	18.8
789.5951	70.8815	492.75	27.7
789.7361	73.1426	508.15	39.35
789.8771	75.4032	543.85	71.5
790.0181	77.6634	614.8	138.3
790.1592	79.9231	778.15	296.65
790.3003	82.1824	1124.8	631.75
790.4414	84.4412	1711.6	1203.7
790.5825	86.6995	2416.9	1887.1
790.7237	88.9574	3114.35	2569.1
790.8648	91.2148	3587.35	3029.7
791.006	93.4717	3775.7	3208.3
791.1472	95.7282	3793.9	3222.45
791.2885	97.9842	3784.5	3212.3
791.4297	100.2398	3721.85	3146.3
791.571	102.4949	3683.95	3108.15
791.7123	104.7495	3627.25	3044.2
791.8536	107.0036	3575.6	2994.3
791.9949	109.2573	3496.1	2915.05
792.1363	111.5105	3399.15	2813.95
792.2777	113.7632	3304.15	2716.2
792.4191	116.0154	3219.1	2621.3
792.5605	118.2672	3105.3	2513.9
792.7019	120.5185	2981.15	2387.25
792.8434	122.7693	2909.25	2315
792.9849	125.0197	2821.9	2221.15
793.1264	127.2696	2751.65	2149.75
793.2679	129.519	2728.95	2122.05
793.4094	131.7679	2695.1	2086.9
793.551	134.0163	2682.35	2071.15
793.6926	136.2642	2668.15	2050.55
793.8342	138.5117	2653.95	2032.25
793.9758	140.7587	2619.35	1998.3
794.1175	143.0052	2581.6	1959.45
794.2591	145.2512	2531.15	1907.9
794.4008	147.4967	2482.75	1860.85
794.5425	149.7417	2444.4	1817.2
794.6842	151.9863	2408.3	1775.35
794.826	154.2304	2419.9	1785.95
794.9677	156.4739	2399.65	1759.05
795.1095	158.717	2415	1772
795.2513	160.9596	2439.9	1795
795.3931	163.2017	2451.5	1805.85
795.535	165.4433	2463.15	1817.35
795.6768	167.6844	2440.5	1791
795.8187	169.925	2415.5	1762.6
795.9606	172.1651	2361.05	1706.55
796.1025	174.4047	2315.05	1655.8
796.2445	176.6439	2278.25	1615.4
796.3864	178.8825	2263.3	1601
796.5284	181.1206	2256	1588.55
796.6704	183.3582	2233.55	1558.65
796.8124	185.5954	2232.55	1560.5
796.9544	187.832	2232.25	1556.8
797.0965	190.0681	2232	1552.8
797.2386	192.3037	2244.45	1562.4
797.3806	194.5388	2239.7	1552.55
797.5228	196.7734	2257.9	1570.15
797.6649	199.0075	2270.75	1582
797.807	201.2411	2288.9	1599.35
797.9492	203.4742	2316.7	1626.95
798.0914	205.7068	2336.25	1640
798.2336	207.9389	2353.85	1653.7
798.3758	210.1704	2362.2	1667.15
798.518	212.4015	2358.15	1674.35
798.6603	214.632	2356.05	1679.5
798.8025	216.862	2359.75	1688.9
798.9448	219.0915	2368.7	1693
799.0871	221.3205	2376.2	1694.65
799.2294	223.549	2386.5	1713.1
799.3718	225.777	2379.4	1702.95
799.5141	228.0044	2371.75	1687.9
799.6565	230.2314	2366.9	1680.9
799.7989	232.4578	2353.55	1662.9
799.9413	234.6837	2343.85	1645.95
800.0837	236.909	2336.7	1637.85
800.2262	239.1339	2350.75	1626.85
800.3687	241.3582	2337.45	1629.65
800.5111	243.582	2358.95	1621
800.6536	245.8053	2350.45	1621.2
800.7961	248.0281	2362.6	1643.25
800.9387	250.2503	2378.1	1654.4
801.0812	252.472	2364.9	1636.4
801.2238	254.6932	2376.45	1651.4
801.3664	256.9139	2394.75	1665.8
801.509	259.134	2410.5	1677.25
801.6516	261.3536	2435.05	1704.4
801.7942	263.5727	2469.95	1740.15
801.9369	265.7912	2520.85	1789.7
802.0795	268.0092	2575	1842.8
802.2222	270.2267	2628	1898.45
802.3649	272.4436	2675.65	1942.9
802.5076	274.6601	2698.35	1956.55
802.6504	276.8759	2728.55	1985.7
802.7931	279.0913	2745.5	2002.95
802.9359	281.3061	2754.05	2012.9
803.0787	283.5204	2773.5	2028.85
803.2215	285.7341	2782.85	2034.85
803.3643	287.9473	2808.85	2061.1
803.5071	290.16	2814.55	2064.4
803.6499	292.3721	2778.25	2033.6
803.7928	294.5837	2751.8	2001.05
803.9357	296.7947	2730.55	1984.35
804.0786	299.0052	2707.7	1959.9
804.2215	301.2152	2709.3	1960.95
804.3644	303.4246	2689.95	1943.3
804.5074	305.6334	2678.1	1932.3
804.6503	307.8418	2645.35	1892.45
804.7933	310.0495	2622.35	1868.95
804.9363	312.2568	2580.8	1829.9
805.0793	314.4635	2538.2	1784.35
805.2223	316.6696	2496.45	1739.3
805.3653	318.8752	2451.2	1686.55
805.5084	321.0802	2416.85	1658.75
805.6514	323.2847	2413.8	1653.45
805.7945	325.4887	2428.35	1665.7
805.9376	327.692	2437.8	1674.55
806.0807	329.8949	2483.55	1720.35
806.2238	332.0972	2522.8	1758.95
806.367	334.2989	2526.35	1758.35
806.5101	336.5001	2515.9	1748.05
806.6533	338.7007	2499.45	1732.3
806.7965	340.9008	2447.4	1676.2
806.9397	343.1003	2394.6	1625.6
807.0829	345.2992	2358.85	1584.4
807.2261	347.4976	2319.1	1542.5
807.3693	349.6955	2297.75	1520.15
807.5126	351.8927	2291.9	1512.1
807.6559	354.0895	2277.8	1487.6
807.7991	356.2856	2260.55	1475.7
807.9424	358.4812	2249.2	1470.35
808.0857	360.6763	2251.5	1466.05
808.2291	362.8707	2238.85	1450.4
808.3724	365.0646	2248.3	1458.15
808.5158	367.258	2251.5	1462.6
808.6591	369.4508	2280.2	1487.65
808.8025	371.643	2293.4	1502.05
808.9459	373.8346	2325.75	1533.15
809.0893	376.0257	2355.8	1558.85
809.2327	378.2162	2371.5	1574.7
809.3762	380.4062	2378	1578.7
809.5196	382.5956	2338.75	1541.15
809.6631	384.7844	2310.9	1523.75
809.8066	386.9726	2294	1504.6
809.9501	389.1603	2257.35	1469.1
810.0936	391.3474	2271.55	1447.8
810.2371	393.5339	2255.05	1462.75
810.3806	395.7199	2258.55	1469.6
810.5241	397.9052	2280	1491.55
810.6677	400.09	2314.9	1525.05
810.8113	402.2743	2364.15	1574.8
810.9548	404.4579	2406.1	1616.9
811.0984	406.641	2444.8	1651.2
811.2421	408.8235	2486.45	1691.05
811.3857	411.0054	2518.9	1719.15
811.5293	413.1868	2590.75	1788.35
811.673	415.3675	2639.1	1835.25
811.8166	417.5477	2626.95	1823.35
811.9603	419.7273	2571.9	1763.2
812.104	421.9064	2494.1	1680.6
812.2477	424.0848	2435.35	1627.3
812.3914	426.2627	2386.25	1576.05
812.5351	428.4399	2320.05	1511.85
812.6788	430.6166	2272.45	1460.15
812.8226	432.7928	2228.15	1413.2
812.9663	434.9683	2189.55	1373.45
813.1101	437.1432	2174.65	1358
813.2539	439.3176	2150.15	1339.3
813.3977	441.4914	2126.6	1316.9
813.5415	443.6645	2126.85	1312.55
813.6853	445.8371	2126.2	1313.2
813.8291	448.0091	2123.45	1307.65
813.973	450.1806	2126.45	1313.4
814.1168	452.3514	2118.75	1304.7
814.2607	454.5216	2126	1298.8
814.4046	456.6913	2096.85	1275.65
814.5485	458.8603	2132.95	1317.85
814.6924	461.0288	2127	1313.2
814.8363	463.1967	2122.6	1307.8
814.9802	465.3639	2142.7	1323.35
815.1241	467.5306	2119	1297.3
815.2681	469.6967	2111.55	1290.2
815.412	471.8622	2102.6	1283.05
815.556	474.0271	2101.2	1283.65
815.7	476.1914	2100.55	1279.8
815.844	478.3551	2092.55	1270.9
815.988	480.5182	2106.5	1285.1
816.132	482.6807	2117.2	1298.55
816.276	484.8426	2134.05	1316.75
816.4201	487.0039	2157.15	1337.25
816.5641	489.1647	2204.45	1381.5
816.7082	491.3248	2248.15	1425.7
816.8522	493.4843	2267.9	1446.25
816.9963	495.6432	2259.45	1437.1
817.1404	497.8015	2246.7	1414.5
817.2845	499.9592	2193.15	1363.5
817.4286	502.1163	2151.15	1321.5
817.5727	504.2728	2105.8	1280
817.7168	506.4287	2083.4	1259.35
817.861	508.5839	2068	1242.2
818.0051	510.7386	2058	1229.5
818.1493	512.8927	2049.75	1215.05
818.2935	515.0461	2061.9	1229.75
818.4377	517.199	2087.35	1253.25
818.5818	519.3512	2133.8	1303.4
818.726	521.5029	2199.65	1363.3
818.8703	523.6539	2240.3	1404.95
819.0145	525.8043	2250.45	1416.45
819.1587	527.9541	2196.4	1357.25
819.303	530.1033	2145.65	1312.75
819.4472	532.2519	2103.85	1269.85
819.5915	534.3999	2081.8	1242.9
819.7357	536.5472	2068.65	1232.25
819.88	538.694	2074.7	1238.65
820.0243	540.8401	2085.6	1248.65
820.1686	542.9856	2101.75	1260.2
820.3129	545.1305	2111.15	1266.4
820.4572	547.2748	2135.2	1293.7
820.6016	549.4185	2135.95	1294.25
820.7459	551.5615	2141	1296.35
820.8902	553.704	2160.85	1316.8
821.0346	555.8458	2175.2	1335.45
821.1789	557.987	2188.85	1348.85
821.3233	560.1276	2218.55	1377.45
821.4677	562.2675	2262.7	1421.3
821.6121	564.4069	2327.6	1487.3
821.7565	566.5456	2342.05	1500.1
821.9009	568.6837	2345.05	1501.85
822.0453	570.8212	2283.05	1443
822.1897	572.958	2217.4	1370.7
822.3342	575.0942	2161.45	1318.35
822.4786	577.2299	2117.8	1273.6
822.6231	579.3648	2092.5	1252.65
822.7675	581.4992	2074.55	1236.95
822.912	583.6329	2087.25	1252.35
823.0565	585.766	2120.8	1283.8
823.201	587.8985	2157.7	1316.15
823.3454	590.0304	2200.8	1347.7
823.4899	592.1616	2241.8	1393.8
823.6345	594.2922	2230.85	1382.8
823.779	596.4222	2186.3	1335.45
823.9235	598.5515	2125.95	1275.2
824.068	600.6802	2078.75	1225.45
824.2126	602.8083	2053.9	1205.8
824.3571	604.9358	2036.55	1183.5
824.5017	607.0626	2040.25	1187.7
824.6462	609.1888	2049.8	1197.25
824.7908	611.3144	2068.4	1212.45
824.9354	613.4393	2100.2	1247.25
825.08	615.5636	2156.55	1300.05
825.2246	617.6873	2193.35	1338.8
825.3692	619.8103	2215.5	1359.6
825.5138	621.9327	2210.8	1351.5
825.6584	624.0544	2175.55	1320.15
825.803	626.1756	2125.15	1272.05
825.9477	628.2961	2092.75	1237
826.0923	630.4159	2075.95	1218.15
826.237	632.5351	2074	1218.85
826.3816	634.6537	2050.7	1195.6
826.5263	636.7716	2047.8	1187.35
826.6709	638.8889	2039.4	1179.85
826.8156	641.0056	2044.25	1186.2
826.9603	643.1216	2058.9	1198.1
827.105	645.237	2055.4	1193.25
827.2497	647.3518	2030.85	1175.3
827.3944	649.4659	2004.55	1150.15
827.5391	651.5793	1987.4	1132.15
827.6838	653.6922	1972	1114.85
827.8285	655.8043	1965.9	1106.8
827.9733	657.9159	1961.65	1102.65
828.118	660.0268	1957.8	1095.65
828.2627	662.137	1960.2	1098.5
828.4075	664.2466	1956.05	1092.1
828.5522	666.3556	1945.7	1086.75
828.697	668.4639	1939.1	1077.25
828.8418	670.5716	1923.3	1062.85
828.9865	672.6786	1925.75	1065.25
829.1313	674.785	1936.75	1072.75
829.2761	676.8907	1927.25	1065.55
829.4209	678.9958	1930.1	1068.75
829.5657	681.1002	1935.85	1070.8
829.7105	683.204	1929.75	1061.35
829.8553	685.3072	1923.8	1056.55
830.0001	687.4097	1926.85	1061.05
830.1449	689.5115	1915	1048.05
830.2898	691.6127	1912.2	1047.75
830.4346	693.7132	1906.5	1040.3
830.5794	695.8131	1941.95	1054.25
830.7243	697.9123	1925.25	1058.6
830.8691	700.0109	1927.35	1060.45
831.014	702.1089	1939.2	1072.7
831.1588	704.2061	1954.85	1088.9
831.3037	706.3028	1974.6	1105.4
831.4486	708.3987	1995.7	1126.85
831.5935	710.4941	2009.4	1140.65
831.7383	712.5887	2010.9	1141.65
831.8832	714.6827	2003.55	1132.15
832.0281	716.7761	1995.1	1129.35
832.173	718.8688	1996.8	1124.2
832.3179	720.9608	2004.15	1130.6
832.4628	723.0522	2027.15	1153.35
832.6077	725.1429	2037.65	1165.9
832.7527	727.233	2081.6	1208.5
832.8976	729.3224	2144.3	1271.65
833.0425	731.4112	2188.1	1313.3
833.1874	733.4993	2183.3	1311.8
833.3324	735.5867	2127.4	1251.35
833.4773	737.6735	2070.05	1194.5
833.6222	739.7596	2017.8	1142.35
833.7672	741.845	1995.5	1122.1
833.9122	743.9298	1979.9	1103.85
834.0571	746.014	1990	1116.55
834.2021	748.0974	2011	1132.75
834.347	750.1802	2002.05	1125.15
834.492	752.2624	1996.4	1123.15
834.637	754.3439	2000.05	1123.7
834.782	756.4247	1987.25	1102.2
834.9269	758.5048	1994.65	1119.1
835.0719	760.5843	2004.45	1124.85
835.2169	762.6631	2030.9	1153.45
835.3619	764.7413	2086.7	1211.55
835.5069	766.8188	2165.05	1285.4
835.6519	768.8956	2251.1	1373.65
835.7969	770.9718	2302.75	1425.25
835.9419	773.0473	2288.85	1412.2
836.0869	775.1221	2262.5	1385.35
836.232	777.1962	2261.8	1383.55
836.377	779.2697	2311.55	1430.75
836.522	781.3426	2410	1512.4
836.667	783.4147	2446.35	1568.95
836.8121	785.4862	2407.25	1530.9
836.9571	787.557	2324.45	1446.35
837.1021	789.6271	2214.3	1333.25
837.2472	791.6966	2114.1	1235.95
837.3922	793.7654	2021.9	1142.75
837.5373	795.8335	1977.55	1100.9
837.6823	797.901	1940.55	1060.95
837.8274	799.9678	1942.45	1062.5
837.9724	802.0339	1942.65	1063.1
838.1175	804.0993	1946.45	1057.75
838.2626	806.1641	1931.6	1050.25
838.4076	808.2282	1903.3	1025.35
838.5527	810.2916	1894.5	1010.3
838.6978	812.3544	1887.95	1012.95
838.8428	814.4164	1874.3	993.35
838.9879	816.4778	1885.4	1004.35
839.133	818.5385	1894.65	1013.25
839.2781	820.5986	1926.6	1045.8
839.4232	822.658	1971.9	1088.6
839.5682	824.7166	2028.9	1147
839.7133	826.7747	2111.5	1231.2
839.8584	828.832	2198.35	1316
840.0035	830.8886	2255.35	1372.45
840.1486	832.9446	2278.75	1393.35
840.2937	834.9999	2244.9	1364.25
840.4388	837.0545	2159.8	1271.05
840.5839	839.1085	2084.7	1197.75
840.729	841.1618	2019.25	1132.15
840.8741	843.2143	1963.1	1078.55
841.0192	845.2662	1932.6	1048.95
841.1643	847.3175	1930.65	1047.35
841.3095	849.368	1912.75	1028.15
841.4546	851.4179	1914.7	1030.9
841.5997	853.467	1907.6	1024.6
841.7448	855.5155	1917.1	1031.25
841.8899	857.5633	1913.1	1028.8
842.0351	859.6105	1909.3	1023.8
842.1802	861.6569	1905.7	1021.4
842.3253	863.7027	1881.8	994.15
842.4704	865.7478	1885.2	997.15
842.6156	867.7922	1870.05	982.75
842.7607	869.8359	1862.05	974.8
842.9058	871.8789	1856.9	970.9
843.0509	873.9212	1883.85	962.8
843.1961	875.9629	1869.8	979.35
843.3412	878.0039	1876.9	989
843.4863	880.0441	1891.6	1005
843.6315	882.0837	1910.6	1023.5
843.7766	884.1226	1927.55	1038.2
843.9218	886.1609	1967.9	1082.7
844.0669	888.1984	1993.85	1108.5
844.212	890.2352	2050.4	1163.1
844.3572	892.2714	2059.4	1166.5
844.5023	894.3069	2028.75	1139.9
844.6475	896.3416	1977.15	1086.5
844.7926	898.3757	1945.55	1054.25
844.9377	900.4091	1931.8	1040.45
845.0829	902.4418	1925.05	1030.25
845.228	904.4739	1938	1046.4
845.3732	906.5052	1959.15	1070.45
845.5183	908.5358	1955.4	1064.85
845.6635	910.5658	1928.95	1034.2
845.8086	912.595	1891.55	1000.15
845.9538	914.6236	1855.05	966.1
846.0989	916.6515	1837.1	947.55
846.2441	918.6786	1813.8	920.35
846.3892	920.7051	1809.8	914.5
846.5344	922.7309	1808.25	918.95
846.6795	924.756	1802.95	913.6
846.8246	926.7804	1821.6	928.55
846.9698	928.8041	1822.1	930.95
847.1149	930.8272	1836.35	946.35
847.2601	932.8495	1854.55	964.9
847.4052	934.8711	1866.6	975.05
847.5504	936.892	1869.35	980
847.6955	938.9123	1886.2	991.85
847.8407	940.9318	1910.35	1014.8
847.9858	942.9506	1909.8	1018.15
848.131	944.9688	1902.2	1008.6
848.2761	946.9862	1884.9	992.85
848.4213	949.003	1851	959.45
848.5664	951.019	1831.95	940
848.7115	953.0344	1813.6	922.2
848.8567	955.0491	1801	908.4
849.0018	957.063	1802.7	909.35
849.147	959.0763	1793.65	902.95
849.2921	961.0888	1793.15	899.25
849.4373	963.1007	1797.4	906.5
849.5824	965.1119	1773.65	885.85
849.7275	967.1223	1779.85	891.5
849.8727	969.1321	1775.45	888.45
850.0178	971.1412	1776.95	886.6
850.1629	973.1495	1772.1	882.6
850.3081	975.1572	1791.8	863.25
850.4532	977.1641	1768	874.05
850.5983	979.1704	1768.55	874.8
850.7435	981.1759	1770.1	872.65
850.8886	983.1808	1766.25	871
851.0337	985.1849	1762.2	858.2
851.1788	987.1884	1761.25	864.1
851.324	989.1911	1762.15	867.65
851.4691	991.1932	1758.75	864.55
851.6142	993.1945	1770.25	878.4
851.7593	995.1951	1771	878.55
851.9045	997.1951	1761.65	863.5
852.0496	999.1943	1758.85	865.6
852.1947	1001.1928	1766.65	871.45
852.3398	1003.1906	1769.05	873
852.4849	1005.1877	1793.05	899.8
852.63	1007.1841	1806.6	914.05
852.7751	1009.1798	1816.15	921.9
852.9202	1011.1748	1799.15	905.1
853.0653	1013.1691	1784.65	890
853.2104	1015.1627	1756.65	861.45
853.3555	1017.1556	1730.85	838.65
853.5006	1019.1477	1717.45	825.65
853.6457	1021.1392	1700.95	811.55
853.7908	1023.1299	1696.85	807.55
853.9359	1025.12	1698.45	807.75
854.081	1027.1093	1699.35	815.5
854.2261	1029.0979	1709.35	827.9
854.3712	1031.0859	1727.7	842.3
854.5163	1033.0731	1751.35	860.6
854.6613	1035.0596	1745.4	856.15
854.8064	1037.0454	1735.3	844.6
854.9515	1039.0304	1733.75	841.6
855.0965	1041.0148	1709.65	818.8
855.2416	1042.9985	1691.85	796.25
855.3867	1044.9814	1676.15	783.7
855.5317	1046.9636	1686.65	792.1
855.6768	1048.9452	1684.6	790.6
855.8219	1050.926	1701.3	812.2
855.9669	1052.9061	1710.75	815.7
856.112	1054.8855	1709.9	816.25
856.257	1056.8642	1714.25	819.35
856.4021	1058.8421	1704.85	809.2
856.5471	1060.8194	1710.85	815.55
856.6921	1062.7959	1728.05	833.5
856.8372	1064.7717	1712.55	815.65
856.9822	1066.7469	1718.65	821.85
857.1272	1068.7213	1718.45	822.9
857.2723	1070.695	1725.7	831.7
857.4173	1072.6679	1750.3	852.9
857.5623	1074.6402	1759.3	864.25
857.7073	1076.6117	1765.1	866.1
857.8523	1078.5826	1747.45	852.65
857.9973	1080.5527	1712.85	814.2
858.1423	1082.5221	1682.55	785.15
858.2873	1084.4908	1658.55	764.55
858.4323	1086.4587	1645.9	747.65
858.5773	1088.426	1647.1	751.15
858.7223	1090.3925	1647.6	748.85
858.8673	1092.3584	1642.3	747
859.0123	1094.3235	1653.1	760.25
859.1573	1096.2879	1671.5	779.85
859.3022	1098.2515	1701.25	804.2
859.4472	1100.2145	1726.85	833.6
859.5922	1102.1767	1762.2	865.35
859.7371	1104.1382	1801	907.05
859.8821	1106.099	1846.75	952.9
860.027	1108.0591	1887	992.6
860.172	1110.0185	1927.1	1029.6
860.3169	1111.9771	1953.3	1058.1
860.4619	1113.9351	1990.15	1093.85
860.6068	1115.8923	2049.85	1155.9
860.7517	1117.8488	2061.5	1163.15
860.8967	1119.8045	2013	1117.55
861.0416	1121.7596	1938.75	1043.1
861.1865	1123.7139	1843.05	948.75
861.3314	1125.6675	1806.5	908.1
861.4763	1127.6204	1802.9	909.15
861.6212	1129.5726	1811.05	913.85
861.7661	1131.524	1810.2	913.2
861.911	1133.4748	1763.6	866.55
862.0559	1135.4248	1716.55	819.2
862.2008	1137.3741	1673.55	780.1
862.3457	1139.3226	1662.75	765.8
862.4905	1141.2705	1664.05	767.3
862.6354	1143.2176	1665.7	765.45
862.7803	1145.164	1672.95	776.95
862.9251	1147.1097	1664.85	768.15
863.07	1149.0546	1650	751.7
863.2148	1150.9989	1621.3	723.95
863.3597	1152.9424	1599.75	702.75
863.5045	1154.8852	1591.1	692.85
863.6493	1156.8272	1590.75	694.55
863.7942	1158.7686	1596.35	692.2
863.939	1160.7092	1595.2	698.75
864.0838	1162.6491	1596.5	700.25
864.2286	1164.5883	1609.35	716.85
864.3734	1166.5267	1624.65	728.4
864.5182	1168.4644	1649.1	749.75
864.663	1170.4014	1679.2	778.95
864.8078	1172.3377	1722.2	826.9
864.9526	1174.2732	1763.95	870.25
865.0974	1176.2081	1853.75	957.7
865.2421	1178.1421	1956.55	1054.65
865.3869	1180.0755	2056.25	1159.3
865.5317	1182.0082	2093.55	1198.9
865.6764	1183.9401	2065.8	1170.1
865.8212	1185.8713	1967.75	1073.85
865.9659	1187.8017	1869.05	976.8
866.1106	1189.7315	1769.45	880.4
866.2554	1191.6605	1733.95	816
866.4001	1193.5888	1666.35	774.95
866.5448	1195.5163	1649.45	756.7
866.6895	1197.4432	1631.05	734.85
866.8342	1199.3693	1621	727.1
866.9789	1201.2947	1606.45	706.8
867.1236	1203.2193	1607.9	712.35
867.2683	1205.1432	1594.1	697.5
867.413	1207.0664	1585.6	689.1
867.5576	1208.9889	1599.9	700.75
867.7023	1210.9106	1597.3	701.1
867.847	1212.8316	1603.65	708.35
867.9916	1214.7519	1623.05	719.1
868.1363	1216.6715	1625.35	729.4
868.2809	1218.5903	1631.8	734.25
868.4255	1220.5084	1647.15	749.05
868.5701	1222.4257	1659.9	763.65
868.7148	1224.3424	1666	774.1
868.8594	1226.2583	1700.55	801.45
869.004	1228.1735	1724.1	825.35
869.1486	1230.0879	1764.55	867.6
869.2932	1232.0016	1795.65	899.2
869.4377	1233.9146	1826.4	929.95
869.5823	1235.8269	1842.6	947.95
869.7269	1237.7384	1854.25	959.05
869.8715	1239.6492	1847.4	952
870.016	1241.5592	1879.3	983.35
870.1606	1243.4686	1914.3	1017.35
870.3051	1245.3772	1988.35	1091.65
870.4496	1247.285	2068.95	1170.95
870.5941	1249.1922	2136.7	1241.8
