Software Version:	3.9.2.0
Unit SN:	10000200
Spectrometer SN:	6960
Date:	3/8/2024 12:49:28 PM
Data Line Index:	25
Spectral Points:	2048
Integration time (ms):	125
Averages:	20
Delay (ms):	30000
Sequence Number:	1
Processing:	dark subtract
Laser Power (mW):	300
Laser Current (mA):	823
Laser Diode Temp (C):	25
Laser Case Temp (C):	26.2
System Temp (C):	26.1
Spectrometer Temp (C):	24
CCD Temp (C):	0.007
Secondary Temp (C):	20.004
Heatsink Temp (C):	20.617
CCDPCB Temp (C):	36.329
SecondaryPCB Temp (C):	30.927

Wavelength	RamanShift	Raw Counts	Dark Subtracted
787.061	30.1047	452.3	42.7
787.2016	32.3739	454.5	47.45
787.3422	34.6426	456.6	46.2
787.4828	36.9109	464.4	54.5
787.6235	39.1787	472.65	57.05
787.7642	41.4461	480.3	61.9
787.9049	43.7131	488.6	66.4
788.0456	45.9796	497.85	73.2
788.1863	48.2456	507.7	78.85
788.3271	50.5112	513.65	79.25
788.4679	52.7764	525.4	89.45
788.6087	55.0411	534.55	94.95
788.7496	57.3054	546.85	101.25
788.8904	59.5692	555.55	108.5
789.0313	61.8326	564.75	115.6
789.1722	64.0955	574.05	120.15
789.3132	66.3579	595.15	136.35
789.4541	68.6199	612.05	149.3
789.5951	70.8815	644.4	177.3
789.7361	73.1426	730	258.95
789.8771	75.4032	938.1	462.05
790.0181	77.6634	1442.85	962.45
790.1592	79.9231	2648.45	2159.2
790.3003	82.1824	5242.75	4732.65
790.4414	84.4412	9864.6	9318.95
790.5825	86.6995	16174.25	15583.75
790.7237	88.9574	22275.05	21646
790.8648	91.2148	26395.75	25734.35
791.006	93.4717	28211.9	27535.25
791.1472	95.7282	28440.45	27753.65
791.2885	97.9842	28074.4	27387.45
791.4297	100.2398	27320.45	26628.8
791.571	102.4949	26462.9	25765.35
791.7123	104.7495	25494.65	24798.45
791.8536	107.0036	24507.95	23805.5
791.9949	109.2573	23680.1	22985.45
792.1363	111.5105	22928.2	22225.75
792.2777	113.7632	22168.75	21462.85
792.4191	116.0154	21578.1	20859.05
792.5605	118.2672	21142.5	20436.35
792.7019	120.5185	20695.35	19985.7
792.8434	122.7693	20397.6	19685.1
792.9849	125.0197	20097.9	19377.2
793.1264	127.2696	19825.3	19105.2
793.2679	129.519	19597.15	18874
793.4094	131.7679	19299.05	18573.4
793.551	134.0163	19024.05	18297.05
793.6926	136.2642	18667.4	17936.6
793.8342	138.5117	18338.6	17594.65
793.9758	140.7587	17926.95	17189
794.1175	143.0052	17600.15	16860.1
794.2591	145.2512	17258.9	16514
794.4008	147.4967	16963.9	16221.95
794.5425	149.7417	16701.8	15961.5
794.6842	151.9863	16527.9	15779.7
794.826	154.2304	16388.05	15634.45
794.9677	156.4739	16231.25	15476.25
795.1095	158.717	16118.05	15358.4
795.2513	160.9596	15915.85	15152.1
795.3931	163.2017	15663.65	14899.65
795.535	165.4433	15362	14594.45
795.6768	167.6844	15025.8	14257.45
795.8187	169.925	14684.35	13916.4
795.9606	172.1651	14313.75	13543.75
796.1025	174.4047	14073	13301.95
796.2445	176.6439	13813.3	13042
796.3864	178.8825	13582.15	12804.6
796.5284	181.1206	13455.65	12666.65
796.6704	183.3582	13287.25	12496.6
796.8124	185.5954	13214.1	12420.45
796.9544	187.832	13143.15	12350.8
797.0965	190.0681	13106.1	12309.1
797.2386	192.3037	13096.05	12296.25
797.3806	194.5388	13057	12256.05
797.5228	196.7734	13095.1	12291.25
797.6649	199.0075	13148	12337.4
797.807	201.2411	13287.3	12477.8
797.9492	203.4742	13358.05	12551.7
798.0914	205.7068	13547.05	12732.95
798.2336	207.9389	13633.7	12819.45
798.3758	210.1704	13793.85	12978.15
798.518	212.4015	13886.85	13084.15
798.6603	214.632	14056.3	13262.8
798.8025	216.862	14194	13402.8
798.9448	219.0915	14284.95	13493.9
799.0871	221.3205	14409.5	13610.75
799.2294	223.549	14513.6	13717.45
799.3718	225.777	14634.4	13840.85
799.5141	228.0044	14760.2	13963.3
799.6565	230.2314	14937.15	14135.7
799.7989	232.4578	15121.9	14322.5
799.9413	234.6837	15276.85	14469.2
800.0837	236.909	15351.55	14538.9
800.2262	239.1339	15352.45	14512.85
800.3687	241.3582	15294.55	14470.75
800.5111	243.582	15158.4	14305.15
800.6536	245.8053	15001.3	14161.05
800.7961	248.0281	14907.3	14076.6
800.9387	250.2503	14898.8	14059.25
801.0812	252.472	14896.45	14057
801.2238	254.6932	15035.85	14194.85
801.3664	256.9139	15098.65	14254.45
801.509	259.134	15296.45	14451.55
801.6516	261.3536	15505.8	14658.8
801.7942	263.5727	15795.55	14953.05
801.9369	265.7912	16006.35	15157.45
802.0795	268.0092	16295	15449.65
802.2222	270.2267	16465.8	15621.85
802.3649	272.4436	16596.2	15750.75
802.5076	274.6601	16626.55	15771.95
802.6504	276.8759	16523	15671.9
802.7931	279.0913	16419.95	15565.8
802.9359	281.3061	16296.45	15442.9
803.0787	283.5204	16223.3	15362.45
803.2215	285.7341	16204.6	15339.15
803.3643	287.9473	16244.2	15369.5
803.5071	290.16	16324.65	15459.3
803.6499	292.3721	16478.1	15622.45
803.7928	294.5837	16702.6	15836.2
803.9357	296.7947	16933.75	16071.95
804.0786	299.0052	17114.75	16256.95
804.2215	301.2152	17058.15	16193
804.3644	303.4246	16861.5	16001
804.5074	305.6334	16462.35	15604.3
804.6503	307.8418	16059.25	15198.25
804.7933	310.0495	15624.9	14763.5
804.9363	312.2568	15217.2	14349.95
805.0793	314.4635	14822.4	13956.95
805.2223	316.6696	14544.35	13671.35
805.3653	318.8752	14349.85	13473.75
805.5084	321.0802	14265.05	13391.75
805.6514	323.2847	14285.05	13413.1
805.7945	325.4887	14307.3	13433.55
805.9376	327.692	14316	13437.6
806.0807	329.8949	14223.8	13344.55
806.2238	332.0972	14069.4	13195.3
806.367	334.2989	13841.35	12957.25
806.5101	336.5001	13584.15	12704.25
806.6533	338.7007	13356.1	12475.4
806.7965	340.9008	13223.85	12335.25
806.9397	343.1003	13060.4	12178.7
807.0829	345.2992	12945.9	12060.15
807.2261	347.4976	12844.9	11957.6
807.3693	349.6955	12763.6	11871.2
807.5126	351.8927	12763.3	11872.2
807.6559	354.0895	12712.15	11812.75
807.7991	356.2856	12683.6	11792.75
807.9424	358.4812	12631.8	11743.25
808.0857	360.6763	12621.4	11727.6
808.2291	362.8707	12608.1	11709.3
808.3724	365.0646	12666.85	11770.05
808.5158	367.258	12699.05	11799.75
808.6591	369.4508	12755.55	11855.1
808.8025	371.643	12886.2	11984.4
808.9459	373.8346	12954.05	12047.5
809.0893	376.0257	13038.05	12129.9
809.2327	378.2162	13054.05	12147.8
809.3762	380.4062	13015.5	12109.4
809.5196	382.5956	12912.65	12006.85
809.6631	384.7844	12783	11889.65
809.8066	386.9726	12649.55	11751.45
809.9501	389.1603	12592.95	11699.8
810.0936	391.3474	12546.8	11626.45
810.2371	393.5339	12537.9	11634.3
810.3806	395.7199	12445.85	11549.85
810.5241	397.9052	12528.45	11633.9
810.6677	400.09	12585.7	11689.65
810.8113	402.2743	12734.45	11839.15
810.9548	404.4579	12866.9	11971.05
811.0984	406.641	13093.05	12190.45
811.2421	408.8235	13262.7	12364
811.3857	411.0054	13440.95	12537.6
811.5293	413.1868	13643.55	12732.8
811.673	415.3675	13742.4	12828.8
811.8166	417.5477	13792.8	12882.25
811.9603	419.7273	13729.15	12817.2
812.104	421.9064	13675	12759.95
812.2477	424.0848	13560.4	12648.5
812.3914	426.2627	13437.6	12527.3
812.5351	428.4399	13189	12273.5
812.6788	430.6166	12850.1	11935.3
812.8226	432.7928	12515.75	11599.85
812.9663	434.9683	12219.5	11304
813.1101	437.1432	11944.2	11030.45
813.2539	439.3176	11790.6	10885
813.3977	441.4914	11676.05	10778.65
813.5415	443.6645	11656.4	10751.7
813.6853	445.8371	11576.7	10667.1
813.8291	448.0091	11549.55	10636.9
813.973	450.1806	11542.6	10633.4
814.1168	452.3514	11523.55	10619.65
814.2607	454.5216	11587.2	10667
814.4046	456.6913	11560.45	10650.4
814.5485	458.8603	11577.9	10669
814.6924	461.0288	11620	10715.7
814.8363	463.1967	11612.3	10711
814.9802	465.3639	11665.15	10757.3
815.1241	467.5306	11655.6	10746.45
815.2681	469.6967	11672.95	10766.85
815.412	471.8622	11706.75	10805.2
815.556	474.0271	11774.7	10869.15
815.7	476.1914	11816.8	10902.95
815.844	478.3551	11829.15	10916.45
815.988	480.5182	11892.75	10985.65
816.132	482.6807	11969.1	11068.45
816.276	484.8426	12119.15	11230.4
816.4201	487.0039	12470.15	11571.7
816.5641	489.1647	12867.15	11959.05
816.7082	491.3248	13220.45	12308.6
816.8522	493.4843	13334.7	12429.5
816.9963	495.6432	13289.25	12384.9
817.1404	497.8015	13151.85	12237.05
817.2845	499.9592	13057.4	12132
817.4286	502.1163	12870.45	11948.65
817.5727	504.2728	12545.8	11630.05
817.7168	506.4287	12262.75	11363.35
817.861	508.5839	11933	11027.45
818.0051	510.7386	11731.85	10821.4
818.1493	512.8927	11590	10665.65
818.2935	515.0461	11596.5	10674.9
818.4377	517.199	11618	10695.4
818.5818	519.3512	11808.85	10886.9
818.726	521.5029	12080.75	11163.7
818.8703	523.6539	12288.35	11370.7
819.0145	525.8043	12399.85	11480.1
819.1587	527.9541	12302.3	11374
819.303	530.1033	12137.6	11216.25
819.4472	532.2519	12019.25	11099.05
819.5915	534.3999	11987.2	11063.3
819.7357	536.5472	12073.55	11151.7
819.88	538.694	12325.2	11410.25
820.0243	540.8401	12641.95	11716.85
820.1686	542.9856	12876.25	11945.75
820.3129	545.1305	12915.85	11979.1
820.4572	547.2748	12811.05	11867
820.6016	549.4185	12639.25	11697.8
820.7459	551.5615	12479.85	11535.65
820.8902	553.704	12473.3	11533.2
821.0346	555.8458	12491.4	11558.15
821.1789	557.987	12680.65	11748.2
821.3233	560.1276	12896.05	11965.3
821.4677	562.2675	13263.45	12333.6
821.6121	564.4069	13727.7	12796.5
821.7565	566.5456	14138.25	13208.05
821.9009	568.6837	14294.7	13365.55
822.0453	570.8212	13905.3	12976.45
822.1897	572.958	13237.75	12308.8
822.3342	575.0942	12641.05	11713.65
822.4786	577.2299	12202.75	11278.95
822.6231	579.3648	12001.85	11092.55
822.7675	581.4992	11946.25	11045.15
822.912	583.6329	12052.3	11152.8
823.0565	585.766	12218.1	11310.7
823.201	587.8985	12377.15	11462.65
823.3454	590.0304	12429.8	11487.1
823.4899	592.1616	12359.7	11427.9
823.6345	594.2922	12264.55	11328.3
823.779	596.4222	12072.2	11134.15
823.9235	598.5515	11886.1	10944.65
824.068	600.6802	11707.75	10768
824.2126	602.8083	11542.8	10611.45
824.3571	604.9358	11519.65	10585.45
824.5017	607.0626	11520	10578.15
824.6462	609.1888	11632.65	10683.35
824.7908	611.3144	11767.8	10824.55
824.9354	613.4393	11864.6	10921.75
825.08	615.5636	11959.15	11013.65
825.2246	617.6873	11976.1	11032.15
825.3692	619.8103	11879.7	10936.15
825.5138	621.9327	11704.05	10763.4
825.6584	624.0544	11544.9	10608.6
825.803	626.1756	11338.65	10404.3
825.9477	628.2961	11213.65	10269.45
826.0923	630.4159	11118.1	10175.05
826.237	632.5351	11074.05	10131.7
826.3816	634.6537	11057.9	10107.9
826.5263	636.7716	11086.25	10135
826.6709	638.8889	11071.15	10117.4
826.8156	641.0056	11085.6	10131.75
826.9603	643.1216	11064.05	10114.95
827.105	645.237	11051.3	10109.05
827.2497	647.3518	10943.85	10009.15
827.3944	649.4659	10944.8	10011.55
827.5391	651.5793	10905.85	9970.95
827.6838	653.6922	10827.45	9888.3
827.8285	655.8043	10839.2	9899.8
827.9733	657.9159	10813.8	9876.65
828.118	660.0268	10780.25	9838.3
828.2627	662.137	10778.65	9837.7
828.4075	664.2466	10813.85	9862.3
828.5522	666.3556	10793.3	9848.25
828.697	668.4639	10747.7	9805.25
828.8418	670.5716	10712.7	9773.4
828.9865	672.6786	10696.15	9749.25
829.1313	674.785	10646.15	9694.15
829.2761	676.8907	10629.35	9684.5
829.4209	678.9958	10648.1	9706.6
829.5657	681.1002	10633.1	9689.3
829.7105	683.204	10613.85	9653.55
829.8553	685.3072	10593.65	9637.6
830.0001	687.4097	10579.7	9631.65
830.1449	689.5115	10592.55	9640.45
830.2898	691.6127	10565.05	9621.2
830.4346	693.7132	10527.25	9585.55
830.5794	695.8131	10544.2	9584.55
830.7243	697.9123	10553.15	9600.4
830.8691	700.0109	10601.3	9644.45
831.014	702.1089	10620.55	9671.1
831.1588	704.2061	10663.2	9713.4
831.3037	706.3028	10719.6	9767.95
831.4486	708.3987	10752.25	9797.8
831.5935	710.4941	10779.15	9829.8
831.7383	712.5887	10841.85	9896.95
831.8832	714.6827	10967.2	10015.1
832.0281	716.7761	11111.15	10166.2
832.173	718.8688	11299.15	10351.4
832.3179	720.9608	11455.35	10496.75
832.4628	723.0522	11589.2	10626.45
832.6077	725.1429	11626.5	10668.9
832.7527	727.233	11664.15	10710.35
832.8976	729.3224	11715.1	10764.8
833.0425	731.4112	11596.05	10640.9
833.1874	733.4993	11429	10474.45
833.3324	735.5867	11237.9	10283.25
833.4773	737.6735	11017.8	10064.45
833.6222	739.7596	10830.45	9873.5
833.7672	741.845	10708	9753.25
833.9122	743.9298	10641.9	9684.7
834.0571	746.014	10600.65	9645.45
834.2021	748.0974	10598.9	9636.5
834.347	750.1802	10594.9	9630.05
834.492	752.2624	10618.25	9659
834.637	754.3439	10655.25	9696.15
834.782	756.4247	10758.85	9793.8
834.9269	758.5048	10947.85	9986.25
835.0719	760.5843	11254.2	10295.9
835.2169	762.6631	11648.2	10686.8
835.3619	764.7413	12230.2	11266.05
835.5069	766.8188	12922.75	11960.35
835.6519	768.8956	13515.65	12550.75
835.7969	770.9718	13892.25	12934.7
835.9419	773.0473	13845.65	12883.65
836.0869	775.1221	13554.25	12594.65
836.232	777.1962	13265.65	12303.5
836.377	779.2697	13172.55	12207.15
836.522	781.3426	13213.4	12244
836.667	783.4147	13340.4	12381.5
836.8121	785.4862	13457.1	12496.5
836.9571	787.557	13283.95	12321.55
837.1021	789.6271	12854.2	11890.15
837.2472	791.6966	12227.5	11262.8
837.3922	793.7654	11581.1	10618.8
837.5373	795.8335	11156.95	10198.65
837.6823	797.901	10865.15	9904.5
837.8274	799.9678	10712.25	9749.15
837.9724	802.0339	10615.65	9649.7
838.1175	804.0993	10586.55	9608.95
838.2626	806.1641	10548	9582.7
838.4076	808.2282	10455.3	9491.35
838.5527	810.2916	10379.8	9415.6
838.6978	812.3544	10306	9346.15
838.8428	814.4164	10262.95	9299.95
838.9879	816.4778	10291.1	9325.5
839.133	818.5385	10314.25	9344.15
839.2781	820.5986	10474.85	9506.1
839.4232	822.658	10716.7	9752.8
839.5682	824.7166	11020.55	10057.8
839.7133	826.7747	11505.3	10540.05
839.8584	828.832	12024.45	11055.6
840.0035	830.8886	12418.65	11453.25
840.1486	832.9446	12566.6	11595.8
840.2937	834.9999	12472.75	11508.05
840.4388	837.0545	12200.65	11233.7
840.5839	839.1085	11892	10924.4
840.729	841.1618	11571.75	10600.65
840.8741	843.2143	11336.25	10370.25
841.0192	845.2662	11133.55	10166.85
841.1643	847.3175	11021.85	10055.55
841.3095	849.368	10895.55	9926.3
841.4546	851.4179	10792.9	9826.55
841.5997	853.467	10687.05	9720.95
841.7448	855.5155	10623.7	9658.65
841.8899	857.5633	10534.45	9568.55
842.0351	859.6105	10460.15	9493.75
842.1802	861.6569	10359.9	9392.65
842.3253	863.7027	10310.95	9340.55
842.4704	865.7478	10255.4	9281.25
842.6156	867.7922	10184.9	9215.55
842.7607	869.8359	10181.35	9210.6
842.9058	871.8789	10252.85	9284.75
843.0509	873.9212	10360.6	9359.05
843.1961	875.9629	10411.6	9442
843.3412	878.0039	10541	9571.8
843.4863	880.0441	10659.45	9692.15
843.6315	882.0837	10707.35	9741.5
843.7766	884.1226	10717.15	9755.35
843.9218	886.1609	10754.6	9788.25
844.0669	888.1984	10862.85	9893.25
844.212	890.2352	10980.4	10008.95
844.3572	892.2714	10990.8	10015.65
844.5023	894.3069	10918.5	9946.75
844.6475	896.3416	10765.95	9799.25
844.7926	898.3757	10633.3	9661.25
844.9377	900.4091	10567.45	9595.85
845.0829	902.4418	10559.8	9581.7
845.228	904.4739	10576.2	9602.05
845.3732	906.5052	10618.55	9642.95
845.5183	908.5358	10583	9611.9
845.6635	910.5658	10456.95	9482
845.8086	912.595	10236.15	9265.1
845.9538	914.6236	10030.85	9058.95
846.0989	916.6515	9888	8911.8
846.2441	918.6786	9817.05	8841.2
846.3892	920.7051	9812.5	8835.8
846.5344	922.7309	9882	8910.7
846.6795	924.756	9899.55	8929.3
846.8246	926.7804	9996.75	9023.95
846.9698	928.8041	9968.15	8992.55
847.1149	930.8272	10021.65	9049.35
847.2601	932.8495	10005.3	9030.8
847.4052	934.8711	10015.45	9040.25
847.5504	936.892	9952.1	8980.5
847.6955	938.9123	9891.75	8919.9
847.8407	940.9318	9926.95	8954.15
847.9858	942.9506	9904.75	8932.1
848.131	944.9688	9865.2	8887.6
848.2761	946.9862	9756.45	8785
848.4213	949.003	9611.2	8635.3
848.5664	951.019	9530.8	8558.2
848.7115	953.0344	9471.15	8499.2
848.8567	955.0491	9477.35	8505.25
849.0018	957.063	9520.9	8547.85
849.147	959.0763	9615.7	8640.2
849.2921	961.0888	9624.2	8653.65
849.4373	963.1007	9693.85	8725.85
849.5824	965.1119	9715.9	8758.45
849.7275	967.1223	9713.95	8760.7
849.8727	969.1321	9668.15	8713.9
850.0178	971.1412	9696.1	8735.85
850.1629	973.1495	9679.85	8712
850.3081	975.1572	9740.05	8722.6
850.4532	977.1641	9716.05	8749.15
850.5983	979.1704	9696.8	8720.85
850.7435	981.1759	9674.95	8698.95
850.8886	983.1808	9693.9	8717.3
851.0337	985.1849	9721.1	8739.25
851.1788	987.1884	9793.45	8816.85
851.324	989.1911	9897.45	8923.85
851.4691	991.1932	9961.85	8990.1
851.6142	993.1945	9966.55	8996
851.7593	995.1951	9964.25	8995.2
851.9045	997.1951	9939.4	8959.5
852.0496	999.1943	9910.8	8939.9
852.1947	1001.1928	9886.85	8910.55
852.3398	1003.1906	9933.25	8959.65
852.4849	1005.1877	10048.5	9074.05
852.63	1007.1841	10125.75	9153.55
852.7751	1009.1798	10120.9	9151.6
852.9202	1011.1748	10039.75	9070.95
853.0653	1013.1691	9902.6	8933.15
853.2104	1015.1627	9698.8	8729.85
853.3555	1017.1556	9493.7	8526
853.5006	1019.1477	9360.15	8393.7
853.6457	1021.1392	9253.2	8292.9
853.7908	1023.1299	9243.45	8285.1
853.9359	1025.12	9240.85	8289.3
854.081	1027.1093	9309.55	8374.4
854.2261	1029.0979	9396.25	8466.6
854.3712	1031.0859	9494.5	8553.95
854.5163	1033.0731	9565.9	8613.95
854.6613	1035.0596	9481.8	8525
854.8064	1037.0454	9395.3	8436.15
854.9515	1039.0304	9295.65	8330.45
855.0965	1041.0148	9177.55	8209.05
855.2416	1042.9985	9084.5	8113.9
855.3867	1044.9814	9056.1	8090.75
855.5317	1046.9636	8974.2	8007.45
855.6768	1048.9452	8968.9	8006.75
855.8219	1050.926	9008.45	8045.65
855.9669	1052.9061	9038	8068.8
856.112	1054.8855	9053.4	8088.55
856.257	1056.8642	9117.75	8151.9
856.4021	1058.8421	9136.8	8161.25
856.5471	1060.8194	9192.9	8223.45
856.6921	1062.7959	9242.15	8275.6
856.8372	1064.7717	9304.1	8335.3
856.9822	1066.7469	9378.65	8409.9
857.1272	1068.7213	9438.65	8468.95
857.2723	1070.695	9490.45	8526.85
857.4173	1072.6679	9524.7	8559.45
857.5623	1074.6402	9553.45	8589.15
857.7073	1076.6117	9507.65	8534
857.8523	1078.5826	9420.7	8449.65
857.9973	1080.5527	9296.55	8327.6
858.1423	1082.5221	9209.1	8241.7
858.2873	1084.4908	9220.2	8253.65
858.4323	1086.4587	9252.55	8284.2
858.5773	1088.426	9298.85	8333.8
858.7223	1090.3925	9288.45	8315.9
858.8673	1092.3584	9315.55	8346.8
859.0123	1094.3235	9337.65	8373.8
859.1573	1096.2879	9400.35	8434.25
859.3022	1098.2515	9521.35	8554.65
859.4472	1100.2145	9689.85	8727.25
859.5922	1102.1767	9860.35	8894.15
859.7371	1104.1382	10101.95	9135.6
859.8821	1106.099	10362.95	9393.3
860.027	1108.0591	10570.6	9605.4
860.172	1110.0185	10744.45	9776.7
860.3169	1111.9771	10792.1	9821.9
860.4619	1113.9351	10714.8	9747
860.6068	1115.8923	10574.45	9609.9
860.7517	1117.8488	10410.9	9444.35
860.8967	1119.8045	10220.95	9253.75
861.0416	1121.7596	10079.9	9116.95
861.1865	1123.7139	9955.55	8993.6
861.3314	1125.6675	9936.45	8971.5
861.4763	1127.6204	9964.25	8996.35
861.6212	1129.5726	9930.85	8965.45
861.7661	1131.524	9828.55	8863.05
861.911	1133.4748	9689.7	8724.3
862.0559	1135.4248	9531.2	8564.55
862.2008	1137.3741	9380.6	8418.9
862.3457	1139.3226	9261.95	8296.7
862.4905	1141.2705	9192.5	8227.3
862.6354	1143.2176	9129	8157.5
862.7803	1145.164	9089.1	8121.25
862.9251	1147.1097	9018	8056.75
863.07	1149.0546	8943.6	7982.95
863.2148	1150.9989	8844.5	7882.4
863.3597	1152.9424	8754.1	7791
863.5045	1154.8852	8625.1	7662.45
863.6493	1156.8272	8590.5	7622.3
863.7942	1158.7686	8604.15	7631.25
863.939	1160.7092	8633.2	7667.1
864.0838	1162.6491	8674.9	7709.55
864.2286	1164.5883	8761.7	7797.6
864.3734	1166.5267	8892.15	7927.85
864.5182	1168.4644	9060.65	8096.75
864.663	1170.4014	9232.8	8266.95
864.8078	1172.3377	9495.8	8536.3
864.9526	1174.2732	9777.3	8816.3
865.0974	1176.2081	10230.5	9269.3
865.2421	1178.1421	10714.35	9746.1
865.3869	1180.0755	11235.3	10273.1
865.5317	1182.0082	11599.9	10639.35
865.6764	1183.9401	11741.7	10783.6
865.8212	1185.8713	11632.4	10678.6
865.9659	1187.8017	11307.75	10359.75
866.1106	1189.7315	10922.5	9985.75
866.2554	1191.6605	10502.25	9563.55
866.4001	1193.5888	10239.95	9296.45
866.5448	1195.5163	10078.9	9128.55
866.6895	1197.4432	9963.2	9010.25
866.8342	1199.3693	9932.75	8977.1
