Software Version:	3.9.2.0
Unit SN:	10000200
Spectrometer SN:	6960
Date:	3/8/2024 2:09:05 PM
Data Line Index:	25
Spectral Points:	2048
Integration time (ms):	125
Averages:	20
Delay (ms):	30000
Sequence Number:	1
Processing:	dark subtract
Laser Power (mW):	305
Laser Current (mA):	824
Laser Diode Temp (C):	25
Laser Case Temp (C):	26.3
System Temp (C):	26.3
Spectrometer Temp (C):	24
CCD Temp (C):	0.004
Secondary Temp (C):	20.014
Heatsink Temp (C):	21.404
CCDPCB Temp (C):	36.207
SecondaryPCB Temp (C):	30.871

Wavelength	RamanShift	Raw Counts	Dark Subtracted
787.061	30.1047	466.65	58.4
787.2016	32.3739	468.55	63.45
787.3422	34.6426	475.3	69.85
787.4828	36.9109	480.7	71.95
787.6235	39.1787	490	77.9
787.7642	41.4461	500.3	81.1
787.9049	43.7131	505.8	85.5
788.0456	45.9796	513.75	92.45
788.1863	48.2456	529.65	103.65
788.3271	50.5112	534.85	104.85
788.4679	52.7764	548.8	114.3
788.6087	55.0411	560.05	120.3
788.7496	57.3054	571	127.05
788.8904	59.5692	577.4	131.2
789.0313	61.8326	593.1	144.3
789.1722	64.0955	603.9	153.4
789.3132	66.3579	618.3	160.15
789.4541	68.6199	641.35	179.55
789.5951	70.8815	684.05	216.55
789.7361	73.1426	766	294.9
789.8771	75.4032	980.75	504.95
790.0181	77.6634	1511.35	1032.95
790.1592	79.9231	2780.45	2292.7
790.3003	82.1824	5523.25	5020.15
790.4414	84.4412	10446.7	9912.75
790.5825	86.6995	17250.35	16679
790.7237	88.9574	23886.55	23276.5
790.8648	91.2148	28459.75	27832.4
791.006	93.4717	30618	29973.25
791.1472	95.7282	31130.55	30479.9
791.2885	97.9842	31119.3	30464.1
791.4297	100.2398	30690.35	30033.85
791.571	102.4949	30143	29478.9
791.7123	104.7495	29415.35	28753.55
791.8536	107.0036	28629.35	27964.6
791.9949	109.2573	27913.2	27253.25
792.1363	111.5105	27243.25	26578.4
792.2777	113.7632	26535.3	25870.3
792.4191	116.0154	25964.9	25285.55
792.5605	118.2672	25526.15	24850.8
792.7019	120.5185	25048.3	24375.7
792.8434	122.7693	24736.55	24061.6
792.9849	125.0197	24478.4	23799.55
793.1264	127.2696	24211.85	23527.95
793.2679	129.519	24078.25	23390.9
793.4094	131.7679	23912.3	23222.4
793.551	134.0163	23770.5	23072.4
793.6926	136.2642	23600	22896.95
793.8342	138.5117	23446.55	22736.8
793.9758	140.7587	23240.4	22536.7
794.1175	143.0052	23089.35	22382.75
794.2591	145.2512	22855.65	22150.8
794.4008	147.4967	22643.75	21938.65
794.5425	149.7417	22520.15	21813.45
794.6842	151.9863	22430.95	21715.3
794.826	154.2304	22371.35	21652.55
794.9677	156.4739	22263.85	21540.3
795.1095	158.717	22204.6	21483.85
795.2513	160.9596	22034.15	21304.7
795.3931	163.2017	21803.45	21073.8
795.535	165.4433	21559.55	20829.3
795.6768	167.6844	21268.85	20540.45
795.8187	169.925	20991.75	20256.3
795.9606	172.1651	20563.5	19827
796.1025	174.4047	20325.6	19587.45
796.2445	176.6439	20102.6	19360.85
796.3864	178.8825	19900.25	19155.85
796.5284	181.1206	19734.45	18982.55
796.6704	183.3582	19580.8	18826.45
796.8124	185.5954	19516.2	18761.9
796.9544	187.832	19422.35	18662
797.0965	190.0681	19422.6	18657.7
797.2386	192.3037	19430.85	18664.85
797.3806	194.5388	19434.25	18665.75
797.5228	196.7734	19526.05	18757
797.6649	199.0075	19632.5	18858.55
797.807	201.2411	19777.85	19004.2
797.9492	203.4742	19839.95	19064.6
798.0914	205.7068	20026.9	19242.6
798.2336	207.9389	20158.75	19375.4
798.3758	210.1704	20315	19538.15
798.518	212.4015	20451.3	19686.9
798.6603	214.632	20616.6	19855.25
798.8025	216.862	20856.85	20097.05
798.9448	219.0915	21024.15	20259.45
799.0871	221.3205	21257.75	20497.05
799.2294	223.549	21557.25	20801.9
799.3718	225.777	21869.35	21109.6
799.5141	228.0044	22261.2	21493.75
799.6565	230.2314	22722.65	21955.3
799.7989	232.4578	23141.75	22375.15
799.9413	234.6837	23544	22768.15
800.0837	236.909	23752.25	22972.75
800.2262	239.1339	23806.3	22996.3
800.3687	241.3582	23598.3	22803.35
800.5111	243.582	23255.75	22434.25
800.6536	245.8053	22934.8	22123.05
800.7961	248.0281	22609	21807.15
800.9387	250.2503	22394	21585.95
801.0812	252.472	22240.3	21433.95
801.2238	254.6932	22202.7	21397.35
801.3664	256.9139	22128.75	21322.5
801.509	259.134	22128.15	21316.05
801.6516	261.3536	22121.05	21312
801.7942	263.5727	22199.1	21385.3
801.9369	265.7912	22121.5	21306.05
802.0795	268.0092	22157.3	21346.4
802.2222	270.2267	22126.6	21315
802.3649	272.4436	22103.45	21290.4
802.5076	274.6601	22105.9	21278.85
802.6504	276.8759	22043.95	21227.65
802.7931	279.0913	22017.8	21198.25
802.9359	281.3061	21964.45	21143.65
803.0787	283.5204	22117.9	21290
803.2215	285.7341	22231.1	21398.85
803.3643	287.9473	22444.05	21608.75
803.5071	290.16	22637.8	21803.5
803.6499	292.3721	22965.65	22140
803.7928	294.5837	23384.65	22556.45
803.9357	296.7947	23772	22940.4
804.0786	299.0052	23974.65	23146.85
804.2215	301.2152	23854.25	23019.9
804.3644	303.4246	23535.3	22709.45
804.5074	305.6334	22974.25	22150.45
804.6503	307.8418	22504.9	21675
804.7933	310.0495	22078.55	21245.95
804.9363	312.2568	21813.25	20979.35
805.0793	314.4635	21602.05	20766.15
805.2223	316.6696	21527.15	20688.9
805.3653	318.8752	21512.95	20666.55
805.5084	321.0802	21567.1	20727.7
805.6514	323.2847	21688.45	20848.4
805.7945	325.4887	21741.55	20901
805.9376	327.692	21734.45	20889.35
806.0807	329.8949	21673.05	20827
806.2238	332.0972	21388.65	20541.85
806.367	334.2989	21115.1	20262.85
806.5101	336.5001	20851.95	20004.75
806.6533	338.7007	20670.3	19819.4
806.7965	340.9008	20583.95	19733.6
806.9397	343.1003	20502.85	19650.05
807.0829	345.2992	20464.55	19612.45
807.2261	347.4976	20425.35	19566.85
807.3693	349.6955	20445.35	19586.75
807.5126	351.8927	20553.35	19695.5
807.6559	354.0895	20537.25	19670.15
807.7991	356.2856	20603.3	19735
807.9424	358.4812	20622	19757.85
808.0857	360.6763	20661.6	19802.4
808.2291	362.8707	20649.3	19785.1
808.3724	365.0646	20715.4	19846.4
808.5158	367.258	20730.9	19864.7
808.6591	369.4508	20753.2	19881.85
808.8025	371.643	20830.2	19955.65
808.9459	373.8346	20825.6	19948.2
809.0893	376.0257	20827.65	19952.8
809.2327	378.2162	20727.15	19853.25
809.3762	380.4062	20698.55	19823.7
809.5196	382.5956	20565.1	19695
809.6631	384.7844	20486.5	19622.65
809.8066	386.9726	20347.85	19481.3
809.9501	389.1603	20324.95	19462.15
810.0936	391.3474	20301.25	19409.8
810.2371	393.5339	20327.7	19457.4
810.3806	395.7199	20252.25	19386.4
810.5241	397.9052	20282.2	19415.75
810.6677	400.09	20322.85	19459.35
810.8113	402.2743	20399.55	19531.45
810.9548	404.4579	20485.05	19620.05
811.0984	406.641	20668.95	19796.7
811.2421	408.8235	20876.35	20011
811.3857	411.0054	21230.4	20356.25
811.5293	413.1868	21692	20816.15
811.673	415.3675	22060	21178.05
811.8166	417.5477	22268.3	21386.25
811.9603	419.7273	22284.15	21401.65
812.104	421.9064	22188.65	21299.4
812.2477	424.0848	22060.25	21182.15
812.3914	426.2627	21859.15	20977.2
812.5351	428.4399	21560.95	20677.5
812.6788	430.6166	21229.4	20341.55
812.8226	432.7928	20854.15	19968
812.9663	434.9683	20573.9	19691.05
813.1101	437.1432	20378.95	19499.2
813.2539	439.3176	20194.6	19315.4
813.3977	441.4914	20119.35	19244.15
813.5415	443.6645	20071.3	19194.55
813.6853	445.8371	20019.95	19134.05
813.8291	448.0091	19974.65	19091.25
813.973	450.1806	19955.5	19076.5
814.1168	452.3514	19877.9	18997.4
814.2607	454.5216	19933.85	19046.75
814.4046	456.6913	19844.8	18957.55
814.5485	458.8603	19919	19035.4
814.6924	461.0288	19963.3	19085.45
814.8363	463.1967	19976.5	19101.65
814.9802	465.3639	20130.9	19251
815.1241	467.5306	20235.05	19355.05
815.2681	469.6967	20378.05	19502
815.412	471.8622	20541.7	19670.45
815.556	474.0271	20695.05	19814.95
815.7	476.1914	20820.6	19931.5
815.844	478.3551	20800.9	19913.25
815.988	480.5182	20807.7	19928.35
816.132	482.6807	20840.15	19966.85
816.276	484.8426	20910.85	20044.5
816.4201	487.0039	21239.55	20366.55
816.5641	489.1647	21674.35	20793
816.7082	491.3248	22113.8	21231.9
816.8522	493.4843	22283.2	21403.2
816.9963	495.6432	22326.7	21447.45
817.1404	497.8015	22200.5	21312.3
817.2845	499.9592	22269.6	21371.1
817.4286	502.1163	22231.35	21332.85
817.5727	504.2728	21981.2	21093.95
817.7168	506.4287	21704.95	20828.45
817.861	508.5839	21293.55	20413.3
818.0051	510.7386	20994.4	20110.9
818.1493	512.8927	20817	19926.1
818.2935	515.0461	20741.8	19851.65
818.4377	517.199	20672.25	19778.1
818.5818	519.3512	20698	19799.55
818.726	521.5029	20791.1	19890.7
818.8703	523.6539	20876.55	19983.25
819.0145	525.8043	20892.6	20001.25
819.1587	527.9541	20964.7	20066.7
819.303	530.1033	20949.8	20054.4
819.4472	532.2519	20993.5	20098.65
819.5915	534.3999	21152.1	20255.95
819.7357	536.5472	21393.8	20497.8
819.88	538.694	21897.45	21004.85
820.0243	540.8401	22521.25	21624.65
820.1686	542.9856	23049.8	22140.7
820.3129	545.1305	23244.35	22328.05
820.4572	547.2748	23117.75	22201.85
820.6016	549.4185	22755.1	21840.7
820.7459	551.5615	22395.9	21481.6
820.8902	553.704	22278.7	21369.05
821.0346	555.8458	22191.05	21281.35
821.1789	557.987	22244.85	21340.25
821.3233	560.1276	22228.65	21320.55
821.4677	562.2675	22282.45	21371.65
821.6121	564.4069	22319	21410.95
821.7565	566.5456	22290.85	21386.9
821.9009	568.6837	22198.65	21297.55
822.0453	570.8212	21929.5	21026.75
822.1897	572.958	21632.25	20725.55
822.3342	575.0942	21383.7	20485.25
822.4786	577.2299	21219.7	20318.85
822.6231	579.3648	21165.25	20281.75
822.7675	581.4992	21232.75	20352.7
822.912	583.6329	21424.15	20551.7
823.0565	585.766	21668.85	20788
823.201	587.8985	21814.15	20927.75
823.3454	590.0304	21822.15	20911.55
823.4899	592.1616	21770.2	20860.8
823.6345	594.2922	21715.85	20805.05
823.779	596.4222	21545.85	20635
823.9235	598.5515	21412.55	20495.7
824.068	600.6802	21239.85	20327.85
824.2126	602.8083	21040.5	20133.85
824.3571	604.9358	21039.9	20131.25
824.5017	607.0626	20975.35	20061.95
824.6462	609.1888	20998.5	20073.95
824.7908	611.3144	20919.25	19999.15
824.9354	613.4393	20838	19917.4
825.08	615.5636	20736.7	19817.2
825.2246	617.6873	20652.8	19733.8
825.3692	619.8103	20623.95	19703.55
825.5138	621.9327	20538.95	19624.75
825.6584	624.0544	20505.7	19595.2
825.803	626.1756	20510.9	19600.8
825.9477	628.2961	20466.4	19552
826.0923	630.4159	20435.7	19514.15
826.237	632.5351	20430.7	19511.6
826.3816	634.6537	20371.2	19453.2
826.5263	636.7716	20353.2	19430.3
826.6709	638.8889	20382.85	19455.9
826.8156	641.0056	20457.5	19533.55
826.9603	643.1216	20468.45	19545.6
827.105	645.237	20517.3	19596.95
827.2497	647.3518	20479.95	19564.6
827.3944	649.4659	20550.4	19641.9
827.5391	651.5793	20539.3	19632.55
827.6838	653.6922	20500.45	19588.6
827.8285	655.8043	20531.1	19618.8
827.9733	657.9159	20564.2	19649.15
828.118	660.0268	20480.3	19564.7
828.2627	662.137	20412.1	19494.7
828.4075	664.2466	20457.2	19531.7
828.5522	666.3556	20448.35	19524.05
828.697	668.4639	20447.5	19529.2
828.8418	670.5716	20491.1	19575.7
828.9865	672.6786	20567.75	19645.65
829.1313	674.785	20660.25	19737.9
829.2761	676.8907	20718.6	19794.55
829.4209	678.9958	20811.05	19895.3
829.5657	681.1002	20816.85	19896.2
829.7105	683.204	20791.3	19857.05
829.8553	685.3072	20735.85	19807.55
830.0001	687.4097	20722.8	19802.4
830.1449	689.5115	20658.25	19728.8
830.2898	691.6127	20649.7	19727.2
830.4346	693.7132	20567.45	19648.1
830.5794	695.8131	20572.25	19626
830.7243	697.9123	20572	19639.9
830.8691	700.0109	20522.25	19587.5
831.014	702.1089	20521.5	19591.95
831.1588	704.2061	20574.9	19646.55
831.3037	706.3028	20632.05	19702.65
831.4486	708.3987	20704.95	19774.6
831.5935	710.4941	20796.25	19865.85
831.7383	712.5887	20975.4	20050.7
831.8832	714.6827	21274	20345.1
832.0281	716.7761	21634	20707.85
832.173	718.8688	22026.2	21103.8
832.3179	720.9608	22254.4	21314.85
832.4628	723.0522	22332.45	21392.85
832.6077	725.1429	22099.25	21163.15
832.7527	727.233	21857.5	20924.55
832.8976	729.3224	21618.85	20686.7
833.0425	731.4112	21338.75	20405.55
833.1874	733.4993	21120.15	20186.1
833.3324	735.5867	20990.5	20058.65
833.4773	737.6735	20895.85	19964.3
833.6222	739.7596	20870.2	19937.25
833.7672	741.845	20833.8	19903.1
833.9122	743.9298	20820.1	19885.55
834.0571	746.014	20842.75	19910.55
834.2021	748.0974	20862.45	19925.5
834.347	750.1802	20843.75	19909
834.492	752.2624	20837.65	19899.75
834.637	754.3439	20884.85	19945.65
834.782	756.4247	20950.85	20005.85
834.9269	758.5048	21080.2	20140.45
835.0719	760.5843	21302	20363.25
835.2169	762.6631	21568.25	20630.05
835.3619	764.7413	22035.95	21098.2
835.5069	766.8188	22617.75	21677.85
835.6519	768.8956	23035.65	22096.2
835.7969	770.9718	23360.9	22423.75
835.9419	773.0473	23224.15	22286.75
836.0869	775.1221	22915.35	21976.8
836.232	777.1962	22556.85	21619.4
836.377	779.2697	22401.85	21459.65
836.522	781.3426	22420.05	21461.45
836.667	783.4147	22708.6	21768.5
836.8121	785.4862	23018.2	22080.7
836.9571	787.557	23069.1	22126
837.1021	789.6271	22745.25	21802.75
837.2472	791.6966	22193.2	21252.8
837.3922	793.7654	21669.55	20727.05
837.5373	795.8335	21399.15	20462.35
837.6823	797.901	21227.85	20286.3
837.8274	799.9678	21199.85	20255.7
837.9724	802.0339	21188.65	20244.85
838.1175	804.0993	21265.15	20310.6
838.2626	806.1641	21269.8	20325.9
838.4076	808.2282	21179.35	20240.1
838.5527	810.2916	21119.45	20174.7
838.6978	812.3544	21055.3	20117.3
838.8428	814.4164	20958.8	20017.15
838.9879	816.4778	20959.75	20015.25
839.133	818.5385	20979.65	20032.5
839.2781	820.5986	21086.6	20144.6
839.4232	822.658	21181.15	20234.9
839.5682	824.7166	21326.85	20384.55
839.7133	826.7747	21547.9	20604.45
839.8584	828.832	21735.4	20789.9
840.0035	830.8886	21814.3	20865.95
840.1486	832.9446	22002.05	21055.9
840.2937	834.9999	22037.4	21094.45
840.4388	837.0545	22065.6	21119.5
840.5839	839.1085	22097.25	21151.6
840.729	841.1618	22104.5	21155.6
840.8741	843.2143	22024.7	21076.8
841.0192	845.2662	21956.9	21013.95
841.1643	847.3175	21932.65	20986.6
841.3095	849.368	21829.1	20885.05
841.4546	851.4179	21723.6	20777.15
841.5997	853.467	21555.05	20612.55
841.7448	855.5155	21483.85	20538.7
841.8899	857.5633	21402.95	20454.65
842.0351	859.6105	21305.5	20357.95
842.1802	861.6569	21248.7	20301.75
842.3253	863.7027	21206.75	20254.8
842.4704	865.7478	21243.6	20295.8
842.6156	867.7922	21295.05	20345.05
842.7607	869.8359	21312.85	20365.8
842.9058	871.8789	21440.35	20491.3
843.0509	873.9212	21658.75	20676.8
843.1961	875.9629	21746.25	20796.05
843.3412	878.0039	21959.3	21010.55
843.4863	880.0441	22126.95	21177.85
843.6315	882.0837	22155.25	21209.95
843.7766	884.1226	22044.85	21096
843.9218	886.1609	21942.6	20994.45
844.0669	888.1984	21874.65	20928.5
844.212	890.2352	21919.25	20971.1
844.3572	892.2714	21879.75	20927.35
844.5023	894.3069	21873.35	20922.35
844.6475	896.3416	21802.95	20853.5
844.7926	898.3757	21792.65	20840.85
844.9377	900.4091	21793.7	20843.55
845.0829	902.4418	21796.15	20838.25
845.228	904.4739	21806.3	20850.95
845.3732	906.5052	21837.2	20881.4
845.5183	908.5358	21730.75	20779.55
845.6635	910.5658	21563.6	20608.65
845.8086	912.595	21434.55	20479.95
845.9538	914.6236	21320.9	20367.75
846.0989	916.6515	21288.2	20336
846.2441	918.6786	21270.55	20316.9
846.3892	920.7051	21354.4	20400.85
846.5344	922.7309	21484.85	20531.9
846.6795	924.756	21534.15	20583.65
846.8246	926.7804	21659.05	20705.2
846.9698	928.8041	21540.85	20589.65
847.1149	930.8272	21625.7	20672.65
847.2601	932.8495	21560.45	20609.9
847.4052	934.8711	21488.25	20535.05
847.5504	936.892	21324.35	20370.1
847.6955	938.9123	21171.4	20218.55
847.8407	940.9318	21056.3	20102.3
847.9858	942.9506	20954.85	20004.45
848.131	944.9688	20873.9	19919.25
848.2761	946.9862	20863.75	19911.75
848.4213	949.003	20749.85	19793.8
848.5664	951.019	20737.7	19785.3
848.7115	953.0344	20766.95	19814.8
848.8567	955.0491	20788.45	19836.15
849.0018	957.063	20927.35	19973.05
849.147	959.0763	21057	20101.3
849.2921	961.0888	21090.45	20138.75
849.4373	963.1007	21219.35	20270.45
849.5824	965.1119	21255	20315.9
849.7275	967.1223	21273.1	20335.65
849.8727	969.1321	21315.4	20378.45
850.0178	971.1412	21400	20455.75
850.1629	973.1495	21362.15	20417.75
850.3081	975.1572	21441.25	20440.8
850.4532	977.1641	21493.95	20542.3
850.5983	979.1704	21478.7	20525.6
850.7435	981.1759	21460.25	20506.4
850.8886	983.1808	21505.1	20548.3
851.0337	985.1849	21594.7	20632.8
851.1788	987.1884	21727.65	20772.55
851.324	989.1911	21907	20952
851.4691	991.1932	22055.55	21103.85
851.6142	993.1945	22081.95	21134.1
851.7593	995.1951	22054.5	21103.15
851.9045	997.1951	22033.35	21071.9
852.0496	999.1943	21916.15	20962.85
852.1947	1001.1928	21876.45	20922.7
852.3398	1003.1906	21850.75	20897.7
852.4849	1005.1877	21891.3	20938.9
852.63	1007.1841	21846.7	20897.1
852.7751	1009.1798	21779.5	20828.85
852.9202	1011.1748	21563.45	20609.8
853.0653	1013.1691	21398.9	20448.85
853.2104	1015.1627	21188.2	20239.45
853.3555	1017.1556	20938.8	19991.6
853.5006	1019.1477	20859.9	19912.3
853.6457	1021.1392	20756.25	19813.3
853.7908	1023.1299	20691.4	19753.1
853.9359	1025.12	20733.15	19800.1
854.081	1027.1093	20743.7	19820.4
854.2261	1029.0979	20836.75	19922.2
854.3712	1031.0859	20846.7	19920.75
854.5163	1033.0731	20919.1	19984.45
854.6613	1035.0596	20834.15	19892.8
854.8064	1037.0454	20684	19737.8
854.9515	1039.0304	20553.05	19605.45
855.0965	1041.0148	20412.95	19462.9
855.2416	1042.9985	20316.5	19370.3
855.3867	1044.9814	20284.7	19335.9
855.5317	1046.9636	20248.95	19300.6
855.6768	1048.9452	20214.45	19268.95
855.8219	1050.926	20240.25	19291.8
855.9669	1052.9061	20217.2	19269.45
856.112	1054.8855	20207.75	19258.55
856.257	1056.8642	20254.75	19305.5
856.4021	1058.8421	20340.55	19385.95
856.5471	1060.8194	20374.6	19419.85
856.6921	1062.7959	20384.1	19436.85
856.8372	1064.7717	20392.15	19438.05
856.9822	1066.7469	20416.6	19465.3
857.1272	1068.7213	20426.05	19474.7
857.2723	1070.695	20420.9	19471.9
857.4173	1072.6679	20310.2	19357.35
857.5623	1074.6402	20294.45	19343.3
857.7073	1076.6117	20289.85	19331.1
857.8523	1078.5826	20298.75	19348.9
857.9973	1080.5527	20283.25	19331.85
858.1423	1082.5221	20411.35	19459.8
858.2873	1084.4908	20583.95	19631.65
858.4323	1086.4587	20749.55	19797.45
858.5773	1088.426	20897	19945.3
858.7223	1090.3925	20863.45	19908.7
858.8673	1092.3584	20858.9	19908.3
859.0123	1094.3235	20643.7	19696.4
859.1573	1096.2879	20607.65	19657.4
859.3022	1098.2515	20577.55	19627.75
859.4472	1100.2145	20671.65	19720
859.5922	1102.1767	20752.85	19801.95
859.7371	1104.1382	20915.95	19967.45
859.8821	1106.099	21106.2	20155.35
860.027	1108.0591	21290.9	20342.55
860.172	1110.0185	21457.05	20507.8
860.3169	1111.9771	21463.75	20515.35
860.4619	1113.9351	21231.15	20281.6
860.6068	1115.8923	20952.6	20004.9
860.7517	1117.8488	20633.35	19682.6
860.8967	1119.8045	20345.1	19396.85
861.0416	1121.7596	20260.05	19313.7
861.1865	1123.7139	20136.95	19191.1
861.3314	1125.6675	20141.1	19195.25
861.4763	1127.6204	20257.2	19310.75
861.6212	1129.5726	20219.55	19269.05
861.7661	1131.524	20263.65	19316.75
861.911	1133.4748	20242.8	19295.95
862.0559	1135.4248	20199.65	19249.1
862.2008	1137.3741	20164.55	19216.9
862.3457	1139.3226	20166.55	19216.55
862.4905	1141.2705	20151.1	19203.15
862.6354	1143.2176	20020.05	19063.1
862.7803	1145.164	19995.45	19042.55
862.9251	1147.1097	20040.4	19087.7
863.07	1149.0546	20031.05	19084.8
863.2148	1150.9989	19974.25	19025.1
863.3597	1152.9424	19829.15	18882.3
863.5045	1154.8852	19643.25	18694.2
863.6493	1156.8272	19560.6	18613.35
863.7942	1158.7686	19526.6	18569.2
863.939	1160.7092	19477.3	18529.8
864.0838	1162.6491	19396.15	18444.55
864.2286	1164.5883	19497.45	18546.7
864.3734	1166.5267	19583.25	18631.9
864.5182	1168.4644	19745.9	18795.6
864.663	1170.4014	19917.2	18964.1
864.8078	1172.3377	20146.85	19204.05
864.9526	1174.2732	20405.55	19458.2
865.0974	1176.2081	20654.8	19707.55
865.2421	1178.1421	20856.8	19904.1
865.3869	1180.0755	21043.65	20100.4
865.5317	1182.0082	21112	20165.7
