Software Version:	3.9.2.0
Unit SN:	10000200
Spectrometer SN:	6960
Date:	3/8/2024 1:21:47 PM
Data Line Index:	25
Spectral Points:	2048
Integration time (ms):	125
Averages:	20
Delay (ms):	30000
Sequence Number:	1
Processing:	dark subtract
Laser Power (mW):	300
Laser Current (mA):	823
Laser Diode Temp (C):	25
Laser Case Temp (C):	26.2
System Temp (C):	26.1
Spectrometer Temp (C):	24
CCD Temp (C):	0
Secondary Temp (C):	20.007
Heatsink Temp (C):	21.205
CCDPCB Temp (C):	36.329
SecondaryPCB Temp (C):	30.805

Wavelength	RamanShift	Raw Counts	Dark Subtracted
787.061	30.1047	453.95	45.6
787.2016	32.3739	454	46.85
787.3422	34.6426	460.8	54.55
787.4828	36.9109	466.1	57.5
787.6235	39.1787	470.7	58.35
787.7642	41.4461	482.3	63.1
787.9049	43.7131	490.4	69.5
788.0456	45.9796	498.55	76.25
788.1863	48.2456	505.6	77.7
788.3271	50.5112	515.35	84.2
788.4679	52.7764	525.05	89.5
788.6087	55.0411	536.9	97.1
788.7496	57.3054	546.1	100.65
788.8904	59.5692	555.65	108.55
789.0313	61.8326	563.6	115.6
789.1722	64.0955	576.25	125.8
789.3132	66.3579	595.9	136.5
789.4541	68.6199	611.9	147.95
789.5951	70.8815	647.3	181.05
789.7361	73.1426	728.95	258.8
789.8771	75.4032	925.55	451.8
790.0181	77.6634	1410	930.4
790.1592	79.9231	2557.4	2069
790.3003	82.1824	5027.45	4521.3
790.4414	84.4412	9491.95	8951.6
790.5825	86.6995	15608.65	15030.35
790.7237	88.9574	21577.45	20962.2
790.8648	91.2148	25684.85	25050.55
791.006	93.4717	27506.5	26850.35
791.1472	95.7282	27831.65	27171.6
791.2885	97.9842	27667.15	27001.15
791.4297	100.2398	27026.15	26354.95
791.571	102.4949	26348.15	25680
791.7123	104.7495	25564.3	24892.15
791.8536	107.0036	24646.3	23975.05
791.9949	109.2573	23879.1	23208
792.1363	111.5105	23115.8	22442.7
792.2777	113.7632	22377.1	21700.15
792.4191	116.0154	21794	21107.7
792.5605	118.2672	21314.7	20625.55
792.7019	120.5185	20895.2	20205.75
792.8434	122.7693	20509.3	19819.3
792.9849	125.0197	20190.85	19500.9
793.1264	127.2696	19927.85	19233.2
793.2679	129.519	19751	19051.45
793.4094	131.7679	19505.55	18802.25
793.551	134.0163	19272.25	18569.2
793.6926	136.2642	19041.25	18331.4
793.8342	138.5117	18797	18089.25
793.9758	140.7587	18484.5	17771.4
794.1175	143.0052	18231.2	17516.35
794.2591	145.2512	17943.8	17231.45
794.4008	147.4967	17689.35	16972.35
794.5425	149.7417	17517.55	16800.35
794.6842	151.9863	17367	16642.2
794.826	154.2304	17285	16553.35
794.9677	156.4739	17143.7	16409.9
795.1095	158.717	17054.75	16320.65
795.2513	160.9596	16859.9	16120.2
795.3931	163.2017	16620.6	15881.8
795.535	165.4433	16336.7	15593.15
795.6768	167.6844	15993.75	15251.2
795.8187	169.925	15681.75	14939
795.9606	172.1651	15319.35	14576.85
796.1025	174.4047	15015.15	14266.05
796.2445	176.6439	14764.85	14008.45
796.3864	178.8825	14555.65	13801.5
796.5284	181.1206	14395.05	13633.45
796.6704	183.3582	14218.35	13450.8
796.8124	185.5954	14104.95	13336.9
796.9544	187.832	14025.6	13255.9
797.0965	190.0681	13990.6	13217.85
797.2386	192.3037	13986.05	13208.4
797.3806	194.5388	13995.05	13217.1
797.5228	196.7734	13996.8	13214.2
797.6649	199.0075	14061.1	13277.45
797.807	201.2411	14178.55	13394.05
797.9492	203.4742	14251.65	13465.7
798.0914	205.7068	14429.85	13638.05
798.2336	207.9389	14536.5	13745
798.3758	210.1704	14646.8	13864.7
798.518	212.4015	14781.7	14009.25
798.6603	214.632	14938.6	14163.95
798.8025	216.862	15106.05	14338.45
798.9448	219.0915	15234.05	14465.95
799.0871	221.3205	15424.7	14648.75
799.2294	223.549	15633.55	14862.85
799.3718	225.777	15859.9	15086.7
799.5141	228.0044	16160.95	15381.8
799.6565	230.2314	16532.25	15755.3
799.7989	232.4578	16845.85	16065.3
799.9413	234.6837	17174.25	16385.1
800.0837	236.909	17317.5	16527.7
800.2262	239.1339	17304.95	16489.9
800.3687	241.3582	17149.1	16347.5
800.5111	243.582	16901.8	16066.45
800.6536	245.8053	16614.85	15797.4
800.7961	248.0281	16349.15	15531.2
800.9387	250.2503	16192.3	15378.55
801.0812	252.472	16069.15	15252.65
801.2238	254.6932	16099.1	15281.85
801.3664	256.9139	16073.2	15255.65
801.509	259.134	16162.4	15339.45
801.6516	261.3536	16225.6	15404.7
801.7942	263.5727	16350.45	15524.3
801.9369	265.7912	16404.25	15581.25
802.0795	268.0092	16545.9	15724.65
802.2222	270.2267	16581.3	15756.3
802.3649	272.4436	16580.4	15751.95
802.5076	274.6601	16560.85	15722.75
802.6504	276.8759	16466.35	15641.15
802.7931	279.0913	16421.5	15594.8
802.9359	281.3061	16304.4	15471
803.0787	283.5204	16309.9	15471.15
803.2215	285.7341	16333.4	15493.6
803.3643	287.9473	16455	15608.25
803.5071	290.16	16643.2	15801.9
803.6499	292.3721	16914.1	16081.05
803.7928	294.5837	17249.8	16411.45
803.9357	296.7947	17574.15	16737.9
804.0786	299.0052	17763.85	16927.7
804.2215	301.2152	17665.95	16823.8
804.3644	303.4246	17373.55	16535
804.5074	305.6334	16844.7	16009.1
804.6503	307.8418	16360.8	15523.5
804.7933	310.0495	15954.45	15115.7
804.9363	312.2568	15584.85	14744.65
805.0793	314.4635	15333.9	14488.25
805.2223	316.6696	15159.15	14308.5
805.3653	318.8752	15078.85	14222.25
805.5084	321.0802	15086.4	14237.05
805.6514	323.2847	15118.9	14267.45
805.7945	325.4887	15210.1	14359.4
805.9376	327.692	15176.45	14321.4
806.0807	329.8949	15069.45	14215.4
806.2238	332.0972	14833.85	13974.3
806.367	334.2989	14599.6	13739.3
806.5101	336.5001	14297.2	13435.05
806.6533	338.7007	14108.1	13247.15
806.7965	340.9008	13963.95	13105.45
806.9397	343.1003	13822.8	12961.75
807.0829	345.2992	13764.75	12903.7
807.2261	347.4976	13690.65	12827.85
807.3693	349.6955	13688.25	12821.05
807.5126	351.8927	13713.55	12842
807.6559	354.0895	13722.7	12842.15
807.7991	356.2856	13713.9	12843.15
807.9424	358.4812	13680	12808.4
808.0857	360.6763	13722.75	12848.5
808.2291	362.8707	13717.55	12839.75
808.3724	365.0646	13741.9	12857.3
808.5158	367.258	13755.8	12878.2
808.6591	369.4508	13813.35	12933.6
808.8025	371.643	13892.05	13009.1
808.9459	373.8346	13908.75	13023.2
809.0893	376.0257	13926.2	13040.4
809.2327	378.2162	13873.15	12991.15
809.3762	380.4062	13798.85	12915.55
809.5196	382.5956	13677.6	12796.6
809.6631	384.7844	13557.4	12680.6
809.8066	386.9726	13474.8	12602.35
809.9501	389.1603	13383.9	12510.7
810.0936	391.3474	13380.8	12469.95
810.2371	393.5339	13330.5	12451.1
810.3806	395.7199	13291.6	12414.9
810.5241	397.9052	13307.8	12433.25
810.6677	400.09	13330.1	12455.3
810.8113	402.2743	13458.85	12580.75
810.9548	404.4579	13551.9	12676.25
811.0984	406.641	13728.2	12852
811.2421	408.8235	13937.65	13058.15
811.3857	411.0054	14189.5	13307.3
811.5293	413.1868	14541.85	13654
811.673	415.3675	14791.35	13897.8
811.8166	417.5477	14959.4	14069.85
811.9603	419.7273	14951.5	14061.95
812.104	421.9064	14877.15	13982.9
812.2477	424.0848	14758.95	13869.35
812.3914	426.2627	14585.65	13697.15
812.5351	428.4399	14286.3	13396
812.6788	430.6166	13939.55	13042.85
812.8226	432.7928	13578.05	12679.85
812.9663	434.9683	13262.15	12367.7
813.1101	437.1432	13051.25	12159.45
813.2539	439.3176	12874.3	11986.55
813.3977	441.4914	12768.4	11883.2
813.5415	443.6645	12766.65	11880.55
813.6853	445.8371	12707.9	11814.55
813.8291	448.0091	12647.4	11749.15
813.973	450.1806	12607.5	11717.55
814.1168	452.3514	12597.9	11713.65
814.2607	454.5216	12623.15	11725
814.4046	456.6913	12574.45	11682.2
814.5485	458.8603	12602.3	11709.35
814.6924	461.0288	12631.95	11747.4
814.8363	463.1967	12652.65	11770.1
814.9802	465.3639	12731.1	11842.15
815.1241	467.5306	12809.05	11918.55
815.2681	469.6967	12916.65	12033.25
815.412	471.8622	13022.15	12137.6
815.556	474.0271	13125.9	12237.6
815.7	476.1914	13211.8	12319.25
815.844	478.3551	13201.9	12312.25
815.988	480.5182	13221.2	12329.15
816.132	482.6807	13245.85	12362
816.276	484.8426	13339.4	12467.95
816.4201	487.0039	13653.15	12773.35
816.5641	489.1647	14041.75	13152.25
816.7082	491.3248	14445.6	13551
816.8522	493.4843	14612.15	13727.7
816.9963	495.6432	14591.05	13701.75
817.1404	497.8015	14483.65	13582.7
817.2845	499.9592	14442.85	13540.6
817.4286	502.1163	14365.8	13465.4
817.5727	504.2728	14086.15	13191.75
817.7168	506.4287	13795.75	12912.5
817.861	508.5839	13393.6	12506.2
818.0051	510.7386	13091.1	12195.2
818.1493	512.8927	12957.85	12055
818.2935	515.0461	12863.6	11961.55
818.4377	517.199	12888	11984.15
818.5818	519.3512	12931.65	12030
818.726	521.5029	13068.15	12163.2
818.8703	523.6539	13188.7	12290.1
819.0145	525.8043	13250.8	12347.65
819.1587	527.9541	13255.05	12347.1
819.303	530.1033	13188.8	12283.95
819.4472	532.2519	13156.8	12251
819.5915	534.3999	13235.9	12330.25
819.7357	536.5472	13438.4	12534.75
819.88	538.694	13821.6	12922.8
820.0243	540.8401	14293.45	13385.25
820.1686	542.9856	14712.05	13796.4
820.3129	545.1305	14851.6	13932.3
820.4572	547.2748	14725.5	13798.85
820.6016	549.4185	14406.95	13481.45
820.7459	551.5615	14128.45	13204.75
820.8902	553.704	14024.25	13101.3
821.0346	555.8458	14026.25	13107.4
821.1789	557.987	14106.5	13192.7
821.3233	560.1276	14151	13234.3
821.4677	562.2675	14292.3	13372.15
821.6121	564.4069	14486.65	13570.95
821.7565	566.5456	14634.25	13720.35
821.9009	568.6837	14640.5	13727.1
822.0453	570.8212	14293.2	13381.1
822.1897	572.958	13857.1	12942.5
822.3342	575.0942	13429.1	12520.8
822.4786	577.2299	13186.9	12286.2
822.6231	579.3648	13089.4	12200.55
822.7675	581.4992	13112.25	12232.9
822.912	583.6329	13298.2	12417.5
823.0565	585.766	13516.25	12627
823.201	587.8985	13633.65	12737.5
823.3454	590.0304	13684.3	12756.95
823.4899	592.1616	13595.45	12678.5
823.6345	594.2922	13494.35	12577.75
823.779	596.4222	13337.5	12414.95
823.9235	598.5515	13164.35	12244.8
824.068	600.6802	12984.5	12062.9
824.2126	602.8083	12804.9	11888.4
824.3571	604.9358	12780.35	11864.25
824.5017	607.0626	12728.95	11805.25
824.6462	609.1888	12768.2	11841.1
824.7908	611.3144	12807.35	11883
824.9354	613.4393	12768.65	11839.2
825.08	615.5636	12699.65	11770.6
825.2246	617.6873	12680	11754.25
825.3692	619.8103	12618.45	11690.5
825.5138	621.9327	12494.15	11570.35
825.6584	624.0544	12391	11474.65
825.803	626.1756	12307.7	11385.3
825.9477	628.2961	12231.25	11311.05
826.0923	630.4159	12167	11238.9
826.237	632.5351	12130.5	11201.6
826.3816	634.6537	12072.3	11143.45
826.5263	636.7716	12075.1	11145.85
826.6709	638.8889	12103.15	11170.9
826.8156	641.0056	12119.4	11185.3
826.9603	643.1216	12081.9	11148.3
827.105	645.237	12103.85	11174.15
827.2497	647.3518	12053.4	11130.1
827.3944	649.4659	12029.8	11109.65
827.5391	651.5793	12049.55	11135.15
827.6838	653.6922	12004.4	11083.45
827.8285	655.8043	12018.65	11099
827.9733	657.9159	12014.9	11093.55
828.118	660.0268	11943.6	11018.5
828.2627	662.137	11909.15	10984.2
828.4075	664.2466	11904.8	10969.65
828.5522	666.3556	11887.3	10952.6
828.697	668.4639	11865.25	10938.55
828.8418	670.5716	11870.9	10949.35
828.9865	672.6786	11922.35	10999.25
829.1313	674.785	11940.5	11007.8
829.2761	676.8907	11970.9	11044.95
829.4209	678.9958	12039.45	11116
829.5657	681.1002	12025.15	11097
829.7105	683.204	11999.7	11055.7
829.8553	685.3072	11967.2	11031.8
830.0001	687.4097	11931.15	10996.95
830.1449	689.5115	11900.1	10967.8
830.2898	691.6127	11890.1	10955.6
830.4346	693.7132	11813.05	10886.4
830.5794	695.8131	11794.25	10847.85
830.7243	697.9123	11815.9	10879
830.8691	700.0109	11784.15	10842.8
831.014	702.1089	11774.35	10837.9
831.1588	704.2061	11805	10872.75
831.3037	706.3028	11834.85	10897.25
831.4486	708.3987	11850.45	10915.25
831.5935	710.4941	11925.6	10990.65
831.7383	712.5887	12086.05	11150.5
831.8832	714.6827	12303.75	11365.85
832.0281	716.7761	12594.4	11663
832.173	718.8688	12871.85	11940.25
832.3179	720.9608	13087.5	12143.05
832.4628	723.0522	13150.65	12203.6
832.6077	725.1429	13059.8	12117.5
832.7527	727.233	12880.25	11947.2
832.8976	729.3224	12735.65	11800.35
833.0425	731.4112	12535.2	11600.1
833.1874	733.4993	12361.75	11424.05
833.3324	735.5867	12202.55	11265.05
833.4773	737.6735	12057.35	11118.05
833.6222	739.7596	11943.1	11005.3
833.7672	741.845	11846.15	10905.65
833.9122	743.9298	11819.1	10876.45
834.0571	746.014	11818.3	10878.15
834.2021	748.0974	11837.5	10889.35
834.347	750.1802	11828.1	10879.7
834.492	752.2624	11843	10895.25
834.637	754.3439	11863.15	10915.45
834.782	756.4247	11955.9	11004.1
834.9269	758.5048	12110.7	11165.75
835.0719	760.5843	12372.75	11427.6
835.2169	762.6631	12711.45	11764.4
835.3619	764.7413	13210.35	12269.05
835.5069	766.8188	13846.9	12898.95
835.6519	768.8956	14362.35	13416.9
835.7969	770.9718	14651.2	13709.65
835.9419	773.0473	14559.55	13614.05
836.0869	775.1221	14230.15	13282.6
836.232	777.1962	13918.15	12976.8
836.377	779.2697	13718.85	12771.2
836.522	781.3426	13778	12822.1
836.667	783.4147	13976.05	13028.15
836.8121	785.4862	14221.4	13276.7
836.9571	787.557	14168.1	13219.95
837.1021	789.6271	13798.8	12849.85
837.2472	791.6966	13232.05	12286.05
837.3922	793.7654	12681.35	11732.7
837.5373	795.8335	12323.45	11379.85
837.6823	797.901	12086.9	11140
837.8274	799.9678	12002.9	11050.2
837.9724	802.0339	11970.8	11020.3
838.1175	804.0993	11972.45	11011.75
838.2626	806.1641	11980.6	11031.55
838.4076	808.2282	11921.2	10973.05
838.5527	810.2916	11825.4	10880.9
838.6978	812.3544	11721.3	10775.7
838.8428	814.4164	11629.05	10682.95
838.9879	816.4778	11684.5	10734.45
839.133	818.5385	11692.8	10742.15
839.2781	820.5986	11809.95	10860.65
839.4232	822.658	11960.75	11008.55
839.5682	824.7166	12138.6	11188.1
839.7133	826.7747	12462.45	11516.7
839.8584	828.832	12753.65	11800.55
840.0035	830.8886	13009.1	12050
840.1486	832.9446	13154.2	12200.55
840.2937	834.9999	13105.25	12151.75
840.4388	837.0545	13014.6	12063.65
840.5839	839.1085	12899.3	11943.35
840.729	841.1618	12770.7	11815.05
840.8741	843.2143	12669.9	11720
841.0192	845.2662	12548.3	11596.7
841.1643	847.3175	12465.35	11513.15
841.3095	849.368	12373	11421.1
841.4546	851.4179	12245.55	11293.6
841.5997	853.467	12116.4	11160.5
841.7448	855.5155	12039.15	11092.5
841.8899	857.5633	11955.5	11004.1
842.0351	859.6105	11859.25	10901.25
842.1802	861.6569	11772.3	10820.9
842.3253	863.7027	11724.05	10768.3
842.4704	865.7478	11689.45	10732.45
842.6156	867.7922	11686.55	10732.95
842.7607	869.8359	11704.1	10749.2
842.9058	871.8789	11793.4	10841
843.0509	873.9212	11971.5	10982.6
843.1961	875.9629	12067.55	11114.2
843.3412	878.0039	12210.65	11255.6
843.4863	880.0441	12349.2	11396.1
843.6315	882.0837	12398.35	11446.05
843.7766	884.1226	12319.25	11365.5
843.9218	886.1609	12265.05	11311
844.0669	888.1984	12220.95	11268.15
844.212	890.2352	12294.5	11337.1
844.3572	892.2714	12255.8	11295.05
844.5023	894.3069	12236.2	11277.8
844.6475	896.3416	12125.05	11168.85
844.7926	898.3757	12051.15	11094.75
844.9377	900.4091	12024.05	11068.9
845.0829	902.4418	12044.6	11086.15
845.228	904.4739	12066.05	11104.45
845.3732	906.5052	12084.8	11119.8
845.5183	908.5358	12024.55	11065.65
845.6635	910.5658	11864.7	10903
845.8086	912.595	11678	10721.75
845.9538	914.6236	11479.75	10522.1
846.0989	916.6515	11443.25	10483.85
846.2441	918.6786	11406.6	10449.25
846.3892	920.7051	11427.9	10469.6
846.5344	922.7309	11531.25	10573.95
846.6795	924.756	11594.2	10640.65
846.8246	926.7804	11665.55	10706.35
846.9698	928.8041	11641.35	10683
847.1149	930.8272	11671.3	10709.4
847.2601	932.8495	11646.35	10687.6
847.4052	934.8711	11605	10645.55
847.5504	936.892	11482.2	10522.35
847.6955	938.9123	11409.6	10451
847.8407	940.9318	11324.95	10368.35
847.9858	942.9506	11257.05	10300.55
848.131	944.9688	11194.75	10237.15
848.2761	946.9862	11147.05	10188.9
848.4213	949.003	11044.4	10084.7
848.5664	951.019	11018.75	10063.3
848.7115	953.0344	10995.1	10034.75
848.8567	955.0491	11028.45	10069.2
849.0018	957.063	11090.7	10131.5
849.147	959.0763	11174.9	10218.75
849.2921	961.0888	11205.8	10249.85
849.4373	963.1007	11310.05	10358.8
849.5824	965.1119	11349.1	10399.85
849.7275	967.1223	11364.75	10425.15
849.8727	969.1321	11355.4	10414.4
850.0178	971.1412	11372.15	10424.2
850.1629	973.1495	11419.7	10469.4
850.3081	975.1572	11451	10447.15
850.4532	977.1641	11490.05	10534.35
850.5983	979.1704	11440.2	10477.05
850.7435	981.1759	11445	10485.05
850.8886	983.1808	11504.2	10543.2
851.0337	985.1849	11558.6	10589.15
851.1788	987.1884	11676.65	10719.9
851.324	989.1911	11777.85	10821.85
851.4691	991.1932	11934.35	10980.3
851.6142	993.1945	11981.3	11024.6
851.7593	995.1951	11944.15	10983.45
851.9045	997.1951	11933.9	10970.55
852.0496	999.1943	11826.9	10869.25
852.1947	1001.1928	11805.5	10844.2
852.3398	1003.1906	11850.95	10896.35
852.4849	1005.1877	11912.4	10955.9
852.63	1007.1841	11911.2	10952.7
852.7751	1009.1798	11900.5	10944
852.9202	1011.1748	11759.2	10804.15
853.0653	1013.1691	11578.45	10618.85
853.2104	1015.1627	11356.15	10401.55
853.3555	1017.1556	11159.45	10206.65
853.5006	1019.1477	11059.9	10105.5
853.6457	1021.1392	10982.05	10035.15
853.7908	1023.1299	10938	9994.15
853.9359	1025.12	10959.25	10021.55
854.081	1027.1093	11013.4	10089.55
854.2261	1029.0979	11126.7	10203.1
854.3712	1031.0859	11181.65	10250.95
854.5163	1033.0731	11224.8	10280.8
854.6613	1035.0596	11163.45	10219.3
854.8064	1037.0454	11041	10089.55
854.9515	1039.0304	10948.25	9992.35
855.0965	1041.0148	10817.6	9868.9
855.2416	1042.9985	10727.65	9770.25
855.3867	1044.9814	10687.15	9732.85
855.5317	1046.9636	10620.6	9666.1
855.6768	1048.9452	10603.35	9651.5
855.8219	1050.926	10641.55	9690.8
855.9669	1052.9061	10658.7	9704.2
856.112	1054.8855	10659.05	9705.8
856.257	1056.8642	10700.1	9743.5
856.4021	1058.8421	10777.4	9818.85
856.5471	1060.8194	10792.65	9834.7
856.6921	1062.7959	10828.15	9871.55
856.8372	1064.7717	10865.15	9907.2
856.9822	1066.7469	10914.6	9957.6
857.1272	1068.7213	10928.45	9967.95
857.2723	1070.695	10969.4	10016.55
857.4173	1072.6679	10951.95	9995.25
857.5623	1074.6402	10910.9	9955.95
857.7073	1076.6117	10877.8	9915.45
857.8523	1078.5826	10833.45	9872.85
857.9973	1080.5527	10810.1	9851.6
858.1423	1082.5221	10870.55	9910.65
858.2873	1084.4908	10947	9994.2
858.4323	1086.4587	11089.35	10133.95
858.5773	1088.426	11209.5	10255.05
858.7223	1090.3925	11218.25	10260.85
858.8673	1092.3584	11177.55	10221.55
859.0123	1094.3235	11113.2	10161.3
859.1573	1096.2879	11072.25	10117.65
859.3022	1098.2515	11120.6	10164.65
859.4472	1100.2145	11211.75	10258.8
859.5922	1102.1767	11348.7	10391.25
859.7371	1104.1382	11530.35	10577.8
859.8821	1106.099	11747.05	10789.8
860.027	1108.0591	12007.95	11051.45
860.172	1110.0185	12139.05	11182.4
860.3169	1111.9771	12148.8	11197.45
860.4619	1113.9351	12032.6	11077.9
860.6068	1115.8923	11784.35	10827.25
860.7517	1117.8488	11521.65	10563.65
860.8967	1119.8045	11277.95	10326
861.0416	1121.7596	11164.45	10211
861.1865	1123.7139	11096.9	10145.3
861.3314	1125.6675	11089.95	10141.15
861.4763	1127.6204	11136.55	10186.4
861.6212	1129.5726	11112.1	10156.35
861.7661	1131.524	11082.15	10126.3
861.911	1133.4748	11003.3	10046.4
862.0559	1135.4248	10931.95	9976.45
862.2008	1137.3741	10867.75	9912.85
862.3457	1139.3226	10779.55	9822.9
862.4905	1141.2705	10758.6	9803.65
862.6354	1143.2176	10672.7	9716.15
862.7803	1145.164	10656.8	9703.35
862.9251	1147.1097	10659.95	9705.85
863.07	1149.0546	10606.7	9652.5
863.2148	1150.9989	10525.15	9571.35
863.3597	1152.9424	10413.05	9457.8
863.5045	1154.8852	10266.8	9312.1
863.6493	1156.8272	10171.45	9220.25
863.7942	1158.7686	10176.95	9215.55
863.939	1160.7092	10140.15	9188.6
864.0838	1162.6491	10150.5	9196.1
864.2286	1164.5883	10244.65	9290.3
864.3734	1166.5267	10346.1	9390.85
864.5182	1168.4644	10498.5	9546.8
864.663	1170.4014	10677.5	9724.35
864.8078	1172.3377	10920.5	9972.3
864.9526	1174.2732	11173.4	10220.75
865.0974	1176.2081	11474.1	10522.4
865.2421	1178.1421	11808.75	10853.35
865.3869	1180.0755	12176.25	11223.1
865.5317	1182.0082	12356.95	11409
865.6764	1183.9401	12421.55	11471.6
865.8212	1185.8713	12273	11325.6
