Software Version:	3.9.2.0
Unit SN:	10000200
Spectrometer SN:	6960
Date:	3/8/2024 1:17:50 PM
Data Line Index:	25
Spectral Points:	2048
Integration time (ms):	125
Averages:	20
Delay (ms):	30000
Sequence Number:	1
Processing:	dark subtract
Laser Power (mW):	300
Laser Current (mA):	822
Laser Diode Temp (C):	25
Laser Case Temp (C):	26.1
System Temp (C):	26.1
Spectrometer Temp (C):	24
CCD Temp (C):	0.009
Secondary Temp (C):	20.013
Heatsink Temp (C):	20.761
CCDPCB Temp (C):	35.873
SecondaryPCB Temp (C):	29.159

Wavelength	RamanShift	Raw Counts	Dark Subtracted
787.061	30.1047	451.75	43.55
787.2016	32.3739	453	47.85
787.3422	34.6426	459.45	53.4
787.4828	36.9109	466.15	56.9
787.6235	39.1787	473.7	59.3
787.7642	41.4461	479.95	63.4
787.9049	43.7131	491.9	72.85
788.0456	45.9796	501.05	78.4
788.1863	48.2456	507.95	81.15
788.3271	50.5112	517.75	85.25
788.4679	52.7764	525	89.85
788.6087	55.0411	536.65	96.9
788.7496	57.3054	548.2	101.8
788.8904	59.5692	554.55	107.95
789.0313	61.8326	567.9	119.55
789.1722	64.0955	579	126.3
789.3132	66.3579	592.1	135.05
789.4541	68.6199	612.35	150.1
789.5951	70.8815	653	187.25
789.7361	73.1426	725.6	254.2
789.8771	75.4032	930.8	457.75
790.0181	77.6634	1430.6	950.3
790.1592	79.9231	2584.45	2094.85
790.3003	82.1824	5092.6	4585.35
790.4414	84.4412	9613.45	9073.7
790.5825	86.6995	15767.3	15187.75
790.7237	88.9574	21767.35	21149.75
790.8648	91.2148	25947.8	25305.3
791.006	93.4717	27748.2	27090.2
791.1472	95.7282	28088.95	27420.35
791.2885	97.9842	27914.85	27245.75
791.4297	100.2398	27318.7	26645.7
791.571	102.4949	26621.1	25947.9
791.7123	104.7495	25774.75	25100.35
791.8536	107.0036	24901.9	24223.55
791.9949	109.2573	24086.5	23411.6
792.1363	111.5105	23338.55	22658.3
792.2777	113.7632	22602.65	21919.1
792.4191	116.0154	22025.6	21332.25
792.5605	118.2672	21543.45	20852.15
792.7019	120.5185	21109.05	20421.85
792.8434	122.7693	20738.75	20046.9
792.9849	125.0197	20448.75	19752.8
793.1264	127.2696	20186.05	19489
793.2679	129.519	19973.45	19267.9
793.4094	131.7679	19741.9	19034.05
793.551	134.0163	19525.25	18814.15
793.6926	136.2642	19281.45	18568.85
793.8342	138.5117	19008.45	18292.7
793.9758	140.7587	18674.35	17958.25
794.1175	143.0052	18432.25	17715.85
794.2591	145.2512	18151.9	17437.3
794.4008	147.4967	17876.55	17156.9
794.5425	149.7417	17683.65	16961.55
794.6842	151.9863	17531.2	16802.35
794.826	154.2304	17495.8	16760.9
794.9677	156.4739	17315.95	16578.4
795.1095	158.717	17233.85	16496.2
795.2513	160.9596	17076.7	16333.1
795.3931	163.2017	16820	16073.6
795.535	165.4433	16504.6	15758.2
795.6768	167.6844	16165.75	15421.25
795.8187	169.925	15847.45	15094
795.9606	172.1651	15500.25	14748.75
796.1025	174.4047	15216.1	14463.5
796.2445	176.6439	14971.9	14219.1
796.3864	178.8825	14735.4	13977.85
796.5284	181.1206	14563.55	13796.85
796.6704	183.3582	14415.35	13642.15
796.8124	185.5954	14340	13569.35
796.9544	187.832	14230.75	13455.15
797.0965	190.0681	14195.65	13419.1
797.2386	192.3037	14201.95	13418.1
797.3806	194.5388	14206.5	13423.6
797.5228	196.7734	14236.15	13451.85
797.6649	199.0075	14327.8	13538.8
797.807	201.2411	14417.85	13627.55
797.9492	203.4742	14499.9	13707.6
798.0914	205.7068	14661.7	13863.45
798.2336	207.9389	14746.3	13951.75
798.3758	210.1704	14914.45	14124.75
798.518	212.4015	15013.8	14237.85
798.6603	214.632	15170.9	14399.35
798.8025	216.862	15363.9	14593.65
798.9448	219.0915	15514.95	14738.3
799.0871	221.3205	15670.65	14889.1
799.2294	223.549	15866.65	15093.05
799.3718	225.777	16086.25	15319
799.5141	228.0044	16351.7	15571.1
799.6565	230.2314	16694.2	15911.1
799.7989	232.4578	17028.05	16244.45
799.9413	234.6837	17311.8	16517.55
800.0837	236.909	17475.3	16682.25
800.2262	239.1339	17481.85	16659.4
800.3687	241.3582	17287.15	16475.8
800.5111	243.582	17043.85	16203
800.6536	245.8053	16800.7	15977.95
800.7961	248.0281	16569.35	15754.4
800.9387	250.2503	16415.85	15596.15
801.0812	252.472	16352.6	15526.7
801.2238	254.6932	16371.2	15552.8
801.3664	256.9139	16359.55	15535.1
801.509	259.134	16453.35	15624.1
801.6516	261.3536	16503.7	15679.55
801.7942	263.5727	16664.75	15835.15
801.9369	265.7912	16739.6	15915.25
802.0795	268.0092	16872.8	16046.5
802.2222	270.2267	16930	16103.85
802.3649	272.4436	16957.65	16125.2
802.5076	274.6601	16897.7	16058.25
802.6504	276.8759	16801.3	15965.2
802.7931	279.0913	16723.3	15887.5
802.9359	281.3061	16643.15	15805
803.0787	283.5204	16645	15800.4
803.2215	285.7341	16679	15831
803.3643	287.9473	16792.25	15940.25
803.5071	290.16	16946.35	16099.85
803.6499	292.3721	17211.45	16370.35
803.7928	294.5837	17589.15	16749.45
803.9357	296.7947	17921.45	17078.15
804.0786	299.0052	18073.5	17232.15
804.2215	301.2152	17965.15	17119.85
804.3644	303.4246	17656.4	16816.1
804.5074	305.6334	17201.8	16363.2
804.6503	307.8418	16718	15873.25
804.7933	310.0495	16292.4	15445.15
804.9363	312.2568	15903.1	15050.1
805.0793	314.4635	15655.25	14802.35
805.2223	316.6696	15488.9	14638.75
805.3653	318.8752	15376	14513.15
805.5084	321.0802	15395.35	14541.15
805.6514	323.2847	15456.25	14597.85
805.7945	325.4887	15520.25	14664.15
805.9376	327.692	15483.4	14623.9
806.0807	329.8949	15361.7	14501.35
806.2238	332.0972	15133.6	14273.35
806.367	334.2989	14878.15	14013.3
806.5101	336.5001	14624.05	13759.25
806.6533	338.7007	14421.85	13553.3
806.7965	340.9008	14277.15	13412.45
806.9397	343.1003	14132.65	13263
807.0829	345.2992	14093.2	13222.6
807.2261	347.4976	14012.3	13145.8
807.3693	349.6955	13985.2	13110.65
807.5126	351.8927	14023.2	13147.1
807.6559	354.0895	14008.65	13123.95
807.7991	356.2856	14012.75	13136.85
807.9424	358.4812	13979.05	13099.55
808.0857	360.6763	14025.8	13146.05
808.2291	362.8707	14007.1	13127
808.3724	365.0646	14043.85	13161.5
808.5158	367.258	14059.15	13174.75
808.6591	369.4508	14117.85	13233.45
808.8025	371.643	14232.3	13342.4
808.9459	373.8346	14254.65	13364
809.0893	376.0257	14277.4	13386.55
809.2327	378.2162	14210.3	13324.55
809.3762	380.4062	14127.25	13243.1
809.5196	382.5956	14020.8	13135.1
809.6631	384.7844	13901.5	13022.8
809.8066	386.9726	13766.7	12891.7
809.9501	389.1603	13700	12826.55
810.0936	391.3474	13697.25	12781.55
810.2371	393.5339	13661.1	12778.55
810.3806	395.7199	13621.9	12743.1
810.5241	397.9052	13652.55	12766.8
810.6677	400.09	13695.4	12814.6
810.8113	402.2743	13782	12896.1
810.9548	404.4579	13871	12989.85
811.0984	406.641	14068.4	13180.1
811.2421	408.8235	14306.55	13422.85
811.3857	411.0054	14585.15	13700.2
811.5293	413.1868	14903.45	14007.6
811.673	415.3675	15131.2	14232.65
811.8166	417.5477	15289.4	14391.7
811.9603	419.7273	15295.9	14397.65
812.104	421.9064	15202.25	14303.6
812.2477	424.0848	15120.15	14225.95
812.3914	426.2627	14891.25	13996.3
812.5351	428.4399	14661.55	13765.9
812.6788	430.6166	14289.8	13389.15
812.8226	432.7928	13937.1	13034.8
812.9663	434.9683	13625.55	12726.7
813.1101	437.1432	13381.7	12484.15
813.2539	439.3176	13212.5	12323.5
813.3977	441.4914	13114.8	12228.85
813.5415	443.6645	13107.55	12217.85
813.6853	445.8371	13022.5	12128.9
813.8291	448.0091	12975.95	12079.65
813.973	450.1806	12944.4	12052.75
814.1168	452.3514	12907.75	12015.7
814.2607	454.5216	12973.7	12069.7
814.4046	456.6913	12925	12026.9
814.5485	458.8603	12936.65	12041.65
814.6924	461.0288	12979.85	12089.55
814.8363	463.1967	12990.55	12105.45
814.9802	465.3639	13079.3	12189.55
815.1241	467.5306	13163.1	12268.15
815.2681	469.6967	13248.3	12359.95
815.412	471.8622	13343.1	12457.15
815.556	474.0271	13472.9	12584.75
815.7	476.1914	13513.15	12615.2
815.844	478.3551	13538.95	12639.7
815.988	480.5182	13534.5	12641.2
816.132	482.6807	13555.2	12671.95
816.276	484.8426	13690.5	12811.7
816.4201	487.0039	13991.25	13107
816.5641	489.1647	14403.3	13508.2
816.7082	491.3248	14827.7	13931.9
816.8522	493.4843	14948	14060
816.9963	495.6432	14947.6	14055.15
817.1404	497.8015	14850.8	13948
817.2845	499.9592	14807.9	13897.15
817.4286	502.1163	14674.3	13764.25
817.5727	504.2728	14404.5	13509.2
817.7168	506.4287	14108	13222.4
817.861	508.5839	13745.35	12857.15
818.0051	510.7386	13438.65	12541.8
818.1493	512.8927	13306.5	12398.3
818.2935	515.0461	13215.35	12314.4
818.4377	517.199	13229.05	12322.45
818.5818	519.3512	13319.95	12412.95
818.726	521.5029	13452.25	12541.85
818.8703	523.6539	13576.3	12672.2
819.0145	525.8043	13682.65	12774.85
819.1587	527.9541	13647.8	12735
819.303	530.1033	13580.4	12675.55
819.4472	532.2519	13537.95	12634.8
819.5915	534.3999	13604.3	12697
819.7357	536.5472	13799.7	12893.4
819.88	538.694	14143.2	13237.15
820.0243	540.8401	14613.9	13706.35
820.1686	542.9856	15020.1	14103.7
820.3129	545.1305	15166.4	14239.5
820.4572	547.2748	15038.25	14114
820.6016	549.4185	14752.35	13824.7
820.7459	551.5615	14477.25	13554.05
820.8902	553.704	14381.9	13454.85
821.0346	555.8458	14358.95	13440.8
821.1789	557.987	14446.6	13529.95
821.3233	560.1276	14538.1	13620.6
821.4677	562.2675	14717.85	13796.85
821.6121	564.4069	14890.05	13967.35
821.7565	566.5456	15104.1	14187.95
821.9009	568.6837	15073.7	14155.35
822.0453	570.8212	14805.45	13890.8
822.1897	572.958	14284	13364.9
822.3342	575.0942	13878.9	12967.25
822.4786	577.2299	13605.3	12697.1
822.6231	579.3648	13514.05	12618.2
822.7675	581.4992	13494.15	12610.75
822.912	583.6329	13686	12800.85
823.0565	585.766	13881.9	12988.45
823.201	587.8985	14045.1	13142.95
823.3454	590.0304	14066.65	13133.95
823.4899	592.1616	14015.7	13094
823.6345	594.2922	13881.25	12956.75
823.779	596.4222	13718.4	12791.7
823.9235	598.5515	13541.2	12615.45
824.068	600.6802	13361.45	12436.35
824.2126	602.8083	13183.35	12264.85
824.3571	604.9358	13173.1	12251.7
824.5017	607.0626	13143.5	12219.8
824.6462	609.1888	13170.35	12237.05
824.7908	611.3144	13212.2	12278.55
824.9354	613.4393	13163	12229.45
825.08	615.5636	13159.05	12224.7
825.2246	617.6873	13102.85	12171.1
825.3692	619.8103	13038.85	12110.65
825.5138	621.9327	12909.2	11984.35
825.6584	624.0544	12806	11884.8
825.803	626.1756	12705.4	11784.75
825.9477	628.2961	12630.2	11702.8
826.0923	630.4159	12586.65	11658.9
826.237	632.5351	12538.95	11608.05
826.3816	634.6537	12509.4	11577.65
826.5263	636.7716	12484	11552.95
826.6709	638.8889	12503.35	11565.1
826.8156	641.0056	12527.3	11587.1
826.9603	643.1216	12529.65	11591.95
827.105	645.237	12553.75	11622.2
827.2497	647.3518	12473.65	11547.3
827.3944	649.4659	12470.1	11548.55
827.5391	651.5793	12461.25	11543.05
827.6838	653.6922	12446.2	11519
827.8285	655.8043	12448	11519.4
827.9733	657.9159	12421.45	11489.75
828.118	660.0268	12381.5	11454.55
828.2627	662.137	12341.7	11409.8
828.4075	664.2466	12359.1	11419.5
828.5522	666.3556	12319.5	11383.4
828.697	668.4639	12306.45	11374.95
828.8418	670.5716	12323	11401.45
828.9865	672.6786	12362.35	11432
829.1313	674.785	12382.2	11448.25
829.2761	676.8907	12402.65	11472.65
829.4209	678.9958	12466.7	11540.35
829.5657	681.1002	12426.3	11493.6
829.7105	683.204	12424.55	11482.95
829.8553	685.3072	12400.3	11458.65
830.0001	687.4097	12360.8	11424.2
830.1449	689.5115	12328.45	11394.45
830.2898	691.6127	12286.95	11354.2
830.4346	693.7132	12243	11313.05
830.5794	695.8131	12225.1	11277.3
830.7243	697.9123	12236.55	11294.7
830.8691	700.0109	12216.75	11277.1
831.014	702.1089	12247.75	11310.45
831.1588	704.2061	12256.9	11321
831.3037	706.3028	12285.65	11344.95
831.4486	708.3987	12339.35	11397.55
831.5935	710.4941	12359.3	11423.1
831.7383	712.5887	12537.5	11602.15
831.8832	714.6827	12731.05	11791.95
832.0281	716.7761	12983.35	12052.35
832.173	718.8688	13295.65	12359.45
832.3179	720.9608	13492.5	12546.4
832.4628	723.0522	13571.6	12620.75
832.6077	725.1429	13471	12525
832.7527	727.233	13316.45	12371.55
832.8976	729.3224	13203.1	12261.85
833.0425	731.4112	13008.55	12065.45
833.1874	733.4993	12853.15	11911.7
833.3324	735.5867	12682.7	11741.95
833.4773	737.6735	12505.1	11562.15
833.6222	739.7596	12371.95	11428.15
833.7672	741.845	12329.35	11392.3
833.9122	743.9298	12272.35	11329.5
834.0571	746.014	12253.85	11310.9
834.2021	748.0974	12281.05	11331.65
834.347	750.1802	12294.15	11343.85
834.492	752.2624	12295.8	11347.45
834.637	754.3439	12335.7	11385.2
834.782	756.4247	12411.95	11456.9
834.9269	758.5048	12599.6	11654.65
835.0719	760.5843	12816	11867.7
835.2169	762.6631	13170.6	12222.9
835.3619	764.7413	13694.9	12747.4
835.5069	766.8188	14326.2	13378.75
835.6519	768.8956	14817.6	13864.25
835.7969	770.9718	15132.6	14187.35
835.9419	773.0473	15039.15	14090.3
836.0869	775.1221	14715.5	13767.8
836.232	777.1962	14379.35	13433.3
836.377	779.2697	14225.2	13277.7
836.522	781.3426	14279.1	13318.8
836.667	783.4147	14462.1	13509.9
836.8121	785.4862	14692.35	13740.1
836.9571	787.557	14647.85	13696.9
837.1021	789.6271	14286.8	13331.35
837.2472	791.6966	13688.9	12739.75
837.3922	793.7654	13122.1	12172.4
837.5373	795.8335	12790.35	11838.55
837.6823	797.901	12550.7	11603.55
837.8274	799.9678	12448.55	11497.4
837.9724	802.0339	12393.05	11440.05
838.1175	804.0993	12447.15	11483.2
838.2626	806.1641	12411.95	11457.85
838.4076	808.2282	12330.95	11378.35
838.5527	810.2916	12245.85	11293.85
838.6978	812.3544	12182.65	11233.2
838.8428	814.4164	12108.1	11159.05
838.9879	816.4778	12110.5	11152.75
839.133	818.5385	12137.2	11183.35
839.2781	820.5986	12247.2	11294.4
839.4232	822.658	12401	11444.1
839.5682	824.7166	12627	11676.1
839.7133	826.7747	12959.85	12005.15
839.8584	828.832	13272.45	12314.65
840.0035	830.8886	13504.6	12546.75
840.1486	832.9446	13668.05	12709.7
840.2937	834.9999	13613.1	12658.65
840.4388	837.0545	13513.2	12553.9
840.5839	839.1085	13363.25	12404.95
840.729	841.1618	13219.85	12262.05
840.8741	843.2143	13145.4	12190.9
841.0192	845.2662	12994.85	12042.75
841.1643	847.3175	12913.35	11956.5
841.3095	849.368	12801.35	11844.8
841.4546	851.4179	12706.3	11751.2
841.5997	853.467	12588.7	11632.6
841.7448	855.5155	12477.05	11517.15
841.8899	857.5633	12372.9	11416.15
842.0351	859.6105	12327.5	11372.65
842.1802	861.6569	12230.4	11273.85
842.3253	863.7027	12175.7	11215.4
842.4704	865.7478	12141.35	11182.55
842.6156	867.7922	12140.45	11179.25
842.7607	869.8359	12175.05	11215.95
842.9058	871.8789	12254.15	11293.75
843.0509	873.9212	12402.9	11413.2
843.1961	875.9629	12522.45	11566.2
843.3412	878.0039	12689.65	11730.9
843.4863	880.0441	12799.6	11848.3
843.6315	882.0837	12815.35	11860.4
843.7766	884.1226	12776.35	11817.45
843.9218	886.1609	12715.05	11762.45
844.0669	888.1984	12689.55	11730.95
844.212	890.2352	12735.2	11776.4
844.3572	892.2714	12733.9	11772.05
844.5023	894.3069	12679.6	11720.65
844.6475	896.3416	12583.6	11623.25
844.7926	898.3757	12545.1	11583.4
844.9377	900.4091	12492.45	11531.4
845.0829	902.4418	12503.15	11539.4
845.228	904.4739	12534.25	11568.9
845.3732	906.5052	12568.95	11605.65
845.5183	908.5358	12496.35	11532.35
845.6635	910.5658	12338.85	11375.25
845.8086	912.595	12145.4	11182.9
845.9538	914.6236	11978.7	11020.4
846.0989	916.6515	11890.65	10933.5
846.2441	918.6786	11850.45	10883.6
846.3892	920.7051	11905.95	10939.1
846.5344	922.7309	11984.7	11020
846.6795	924.756	12045.2	11080.65
846.8246	926.7804	12119.05	11160.45
846.9698	928.8041	12110.2	11150.45
847.1149	930.8272	12128.85	11171.75
847.2601	932.8495	12096.45	11136.75
847.4052	934.8711	12059.45	11093.6
847.5504	936.892	11976.2	11014.4
847.6955	938.9123	11872.4	10907.2
847.8407	940.9318	11786.5	10823.85
847.9858	942.9506	11727.6	10766.2
848.131	944.9688	11647.35	10683.6
848.2761	946.9862	11618.2	10656.8
848.4213	949.003	11493.6	10532.15
848.5664	951.019	11468.7	10505.85
848.7115	953.0344	11438.8	10475.65
848.8567	955.0491	11482.4	10518
849.0018	957.063	11533.7	10572
849.147	959.0763	11650.65	10688.1
849.2921	961.0888	11688.3	10720.9
849.4373	963.1007	11765.9	10805.4
849.5824	965.1119	11792.85	10843.05
849.7275	967.1223	11790.15	10844.05
849.8727	969.1321	11787.2	10844.8
850.0178	971.1412	11826.9	10878.75
850.1629	973.1495	11823.5	10871
850.3081	975.1572	11911.95	10901.5
850.4532	977.1641	11919.7	10956.5
850.5983	979.1704	11889.05	10927.8
850.7435	981.1759	11866.05	10901.85
850.8886	983.1808	11935.75	10973.1
851.0337	985.1849	11978.5	11007.4
851.1788	987.1884	12113.9	11149.9
851.324	989.1911	12270.95	11312.55
851.4691	991.1932	12334.85	11373.85
851.6142	993.1945	12391.4	11431.9
851.7593	995.1951	12381.7	11422.85
851.9045	997.1951	12338.1	11373
852.0496	999.1943	12239.3	11278.85
852.1947	1001.1928	12225.25	11262.45
852.3398	1003.1906	12259.45	11298.5
852.4849	1005.1877	12350.45	11390.1
852.63	1007.1841	12351.85	11394.7
852.7751	1009.1798	12345.85	11386.65
852.9202	1011.1748	12210.95	11251
853.0653	1013.1691	12041	11078.05
853.2104	1015.1627	11808.05	10847.4
853.3555	1017.1556	11608.95	10652.55
853.5006	1019.1477	11514.6	10558.25
853.6457	1021.1392	11402.2	10451.45
853.7908	1023.1299	11380.15	10433.35
853.9359	1025.12	11399	10459.3
854.081	1027.1093	11449.75	10524.05
854.2261	1029.0979	11533.2	10609.25
854.3712	1031.0859	11604.1	10672
854.5163	1033.0731	11649.45	10703.35
854.6613	1035.0596	11602.1	10655.45
854.8064	1037.0454	11472.7	10518.8
854.9515	1039.0304	11375.25	10417.5
855.0965	1041.0148	11256.65	10303
855.2416	1042.9985	11162.15	10204.6
855.3867	1044.9814	11134.4	10181.3
855.5317	1046.9636	11089.9	10136.8
855.6768	1048.9452	11048	10095.1
855.8219	1050.926	11090.9	10134.45
855.9669	1052.9061	11095.25	10136.9
856.112	1054.8855	11093.2	10135.8
856.257	1056.8642	11136.7	10175.95
856.4021	1058.8421	11196.95	10236.55
856.5471	1060.8194	11231.25	10269.1
856.6921	1062.7959	11253.2	10297.65
856.8372	1064.7717	11290.35	10334.7
856.9822	1066.7469	11368.95	10405
857.1272	1068.7213	11385.95	10426.6
857.2723	1070.695	11425.55	10471.85
857.4173	1072.6679	11387.1	10428.5
857.5623	1074.6402	11350.75	10391.25
857.7073	1076.6117	11333.85	10372.35
857.8523	1078.5826	11289	10326.7
857.9973	1080.5527	11239.35	10280.2
858.1423	1082.5221	11249.6	10291.25
858.2873	1084.4908	11389.7	10433.95
858.4323	1086.4587	11524.25	10564
858.5773	1088.426	11602.05	10640.3
858.7223	1090.3925	11606.8	10645.5
858.8673	1092.3584	11578.6	10621.1
859.0123	1094.3235	11511.4	10557.25
859.1573	1096.2879	11528.55	10571.95
859.3022	1098.2515	11564.95	10607.6
859.4472	1100.2145	11686.6	10731
859.5922	1102.1767	11810.45	10852.8
859.7371	1104.1382	11993.9	11037.1
859.8821	1106.099	12199.4	11239.9
860.027	1108.0591	12416.3	11460
860.172	1110.0185	12574.75	11616.25
860.3169	1111.9771	12639.75	11684.85
860.4619	1113.9351	12491.2	11532.85
860.6068	1115.8923	12256.55	11298.6
860.7517	1117.8488	12007.75	11051.5
860.8967	1119.8045	11745.55	10788.35
861.0416	1121.7596	11634.6	10682.1
861.1865	1123.7139	11554.6	10598.6
861.3314	1125.6675	11534.35	10581.8
861.4763	1127.6204	11597.9	10640.2
861.6212	1129.5726	11549.9	10594.15
861.7661	1131.524	11506.9	10548.95
861.911	1133.4748	11445.5	10487.6
862.0559	1135.4248	11390.7	10437.45
862.2008	1137.3741	11291.9	10337.6
862.3457	1139.3226	11241.55	10286.25
862.4905	1141.2705	11187.25	10229.65
862.6354	1143.2176	11076.3	10118
862.7803	1145.164	11063.7	10105.05
862.9251	1147.1097	11069.7	10112.55
863.07	1149.0546	11042.8	10083.9
863.2148	1150.9989	10949.2	9991.75
863.3597	1152.9424	10817.45	9861.35
863.5045	1154.8852	10667.7	9707.85
863.6493	1156.8272	10608.1	9652.75
863.7942	1158.7686	10577.85	9613.05
863.939	1160.7092	10581.15	9622.3
864.0838	1162.6491	10566.8	9609.55
864.2286	1164.5883	10687.3	9734.85
864.3734	1166.5267	10781.3	9826.95
864.5182	1168.4644	10942.05	9988.6
864.663	1170.4014	11106.5	10148.75
864.8078	1172.3377	11336.2	10386.7
864.9526	1174.2732	11610.95	10655.4
865.0974	1176.2081	11939.8	10989.4
865.2421	1178.1421	12267.5	11310.35
865.3869	1180.0755	12635.05	11682.4
865.5317	1182.0082	12826	11872.5
865.6764	1183.9401	12928.2	11975.95
865.8212	1185.8713	12799.85	11852.9
