Software Version:	3.9.2.0
Unit SN:	10000200
Spectrometer SN:	6960
Date:	3/8/2024 11:43:43 AM
Data Line Index:	25
Spectral Points:	2048
Integration time (ms):	125
Averages:	20
Delay (ms):	30000
Sequence Number:	1
Processing:	dark subtract
Laser Power (mW):	300
Laser Current (mA):	823
Laser Diode Temp (C):	25
Laser Case Temp (C):	25.3
System Temp (C):	25.2
Spectrometer Temp (C):	23.2
CCD Temp (C):	0.007
Secondary Temp (C):	20.01
Heatsink Temp (C):	19.814
CCDPCB Temp (C):	34.462
SecondaryPCB Temp (C):	27.97

Wavelength	RamanShift	Raw Counts	Dark Subtracted
787.061	30.1047	415.75	7.25
787.2016	32.3739	413.5	6.35
787.3422	34.6426	414.1	6.3
787.4828	36.9109	416.85	5.35
787.6235	39.1787	420.95	6.7
787.7642	41.4461	426.65	8.4
787.9049	43.7131	429.4	7.5
788.0456	45.9796	434.8	11.55
788.1863	48.2456	437.05	8.8
788.3271	50.5112	441.2	7.3
788.4679	52.7764	445.2	11.7
788.6087	55.0411	451.1	10.15
788.7496	57.3054	458.3	12.6
788.8904	59.5692	459.7	12.65
789.0313	61.8326	460.8	12.3
789.1722	64.0955	466.3	13.75
789.3132	66.3579	474.9	18.55
789.4541	68.6199	481.25	21.35
789.5951	70.8815	491.2	25.8
789.7361	73.1426	509	39.75
789.8771	75.4032	543.55	70.2
790.0181	77.6634	612.25	134.6
790.1592	79.9231	783.3	303.5
790.3003	82.1824	1130.8	642.55
790.4414	84.4412	1701.85	1197.85
790.5825	86.6995	2432.55	1913.4
790.7237	88.9574	3132.75	2597.2
790.8648	91.2148	3606.6	3060.9
791.006	93.4717	3781.65	3229.75
791.1472	95.7282	3819.05	3262.6
791.2885	97.9842	3780.2	3224.1
791.4297	100.2398	3733.5	3173.7
791.571	102.4949	3686.25	3122.75
791.7123	104.7495	3644.5	3077.9
791.8536	107.0036	3590.75	3024.75
791.9949	109.2573	3507.3	2940.9
792.1363	111.5105	3424.6	2855.65
792.2777	113.7632	3320.8	2750.1
792.4191	116.0154	3220.65	2640.55
792.5605	118.2672	3101.8	2526.2
792.7019	120.5185	2980.2	2399.2
792.8434	122.7693	2890.95	2307
792.9849	125.0197	2813.85	2225.8
793.1264	127.2696	2735.05	2144.8
793.2679	129.519	2689.4	2097.3
793.4094	131.7679	2665.45	2072
793.551	134.0163	2648	2051.85
793.6926	136.2642	2638.05	2035.95
793.8342	138.5117	2618.75	2014.5
793.9758	140.7587	2586.8	1982.85
794.1175	143.0052	2540.6	1933.05
794.2591	145.2512	2489.5	1879.5
794.4008	147.4967	2449.25	1838.6
794.5425	149.7417	2414.35	1802.5
794.6842	151.9863	2376.7	1760.75
794.826	154.2304	2366.1	1744.45
794.9677	156.4739	2355.8	1734.95
795.1095	158.717	2373.15	1746.6
795.2513	160.9596	2403.85	1771.75
795.3931	163.2017	2422.5	1791.25
795.535	165.4433	2431.25	1796.6
795.6768	167.6844	2416.4	1781.15
795.8187	169.925	2391.45	1750.15
795.9606	172.1651	2331.7	1690.1
796.1025	174.4047	2282.4	1633.95
796.2445	176.6439	2247.15	1598.2
796.3864	178.8825	2225.55	1574.2
796.5284	181.1206	2205.7	1549.65
796.6704	183.3582	2199	1539.05
796.8124	185.5954	2188.95	1529.35
796.9544	187.832	2195.35	1529.95
797.0965	190.0681	2198.9	1531.3
797.2386	192.3037	2201.95	1531
797.3806	194.5388	2201.5	1526
797.5228	196.7734	2223.45	1548.3
797.6649	199.0075	2229.35	1548.5
797.807	201.2411	2249.6	1568.1
797.9492	203.4742	2275.55	1597.75
798.0914	205.7068	2305.65	1621.3
798.2336	207.9389	2323.35	1637.15
798.3758	210.1704	2339.65	1655.5
798.518	212.4015	2327.15	1651.95
798.6603	214.632	2339.6	1680
798.8025	216.862	2328.55	1668.95
798.9448	219.0915	2346.5	1682.65
799.0871	221.3205	2347.45	1678.45
799.2294	223.549	2362.9	1699.5
799.3718	225.777	2367.4	1704.15
799.5141	228.0044	2349.85	1682.7
799.6565	230.2314	2346	1675.95
799.7989	232.4578	2319.15	1643.45
799.9413	234.6837	2318.9	1634.85
800.0837	236.909	2314.6	1628.5
800.2262	239.1339	2314.45	1605.65
800.3687	241.3582	2312.35	1617.1
800.5111	243.582	2341.9	1619.1
800.6536	245.8053	2327.05	1618.75
800.7961	248.0281	2325.9	1619.9
800.9387	250.2503	2338.7	1629.25
801.0812	252.472	2343.6	1628.8
801.2238	254.6932	2345	1630.5
801.3664	256.9139	2366.3	1651.95
801.509	259.134	2383.6	1665.8
801.6516	261.3536	2407.45	1689.4
801.7942	263.5727	2447.65	1731.15
801.9369	265.7912	2497.15	1781.65
802.0795	268.0092	2553.95	1837.15
802.2222	270.2267	2618.45	1900
802.3649	272.4436	2654.75	1934.1
802.5076	274.6601	2700.55	1970.3
802.6504	276.8759	2721.65	1994.75
802.7931	279.0913	2743.05	2013.9
802.9359	281.3061	2749.6	2020.85
803.0787	283.5204	2774.4	2039.95
803.2215	285.7341	2801.1	2067.65
803.3643	287.9473	2818.25	2078.7
803.5071	290.16	2827.35	2089.6
803.6499	292.3721	2779.9	2048.85
803.7928	294.5837	2735.55	2001.2
803.9357	296.7947	2708.7	1974.75
804.0786	299.0052	2705.8	1970.55
804.2215	301.2152	2691.45	1955.35
804.3644	303.4246	2677.35	1945.2
804.5074	305.6334	2659.35	1925.6
804.6503	307.8418	2636.15	1895.05
804.7933	310.0495	2622.05	1882
804.9363	312.2568	2573.7	1831.85
805.0793	314.4635	2523.1	1781.1
805.2223	316.6696	2476.1	1729.7
805.3653	318.8752	2436.95	1681.2
805.5084	321.0802	2411.75	1663.3
805.6514	323.2847	2406.05	1655.6
805.7945	325.4887	2412.8	1663.55
805.9376	327.692	2431.35	1680.9
806.0807	329.8949	2472	1718.7
806.2238	332.0972	2514.6	1760.85
806.367	334.2989	2537.2	1777.6
806.5101	336.5001	2532.9	1775.75
806.6533	338.7007	2494.65	1734.75
806.7965	340.9008	2447.7	1689.05
806.9397	343.1003	2396.7	1632.35
807.0829	345.2992	2342.85	1582.65
807.2261	347.4976	2308.45	1543.2
807.3693	349.6955	2273.05	1505.1
807.5126	351.8927	2265.35	1494.7
807.6559	354.0895	2246.3	1467.85
807.7991	356.2856	2238.7	1467.8
807.9424	358.4812	2223.4	1453.5
808.0857	360.6763	2224.35	1451.45
808.2291	362.8707	2213.3	1440.05
808.3724	365.0646	2224.95	1446.45
808.5158	367.258	2233.65	1454.8
808.6591	369.4508	2241.35	1460.05
808.8025	371.643	2272.85	1491.9
808.9459	373.8346	2306.15	1522.7
809.0893	376.0257	2351.9	1565.9
809.2327	378.2162	2365.9	1580.35
809.3762	380.4062	2373	1587.35
809.5196	382.5956	2347.55	1564.6
809.6631	384.7844	2299.55	1521.75
809.8066	386.9726	2256.5	1478.5
809.9501	389.1603	2232.5	1455.7
810.0936	391.3474	2258.9	1445.85
810.2371	393.5339	2229.4	1447.45
810.3806	395.7199	2233.65	1453.7
810.5241	397.9052	2263.45	1484.15
810.6677	400.09	2298.2	1518.75
810.8113	402.2743	2356.45	1577.45
810.9548	404.4579	2394.8	1610.25
811.0984	406.641	2436.05	1653.7
811.2421	408.8235	2474.3	1692.05
811.3857	411.0054	2519.6	1730.6
811.5293	413.1868	2602.7	1808.85
811.673	415.3675	2648.7	1858.15
811.8166	417.5477	2637.1	1842.2
811.9603	419.7273	2568.75	1772.25
812.104	421.9064	2503.1	1703
812.2477	424.0848	2436.5	1640
812.3914	426.2627	2363.85	1563.1
812.5351	428.4399	2309	1506.85
812.6788	430.6166	2259.25	1454.85
812.8226	432.7928	2215.95	1409.3
812.9663	434.9683	2169.05	1367.45
813.1101	437.1432	2144.8	1338.65
813.2539	439.3176	2122.95	1320.3
813.3977	441.4914	2108.4	1307.25
813.5415	443.6645	2110.9	1307.25
813.6853	445.8371	2110.95	1305
813.8291	448.0091	2109.7	1301.95
813.973	450.1806	2116	1310.5
814.1168	452.3514	2093.9	1285.6
814.2607	454.5216	2107.45	1291.85
814.4046	456.6913	2101.45	1292.3
814.5485	458.8603	2107.2	1300.15
814.6924	461.0288	2110.6	1304.05
814.8363	463.1967	2108.65	1303.15
814.9802	465.3639	2104.65	1295.95
815.1241	467.5306	2104.15	1294.3
815.2681	469.6967	2097.45	1288.55
815.412	471.8622	2088.7	1282.15
815.556	474.0271	2088	1280.15
815.7	476.1914	2087.55	1272.9
815.844	478.3551	2085.8	1275.55
815.988	480.5182	2085.05	1275.2
816.132	482.6807	2076.25	1265.45
816.276	484.8426	2107.55	1296.7
816.4201	487.0039	2145.7	1333.2
816.5641	489.1647	2203.55	1390.8
816.7082	491.3248	2248.9	1434.3
816.8522	493.4843	2265.4	1453.9
816.9963	495.6432	2256.4	1441.7
817.1404	497.8015	2217.4	1394.85
817.2845	499.9592	2196.5	1376.65
817.4286	502.1163	2128.75	1309.3
817.5727	504.2728	2094.5	1274.9
817.7168	506.4287	2056.65	1240.05
817.861	508.5839	2048.6	1233.75
818.0051	510.7386	2034.55	1215
818.1493	512.8927	2048.4	1220.7
818.2935	515.0461	2046.7	1225.05
818.4377	517.199	2073.55	1252.95
818.5818	519.3512	2118.45	1296
818.726	521.5029	2186.45	1356
818.8703	523.6539	2235.8	1409.7
819.0145	525.8043	2235.15	1409.45
819.1587	527.9541	2191.8	1364.65
819.303	530.1033	2123.4	1296.4
819.4472	532.2519	2071.85	1245.05
819.5915	534.3999	2058.9	1229.9
819.7357	536.5472	2048.45	1221.05
819.88	538.694	2043.75	1215.3
820.0243	540.8401	2070.4	1241.35
820.1686	542.9856	2087.4	1254.2
820.3129	545.1305	2095	1259.6
820.4572	547.2748	2110.35	1275.75
820.6016	549.4185	2117.5	1279.2
820.7459	551.5615	2119.15	1281.7
820.8902	553.704	2140.65	1303.5
821.0346	555.8458	2157.75	1325.85
821.1789	557.987	2192.3	1361.3
821.3233	560.1276	2211.2	1378.3
821.4677	562.2675	2262.3	1428.15
821.6121	564.4069	2323.15	1488.5
821.7565	566.5456	2358.3	1524.5
821.9009	568.6837	2348.1	1512
822.0453	570.8212	2276.55	1444.4
822.1897	572.958	2209.55	1374.85
822.3342	575.0942	2140.6	1310.65
822.4786	577.2299	2104.7	1271.8
822.6231	579.3648	2068.45	1241.25
822.7675	581.4992	2052.85	1225.5
822.912	583.6329	2071.5	1243
823.0565	585.766	2098.85	1269.9
823.201	587.8985	2152.55	1321.4
823.3454	590.0304	2221	1373.5
823.4899	592.1616	2238.35	1398.95
823.6345	594.2922	2225.85	1386.8
823.779	596.4222	2178.75	1336.2
823.9235	598.5515	2123.5	1282.65
824.068	600.6802	2076.75	1235.5
824.2126	602.8083	2019.75	1181.3
824.3571	604.9358	2017.3	1174.85
824.5017	607.0626	2011.5	1167.9
824.6462	609.1888	2034.75	1188.3
824.7908	611.3144	2053.9	1206.3
824.9354	613.4393	2094.75	1250.4
825.08	615.5636	2147.75	1301.85
825.2246	617.6873	2204.75	1358
825.3692	619.8103	2230.15	1382.35
825.5138	621.9327	2214	1367.6
825.6584	624.0544	2174.05	1328.8
825.803	626.1756	2116.05	1272.9
825.9477	628.2961	2074.95	1229.75
826.0923	630.4159	2055.9	1208.3
826.237	632.5351	2047.95	1197.3
826.3816	634.6537	2040.5	1191.05
826.5263	636.7716	2029.65	1177.7
826.6709	638.8889	2020.8	1169.2
826.8156	641.0056	2032.95	1182.5
826.9603	643.1216	2036.7	1184.5
827.105	645.237	2037.25	1183.7
827.2497	647.3518	2025.05	1175
827.3944	649.4659	1997.75	1148.5
827.5391	651.5793	1966.7	1116.25
827.6838	653.6922	1953.3	1105.7
827.8285	655.8043	1954.75	1106.3
827.9733	657.9159	1939.5	1088.7
828.118	660.0268	1927.75	1075.6
828.2627	662.137	1932.1	1079.2
828.4075	664.2466	1932.35	1074.75
828.5522	666.3556	1924.45	1068.8
828.697	668.4639	1923.85	1071.55
828.8418	670.5716	1916.65	1064.1
828.9865	672.6786	1914.95	1062.25
829.1313	674.785	1902.3	1043.5
829.2761	676.8907	1912.95	1055.7
829.4209	678.9958	1902.25	1049.35
829.5657	681.1002	1900.75	1045.55
829.7105	683.204	1900.55	1040.25
829.8553	685.3072	1901.95	1042
830.0001	687.4097	1906.25	1047.25
830.1449	689.5115	1901.2	1042.05
830.2898	691.6127	1909.9	1054.35
830.4346	693.7132	1894.5	1037.8
830.5794	695.8131	1917.25	1041
830.7243	697.9123	1905.9	1045.7
830.8691	700.0109	1905.5	1043.5
831.014	702.1089	1907.05	1044.35
831.1588	704.2061	1933.05	1070.65
831.3037	706.3028	1959.5	1097.4
831.4486	708.3987	1967.9	1107.6
831.5935	710.4941	1987.5	1128.2
831.7383	712.5887	1995.05	1134.7
831.8832	714.6827	1992.45	1128.8
832.0281	716.7761	1981.45	1122.15
832.173	718.8688	1980.1	1117.25
832.3179	720.9608	1991.6	1126
832.4628	723.0522	2005.5	1137.75
832.6077	725.1429	2024.85	1160.65
832.7527	727.233	2061.05	1196.15
832.8976	729.3224	2133.85	1269.25
833.0425	731.4112	2179	1312.75
833.1874	733.4993	2182.5	1318.6
833.3324	735.5867	2122.7	1256.7
833.4773	737.6735	2062.45	1196.35
833.6222	739.7596	1997.55	1130.55
833.7672	741.845	1970.65	1103.95
833.9122	743.9298	1965.3	1097.6
834.0571	746.014	1972.35	1106.5
834.2021	748.0974	1985.65	1116.25
834.347	750.1802	1997.55	1128.6
834.492	752.2624	1983.9	1117
834.637	754.3439	1969.4	1100.4
834.782	756.4247	1972.25	1093.5
834.9269	758.5048	1967.3	1098.3
835.0719	760.5843	1989.6	1120.35
835.2169	762.6631	2017.1	1147.65
835.3619	764.7413	2069.65	1202.1
835.5069	766.8188	2156.75	1287.2
835.6519	768.8956	2243.25	1370.1
835.7969	770.9718	2302.1	1434.95
835.9419	773.0473	2299.2	1431.55
836.0869	775.1221	2257.25	1388.5
836.232	777.1962	2257.2	1386.7
836.377	779.2697	2307.95	1435.15
836.522	781.3426	2426.05	1538.45
836.667	783.4147	2478.65	1608.85
836.8121	785.4862	2444.6	1575.7
836.9571	787.557	2358.4	1484.35
837.1021	789.6271	2229.8	1358.35
837.2472	791.6966	2101	1229.15
837.3922	793.7654	2014.4	1144.45
837.5373	795.8335	1952.7	1079.45
837.6823	797.901	1928.2	1055.8
837.8274	799.9678	1920.65	1046.9
837.9724	802.0339	1929.65	1055.45
838.1175	804.0993	1934.85	1049.2
838.2626	806.1641	1912	1037.65
838.4076	808.2282	1887.8	1010.95
838.5527	810.2916	1876.9	1001.45
838.6978	812.3544	1857.85	984
838.8428	814.4164	1856.1	982.5
838.9879	816.4778	1864.85	988.85
839.133	818.5385	1874.95	998.7
839.2781	820.5986	1909.65	1033.9
839.4232	822.658	1959.35	1081.5
839.5682	824.7166	2031.1	1155.9
839.7133	826.7747	2112.55	1241.45
839.8584	828.832	2203.1	1324.95
840.0035	830.8886	2259.5	1383.7
840.1486	832.9446	2284.6	1404.8
840.2937	834.9999	2254.5	1380.25
840.4388	837.0545	2179.85	1302.3
840.5839	839.1085	2083.05	1204.6
840.729	841.1618	2014.05	1130.9
840.8741	843.2143	1953.25	1078.1
841.0192	845.2662	1916.8	1041.25
841.1643	847.3175	1909.1	1030.6
841.3095	849.368	1896.7	1017.95
841.4546	851.4179	1896.4	1019.8
841.5997	853.467	1888.2	1009.8
841.7448	855.5155	1902	1025.05
841.8899	857.5633	1891.95	1015
842.0351	859.6105	1891.15	1014
842.1802	861.6569	1879.1	1001.05
842.3253	863.7027	1884.1	1005.5
842.4704	865.7478	1857.25	979.9
842.6156	867.7922	1854.45	973.05
842.7607	869.8359	1840.85	959.4
842.9058	871.8789	1839.25	961
843.0509	873.9212	1874.9	962.5
843.1961	875.9629	1850.25	971.5
843.3412	878.0039	1868.4	984.95
843.4863	880.0441	1874.15	995.45
843.6315	882.0837	1897.1	1018.35
843.7766	884.1226	1919.05	1036.45
843.9218	886.1609	1951.5	1072.9
844.0669	888.1984	2005.55	1122.15
844.212	890.2352	2048.15	1167.95
844.3572	892.2714	2067.5	1183.9
844.5023	894.3069	2032.95	1150.75
844.6475	896.3416	1970.3	1086.55
844.7926	898.3757	1940.4	1057.8
844.9377	900.4091	1916.05	1030.9
845.0829	902.4418	1917.5	1032.55
845.228	904.4739	1933.65	1050.35
845.3732	906.5052	1946.1	1061
845.5183	908.5358	1933.05	1051.9
845.6635	910.5658	1917.95	1033.95
845.8086	912.595	1888.15	1002.55
845.9538	914.6236	1841.35	955.35
846.0989	916.6515	1812.55	928.2
846.2441	918.6786	1800.3	915.9
846.3892	920.7051	1789.05	902.35
846.5344	922.7309	1789.05	906.45
846.6795	924.756	1785.7	902.75
846.8246	926.7804	1803.15	916.25
846.9698	928.8041	1805.45	919.8
847.1149	930.8272	1832.1	948.2
847.2601	932.8495	1844.95	958.65
847.4052	934.8711	1851.4	967.2
847.5504	936.892	1847.3	961.95
847.6955	938.9123	1875.75	987.95
847.8407	940.9318	1891.9	1007.4
847.9858	942.9506	1914.75	1028.4
848.131	944.9688	1898.2	1012.35
848.2761	946.9862	1872.85	988.35
848.4213	949.003	1847.85	961.7
848.5664	951.019	1812.5	928.45
848.7115	953.0344	1806	921
848.8567	955.0491	1782.65	895.5
849.0018	957.063	1786.1	901.6
849.147	959.0763	1783.35	900.4
849.2921	961.0888	1785.35	895.25
849.4373	963.1007	1769.7	883.7
849.5824	965.1119	1764.45	880.05
849.7275	967.1223	1767.15	888.45
849.8727	969.1321	1759.7	879.45
850.0178	971.1412	1753.35	871.4
850.1629	973.1495	1740	856.3
850.3081	975.1572	1778.5	862.2
850.4532	977.1641	1741.6	856.3
850.5983	979.1704	1746.5	858.45
850.7435	981.1759	1755.65	867.2
850.8886	983.1808	1734.8	845.55
851.0337	985.1849	1751.55	851.15
851.1788	987.1884	1738.55	848.65
851.324	989.1911	1743.1	853.65
851.4691	991.1932	1756.35	868.15
851.6142	993.1945	1754.25	867
851.7593	995.1951	1749.9	860.15
851.9045	997.1951	1745.95	854.1
852.0496	999.1943	1730.8	843.15
852.1947	1001.1928	1748.1	861.65
852.3398	1003.1906	1751.9	863.6
852.4849	1005.1877	1784.9	898.1
852.63	1007.1841	1802.75	913.65
852.7751	1009.1798	1812.9	927.3
852.9202	1011.1748	1808.15	920.95
853.0653	1013.1691	1775.5	885.35
853.2104	1015.1627	1745.7	857.8
853.3555	1017.1556	1722.95	835.85
853.5006	1019.1477	1696.55	807.9
853.6457	1021.1392	1684.35	800.55
853.7908	1023.1299	1671.45	787.35
853.9359	1025.12	1675.6	791.6
854.081	1027.1093	1682.05	804
854.2261	1029.0979	1700.7	822.4
854.3712	1031.0859	1727.45	845.3
854.5163	1033.0731	1746.15	861.95
854.6613	1035.0596	1730.7	846.6
854.8064	1037.0454	1708.25	823.85
854.9515	1039.0304	1712.75	823.3
855.0965	1041.0148	1688	801.3
855.2416	1042.9985	1668.55	779.6
855.3867	1044.9814	1660.95	774.55
855.5317	1046.9636	1657.75	768.45
855.6768	1048.9452	1666.75	780.25
855.8219	1050.926	1682.95	794.3
855.9669	1052.9061	1698	809.6
856.112	1054.8855	1701.8	812.45
856.257	1056.8642	1701.55	811.6
856.4021	1058.8421	1699	806.8
856.5471	1060.8194	1699.8	811.5
856.6921	1062.7959	1694.1	805.55
856.8372	1064.7717	1694.8	804.9
856.9822	1066.7469	1705.65	814.35
857.1272	1068.7213	1701.7	810.1
857.2723	1070.695	1713.7	826.2
857.4173	1072.6679	1737.35	848
857.5623	1074.6402	1754.4	862.3
857.7073	1076.6117	1765.35	869.95
857.8523	1078.5826	1737.05	845.95
857.9973	1080.5527	1711.35	819.3
858.1423	1082.5221	1675.25	785
858.2873	1084.4908	1647.8	759.8
858.4323	1086.4587	1633	743.25
858.5773	1088.426	1623.8	733.65
858.7223	1090.3925	1625.2	728.7
858.8673	1092.3584	1636.35	749.55
859.0123	1094.3235	1643.5	753.3
859.1573	1096.2879	1664.3	773.9
859.3022	1098.2515	1679.55	790.3
859.4472	1100.2145	1702.85	813.25
859.5922	1102.1767	1739.45	847.8
859.7371	1104.1382	1796	905.9
859.8821	1106.099	1844	951.45
860.027	1108.0591	1884.55	993.3
860.172	1110.0185	1926.3	1033.25
860.3169	1111.9771	1967.9	1079.3
860.4619	1113.9351	2016.45	1126.1
860.6068	1115.8923	2068.9	1178.65
860.7517	1117.8488	2096.05	1204.7
860.8967	1119.8045	2040.35	1150.65
861.0416	1121.7596	1946.65	1056.05
861.1865	1123.7139	1853.15	963.3
861.3314	1125.6675	1794.6	907.05
861.4763	1127.6204	1793.05	904.5
861.6212	1129.5726	1815.85	923.35
861.7661	1131.524	1806.1	915.8
861.911	1133.4748	1778.4	888
862.0559	1135.4248	1715.05	823.65
862.2008	1137.3741	1664.6	775.05
862.3457	1139.3226	1635.95	744.95
862.4905	1141.2705	1639.85	749.6
862.6354	1143.2176	1663.85	770.1
862.7803	1145.164	1665.9	774.1
862.9251	1147.1097	1659.1	767.8
863.07	1149.0546	1640.35	747.2
863.2148	1150.9989	1611.55	719.85
863.3597	1152.9424	1596.5	702.85
863.5045	1154.8852	1580.5	687.9
863.6493	1156.8272	1570.35	681.8
863.7942	1158.7686	1579.55	681.9
863.939	1160.7092	1580.05	686.65
864.0838	1162.6491	1581.05	687.7
864.2286	1164.5883	1603.45	712.15
864.3734	1166.5267	1617.3	723.4
864.5182	1168.4644	1634.3	743.5
864.663	1170.4014	1668.7	774.95
864.8078	1172.3377	1698.65	808.8
864.9526	1174.2732	1759.9	870.6
865.0974	1176.2081	1853.1	962.25
865.2421	1178.1421	1974.2	1077.4
865.3869	1180.0755	2074.25	1182.65
865.5317	1182.0082	2131.2	1240.55
865.6764	1183.9401	2110.55	1219.45
865.8212	1185.8713	1992.5	1101.8
865.9659	1187.8017	1880.3	992.65
866.1106	1189.7315	1773.7	890.85
866.2554	1191.6605	1726.15	811.75
866.4001	1193.5888	1660.65	773.2
866.5448	1195.5163	1640.75	753.1
866.6895	1197.4432	1626.3	733.5
866.8342	1199.3693	1609.05	719.5
866.9789	1201.2947	1594.2	701.4
867.1236	1203.2193	1587.7	694.5
867.2683	1205.1432	1578.15	687.1
867.413	1207.0664	1582	690.05
867.5576	1208.9889	1580.8	688.9
867.7023	1210.9106	1582.15	691.45
867.847	1212.8316	1588.65	701.3
867.9916	1214.7519	1615.3	715.6
868.1363	1216.6715	1610.25	719.45
868.2809	1218.5903	1619	725.35
868.4255	1220.5084	1628.25	733.45
868.5701	1222.4257	1648.25	758.1
868.7148	1224.3424	1654.15	764.8
868.8594	1226.2583	1685.4	791.6
869.004	1228.1735	1715.3	824.7
869.1486	1230.0879	1744.9	853.1
869.2932	1232.0016	1779.75	889.1
869.4377	1233.9146	1820.5	926.7
869.5823	1235.8269	1838.85	946.5
869.7269	1237.7384	1851.45	959.9
869.8715	1239.6492	1854.3	963.4
870.016	1241.5592	1873.85	981.65
870.1606	1243.4686	1915.45	1022.8
870.3051	1245.3772	1992.35	1100.15
870.4496	1247.285	2081.25	1187.3
870.5941	1249.1922	2164.85	1271.5
870.7387	1251.0986	2235.65	1341.6
870.8832	1253.0042	2285.7	1390.5
