Software Version:	3.9.2.0
Unit SN:	10000200
Spectrometer SN:	6960
Date:	3/8/2024 11:50:52 AM
Data Line Index:	25
Spectral Points:	2048
Integration time (ms):	125
Averages:	20
Delay (ms):	30000
Sequence Number:	1
Processing:	dark subtract
Laser Power (mW):	305
Laser Current (mA):	823
Laser Diode Temp (C):	25.1
Laser Case Temp (C):	25.4
System Temp (C):	25.4
Spectrometer Temp (C):	23.2
CCD Temp (C):	0.005
Secondary Temp (C):	20.004
Heatsink Temp (C):	19.818
CCDPCB Temp (C):	34.995
SecondaryPCB Temp (C):	28.226

Wavelength	RamanShift	Raw Counts	Dark Subtracted
787.061	30.1047	414.25	3.5
787.2016	32.3739	412.6	5.15
787.3422	34.6426	412.85	4.2
787.4828	36.9109	416.2	5.75
787.6235	39.1787	420	7.45
787.7642	41.4461	425.5	8.5
787.9049	43.7131	429.85	6.45
788.0456	45.9796	432.45	8.8
788.1863	48.2456	438.8	10.65
788.3271	50.5112	440.9	11.7
788.4679	52.7764	446.45	11.3
788.6087	55.0411	448.75	8.75
788.7496	57.3054	455.15	9.5
788.8904	59.5692	458.85	12.6
789.0313	61.8326	463.2	13.9
789.1722	64.0955	467.65	14.95
789.3132	66.3579	475.15	19
789.4541	68.6199	481.9	20.75
789.5951	70.8815	493.5	27.35
789.7361	73.1426	509.1	38.25
789.8771	75.4032	539.6	66.15
790.0181	77.6634	610.6	133.7
790.1592	79.9231	772.05	290.25
790.3003	82.1824	1108.4	617.05
790.4414	84.4412	1663.25	1155.35
790.5825	86.6995	2369.3	1840.55
790.7237	88.9574	3024.5	2477.45
790.8648	91.2148	3471.95	2918.45
791.006	93.4717	3663.9	3100
791.1472	95.7282	3679.3	3111.95
791.2885	97.9842	3672.15	3106.65
791.4297	100.2398	3602.2	3026.15
791.571	102.4949	3564	2988.95
791.7123	104.7495	3522.6	2945.95
791.8536	107.0036	3474.95	2895.7
791.9949	109.2573	3390.05	2810.65
792.1363	111.5105	3297.15	2713.95
792.2777	113.7632	3187.35	2603.85
792.4191	116.0154	3115.5	2522.25
792.5605	118.2672	2993.3	2404.15
792.7019	120.5185	2894.85	2305.05
792.8434	122.7693	2812	2219.25
792.9849	125.0197	2748.4	2152.75
793.1264	127.2696	2655.6	2055.9
793.2679	129.519	2626.25	2019.1
793.4094	131.7679	2593.15	1983.8
793.551	134.0163	2570.75	1959.65
793.6926	136.2642	2564.65	1951.55
793.8342	138.5117	2554.7	1932.7
793.9758	140.7587	2524.1	1906.35
794.1175	143.0052	2482.1	1860.9
794.2591	145.2512	2436	1816.4
794.4008	147.4967	2371.15	1749.55
794.5425	149.7417	2342.5	1717.75
794.6842	151.9863	2315.85	1685.9
794.826	154.2304	2310.85	1675.85
794.9677	156.4739	2300.4	1661.7
795.1095	158.717	2313	1671.4
795.2513	160.9596	2329.45	1686.8
795.3931	163.2017	2360.1	1716
795.535	165.4433	2369.3	1722.05
795.6768	167.6844	2359	1709.6
795.8187	169.925	2325.95	1675.05
795.9606	172.1651	2267	1609.95
796.1025	174.4047	2229.85	1568.4
796.2445	176.6439	2188.5	1526.65
796.3864	178.8825	2173.05	1508.4
796.5284	181.1206	2148.8	1477.95
796.6704	183.3582	2145.05	1473.75
796.8124	185.5954	2144.25	1469.05
796.9544	187.832	2144.8	1468.2
797.0965	190.0681	2146.95	1468.8
797.2386	192.3037	2146.95	1467.05
797.3806	194.5388	2165.1	1483.5
797.5228	196.7734	2160.65	1475.3
797.6649	199.0075	2184.6	1495.55
797.807	201.2411	2196.3	1506.55
797.9492	203.4742	2227	1534.95
798.0914	205.7068	2242.5	1548.9
798.2336	207.9389	2268.8	1571.6
798.3758	210.1704	2275	1585
798.518	212.4015	2265.7	1588.75
798.6603	214.632	2265.75	1589.7
798.8025	216.862	2273.8	1598.45
798.9448	219.0915	2282.45	1606.55
799.0871	221.3205	2291	1609.95
799.2294	223.549	2297.4	1622.15
799.3718	225.777	2288.9	1614.7
799.5141	228.0044	2281.95	1600.2
799.6565	230.2314	2291.15	1606.2
799.7989	232.4578	2275.6	1586.25
799.9413	234.6837	2264.05	1568.25
800.0837	236.909	2253.25	1554.25
800.2262	239.1339	2269.25	1547.1
800.3687	241.3582	2247.35	1536.7
800.5111	243.582	2272.85	1537.6
800.6536	245.8053	2269.35	1545.15
800.7961	248.0281	2279.1	1559.5
800.9387	250.2503	2280.6	1557.3
801.0812	252.472	2287.95	1562.15
801.2238	254.6932	2302.4	1583.6
801.3664	256.9139	2301.75	1574.4
801.509	259.134	2327.65	1600.25
801.6516	261.3536	2343.9	1617.6
801.7942	263.5727	2381.2	1650.65
801.9369	265.7912	2427.1	1699.15
802.0795	268.0092	2488.25	1759.85
802.2222	270.2267	2541.05	1812.8
802.3649	272.4436	2582.25	1852.05
802.5076	274.6601	2621.95	1878.35
802.6504	276.8759	2642.25	1903.5
802.7931	279.0913	2657.7	1916.85
802.9359	281.3061	2675.2	1933.55
803.0787	283.5204	2684.6	1939.35
803.2215	285.7341	2714.65	1966.1
803.3643	287.9473	2740.95	1992.4
803.5071	290.16	2726.6	1973.75
803.6499	292.3721	2695.65	1951.75
803.7928	294.5837	2662.55	1917.3
803.9357	296.7947	2640.35	1894.95
804.0786	299.0052	2635.5	1890.6
804.2215	301.2152	2628.9	1881.9
804.3644	303.4246	2593.95	1847.4
804.5074	305.6334	2582.45	1838.1
804.6503	307.8418	2564.9	1815.95
804.7933	310.0495	2548.7	1798.05
804.9363	312.2568	2504.75	1752.35
805.0793	314.4635	2448.1	1694.1
805.2223	316.6696	2408.8	1651.5
805.3653	318.8752	2371.35	1603.8
805.5084	321.0802	2351.25	1592.25
805.6514	323.2847	2339.3	1577.35
805.7945	325.4887	2343.5	1583.2
805.9376	327.692	2361	1597.8
806.0807	329.8949	2414.9	1651.85
806.2238	332.0972	2437.05	1672.85
806.367	334.2989	2457.8	1688.15
806.5101	336.5001	2443.85	1674.95
806.6533	338.7007	2427.35	1656.7
806.7965	340.9008	2384.75	1612.9
806.9397	343.1003	2326.55	1556.5
807.0829	345.2992	2285.4	1514.4
807.2261	347.4976	2252.65	1479.05
807.3693	349.6955	2215.25	1440.75
807.5126	351.8927	2200.45	1420.2
807.6559	354.0895	2196.15	1403.55
807.7991	356.2856	2177.9	1396.85
807.9424	358.4812	2181.75	1400.8
808.0857	360.6763	2158.25	1374.95
808.2291	362.8707	2152.95	1368.3
808.3724	365.0646	2171.3	1382.5
808.5158	367.258	2184.85	1396.15
808.6591	369.4508	2189.2	1398.9
808.8025	371.643	2228.75	1436.4
808.9459	373.8346	2248.65	1454.3
809.0893	376.0257	2284.55	1485.35
809.2327	378.2162	2309.1	1509.75
809.3762	380.4062	2306.7	1511.3
809.5196	382.5956	2281.85	1482.7
809.6631	384.7844	2240.15	1448.9
809.8066	386.9726	2207.25	1418.85
809.9501	389.1603	2179.6	1396.65
810.0936	391.3474	2194.8	1375.75
810.2371	393.5339	2177	1387.05
810.3806	395.7199	2185.9	1398
810.5241	397.9052	2212.3	1421.45
810.6677	400.09	2263.1	1474.95
810.8113	402.2743	2284.5	1493.15
810.9548	404.4579	2322.3	1531
811.0984	406.641	2367.6	1573.9
811.2421	408.8235	2412	1618.35
811.3857	411.0054	2453.45	1653.35
811.5293	413.1868	2505.45	1704.4
811.673	415.3675	2561.1	1757.7
811.8166	417.5477	2568.85	1764.55
811.9603	419.7273	2504.35	1697.05
812.104	421.9064	2432.6	1618.9
812.2477	424.0848	2358.55	1549.15
812.3914	426.2627	2311.25	1502.25
812.5351	428.4399	2250.5	1444
812.6788	430.6166	2207	1392.85
812.8226	432.7928	2165	1350.2
812.9663	434.9683	2119.05	1305.65
813.1101	437.1432	2097.7	1282.35
813.2539	439.3176	2068.3	1256.15
813.3977	441.4914	2058.5	1246.9
813.5415	443.6645	2061.1	1247.05
813.6853	445.8371	2061.55	1245.2
813.8291	448.0091	2057.6	1241.3
813.973	450.1806	2066.8	1251.55
814.1168	452.3514	2044	1228.05
814.2607	454.5216	2060.5	1236.55
814.4046	456.6913	2059.05	1240.25
814.5485	458.8603	2051.05	1236.25
814.6924	461.0288	2064.6	1250.85
814.8363	463.1967	2058.75	1244.4
814.9802	465.3639	2059.65	1243.9
815.1241	467.5306	2045.45	1227.45
815.2681	469.6967	2045.5	1227.55
815.412	471.8622	2029.55	1212.8
815.556	474.0271	2029.45	1210.4
815.7	476.1914	2029.7	1208.25
815.844	478.3551	2033.9	1212.7
815.988	480.5182	2029.6	1208
816.132	482.6807	2038.45	1220.65
816.276	484.8426	2051.75	1236.75
816.4201	487.0039	2092.5	1274
816.5641	489.1647	2137.2	1313.8
816.7082	491.3248	2190.2	1367.45
816.8522	493.4843	2202.75	1381.5
816.9963	495.6432	2202.55	1380.15
817.1404	497.8015	2167.85	1338
817.2845	499.9592	2134.2	1304.3
817.4286	502.1163	2078	1248.15
817.5727	504.2728	2035.4	1208.35
817.7168	506.4287	2011.45	1190.4
817.861	508.5839	1995.45	1171.15
818.0051	510.7386	1980.8	1153.75
818.1493	512.8927	2006.05	1170.6
818.2935	515.0461	2003.55	1171.15
818.4377	517.199	2013.65	1182.4
818.5818	519.3512	2068.2	1235.5
818.726	521.5029	2126.85	1290.95
818.8703	523.6539	2179.75	1347.3
819.0145	525.8043	2188.65	1354.7
819.1587	527.9541	2137.65	1302.4
819.303	530.1033	2085.05	1250.65
819.4472	532.2519	2033.85	1198.6
819.5915	534.3999	2007	1171.05
819.7357	536.5472	2004.35	1169.75
819.88	538.694	2008.7	1172.7
820.0243	540.8401	2015.3	1175.75
820.1686	542.9856	2032.9	1191.55
820.3129	545.1305	2051.2	1207.95
820.4572	547.2748	2064.15	1220.1
820.6016	549.4185	2068.1	1224.3
820.7459	551.5615	2067.3	1224.35
820.8902	553.704	2098.95	1254.15
821.0346	555.8458	2102.7	1260.6
821.1789	557.987	2123.65	1281.1
821.3233	560.1276	2142.6	1296.9
821.4677	562.2675	2205.8	1363.8
821.6121	564.4069	2257.1	1410.9
821.7565	566.5456	2292.35	1451.75
821.9009	568.6837	2285	1443.1
822.0453	570.8212	2213.7	1370.65
822.1897	572.958	2144.35	1299.45
822.3342	575.0942	2103.5	1263.5
822.4786	577.2299	2057.65	1216.1
822.6231	579.3648	2024.25	1188.75
822.7675	581.4992	2008.9	1175.95
822.912	583.6329	2019.6	1185.2
823.0565	585.766	2053.3	1217.65
823.201	587.8985	2088.65	1250.9
823.3454	590.0304	2148.25	1293.4
823.4899	592.1616	2176.05	1324.35
823.6345	594.2922	2164.3	1314
823.779	596.4222	2115.2	1266.4
823.9235	598.5515	2074.35	1224.1
824.068	600.6802	2015.15	1165.15
824.2126	602.8083	1975.5	1125.9
824.3571	604.9358	1971.85	1122.95
824.5017	607.0626	1977.35	1126.45
824.6462	609.1888	1989.35	1136.1
824.7908	611.3144	2009.15	1151
824.9354	613.4393	2047.55	1193.35
825.08	615.5636	2093.75	1235.25
825.2246	617.6873	2144.8	1290.65
825.3692	619.8103	2161.2	1304.9
825.5138	621.9327	2160.9	1302.8
825.6584	624.0544	2132.9	1282
825.803	626.1756	2072.8	1221.95
825.9477	628.2961	2028.25	1172.55
826.0923	630.4159	2014.05	1158.65
826.237	632.5351	2007.1	1150.25
826.3816	634.6537	1992.3	1135.7
826.5263	636.7716	1991.2	1129.3
826.6709	638.8889	1982.9	1122.6
826.8156	641.0056	1984.25	1123.95
826.9603	643.1216	1991.3	1131.2
827.105	645.237	1993.85	1132.85
827.2497	647.3518	1970.8	1113.4
827.3944	649.4659	1947.4	1093.2
827.5391	651.5793	1934.15	1080.3
827.6838	653.6922	1918.45	1062.3
827.8285	655.8043	1911.25	1054.85
827.9733	657.9159	1898.75	1041.35
828.118	660.0268	1896.55	1036.8
828.2627	662.137	1898.35	1038.35
828.4075	664.2466	1889.4	1023.75
828.5522	666.3556	1893.6	1032.65
828.697	668.4639	1881.9	1020.75
828.8418	670.5716	1874.3	1015.4
828.9865	672.6786	1876.3	1013.25
829.1313	674.785	1873.35	1006.7
829.2761	676.8907	1866.5	1001.45
829.4209	678.9958	1865.9	1007.35
829.5657	681.1002	1864.95	998.75
829.7105	683.204	1863.8	995.15
829.8553	685.3072	1860.3	992.3
830.0001	687.4097	1856.7	993.3
830.1449	689.5115	1863.15	995
830.2898	691.6127	1857.9	994
830.4346	693.7132	1854.5	988.3
830.5794	695.8131	1870.65	988.05
830.7243	697.9123	1864.25	995.4
830.8691	700.0109	1865	998.1
831.014	702.1089	1879.2	1013.4
831.1588	704.2061	1890.75	1024.2
831.3037	706.3028	1915.05	1045.65
831.4486	708.3987	1937.5	1066.7
831.5935	710.4941	1947.9	1081.4
831.7383	712.5887	1950.2	1083
831.8832	714.6827	1944.7	1071.4
832.0281	716.7761	1936.8	1066.65
832.173	718.8688	1929.8	1058.6
832.3179	720.9608	1947.45	1072.55
832.4628	723.0522	1969.3	1094.5
832.6077	725.1429	1977.95	1106.4
832.7527	727.233	2017.7	1143.35
832.8976	729.3224	2075.85	1205.35
833.0425	731.4112	2124.1	1254.05
833.1874	733.4993	2132.3	1256.75
833.3324	735.5867	2073.75	1202
833.4773	737.6735	2008.1	1133.6
833.6222	739.7596	1957.8	1085
833.7672	741.845	1941.5	1065.95
833.9122	743.9298	1930.9	1056.9
834.0571	746.014	1942.55	1068.1
834.2021	748.0974	1956.55	1083.1
834.347	750.1802	1961.5	1085.6
834.492	752.2624	1943.85	1068.35
834.637	754.3439	1933.55	1056.25
834.782	756.4247	1927.25	1040.5
834.9269	758.5048	1929.8	1053.35
835.0719	760.5843	1939.4	1061.65
835.2169	762.6631	1978.2	1100.15
835.3619	764.7413	2020.75	1145.6
835.5069	766.8188	2115.2	1236.6
835.6519	768.8956	2192.05	1312.2
835.7969	770.9718	2231.7	1354.4
835.9419	773.0473	2238.3	1358.9
836.0869	775.1221	2209.35	1329.1
836.232	777.1962	2190.2	1312.9
836.377	779.2697	2254.4	1375.3
836.522	781.3426	2364	1467.3
836.667	783.4147	2394.2	1514.6
836.8121	785.4862	2382	1503.7
836.9571	787.557	2286.15	1406
837.1021	789.6271	2181.05	1301.1
837.2472	791.6966	2049.55	1173.05
837.3922	793.7654	1970.7	1091.05
837.5373	795.8335	1918.2	1039.9
837.6823	797.901	1892.2	1011.1
837.8274	799.9678	1879.15	1000.2
837.9724	802.0339	1879.85	1000.1
838.1175	804.0993	1891.3	999.4
838.2626	806.1641	1874.9	994.2
838.4076	808.2282	1860	979.6
838.5527	810.2916	1845.55	961.2
838.6978	812.3544	1829.65	949.5
838.8428	814.4164	1825.25	946.4
838.9879	816.4778	1834.05	951
839.133	818.5385	1846.85	963.6
839.2781	820.5986	1871.1	987.8
839.4232	822.658	1910.4	1026.15
839.5682	824.7166	1970.4	1089.7
839.7133	826.7747	2065.65	1183.75
839.8584	828.832	2132.1	1248.55
840.0035	830.8886	2191.65	1305.5
840.1486	832.9446	2212.55	1329.9
840.2937	834.9999	2175.2	1294.25
840.4388	837.0545	2112.6	1224.9
840.5839	839.1085	2037.15	1151.4
840.729	841.1618	1970.85	1082.45
840.8741	843.2143	1930.75	1046.35
841.0192	845.2662	1887.4	1001.9
841.1643	847.3175	1872.15	987.1
841.3095	849.368	1865.4	980.65
841.4546	851.4179	1862.35	980.15
841.5997	853.467	1854.15	969.6
841.7448	855.5155	1862.5	977.2
841.8899	857.5633	1862	975.55
842.0351	859.6105	1860.1	974.1
842.1802	861.6569	1838.55	951
842.3253	863.7027	1835.75	948.45
842.4704	865.7478	1826.35	940.7
842.6156	867.7922	1815.4	927.25
842.7607	869.8359	1804.2	915.15
842.9058	871.8789	1798.8	911.05
843.0509	873.9212	1842.55	925.4
843.1961	875.9629	1809.5	921.6
843.3412	878.0039	1821.6	933.05
843.4863	880.0441	1834.45	952.4
843.6315	882.0837	1851.15	964.85
843.7766	884.1226	1874.85	987.4
843.9218	886.1609	1912.05	1024.35
844.0669	888.1984	1952	1064.85
844.212	890.2352	1995.9	1106.65
844.3572	892.2714	2007.9	1115.45
844.5023	894.3069	1990	1101.05
844.6475	896.3416	1930	1041.45
844.7926	898.3757	1898.5	1008.25
844.9377	900.4091	1879.15	989.3
845.0829	902.4418	1887.45	993.25
845.228	904.4739	1891.35	1000.85
845.3732	906.5052	1904.2	1014.2
845.5183	908.5358	1897.8	1009.95
845.6635	910.5658	1880.3	988.9
845.8086	912.595	1838.45	947.65
845.9538	914.6236	1805.95	916.25
846.0989	916.6515	1783.65	895.15
846.2441	918.6786	1772.3	882.3
846.3892	920.7051	1757.05	864.95
846.5344	922.7309	1769.8	878.65
846.6795	924.756	1757.7	865.7
846.8246	926.7804	1769.2	879.2
846.9698	928.8041	1781.35	889.95
847.1149	930.8272	1790.6	897.9
847.2601	932.8495	1799.9	906.85
847.4052	934.8711	1810.9	917.35
847.5504	936.892	1808.6	916.9
847.6955	938.9123	1839.4	947.3
847.8407	940.9318	1851.05	960.65
847.9858	942.9506	1864.95	973.4
848.131	944.9688	1860.45	968.95
848.2761	946.9862	1838.2	946.9
848.4213	949.003	1799.75	904.55
848.5664	951.019	1774.9	882.9
848.7115	953.0344	1762.05	870.95
848.8567	955.0491	1752.35	856.05
849.0018	957.063	1746.5	856.45
849.147	959.0763	1747.2	854.55
849.2921	961.0888	1747.7	853.6
849.4373	963.1007	1745.5	854.55
849.5824	965.1119	1739.95	852.95
849.7275	967.1223	1719	831.8
849.8727	969.1321	1718.05	831.25
850.0178	971.1412	1716.4	827
850.1629	973.1495	1717	825.15
850.3081	975.1572	1744.45	817.5
850.4532	977.1641	1715.4	825.2
850.5983	979.1704	1717.55	825.45
850.7435	981.1759	1724.2	827.1
850.8886	983.1808	1714.1	817.85
851.0337	985.1849	1707.8	803.55
851.1788	987.1884	1709	815.9
851.324	989.1911	1709.7	815.25
851.4691	991.1932	1711.4	816.45
851.6142	993.1945	1714.05	819.4
851.7593	995.1951	1715.5	822.1
851.9045	997.1951	1718.2	821.05
852.0496	999.1943	1705.55	812
852.1947	1001.1928	1716.05	820.8
852.3398	1003.1906	1715.65	819.75
852.4849	1005.1877	1741.05	846.9
852.63	1007.1841	1771.3	876.55
852.7751	1009.1798	1769.5	878
852.9202	1011.1748	1774.9	881.9
853.0653	1013.1691	1748.05	851.9
853.2104	1015.1627	1707.4	814.05
853.3555	1017.1556	1685.3	793.75
853.5006	1019.1477	1669.05	774.45
853.6457	1021.1392	1650.4	759.6
853.7908	1023.1299	1639.9	748.75
853.9359	1025.12	1645.5	756.15
854.081	1027.1093	1651.2	766.7
854.2261	1029.0979	1675.95	794.6
854.3712	1031.0859	1676.35	790.1
854.5163	1033.0731	1697.15	807.35
854.6613	1035.0596	1703.1	813.05
854.8064	1037.0454	1697.15	805.85
854.9515	1039.0304	1685.55	791.2
855.0965	1041.0148	1657.05	764.5
855.2416	1042.9985	1644.05	749.65
855.3867	1044.9814	1633.7	741.45
855.5317	1046.9636	1639.65	743.4
855.6768	1048.9452	1639.3	746.4
855.8219	1050.926	1651.15	757.5
855.9669	1052.9061	1665.75	771.75
856.112	1054.8855	1670.75	778.5
856.257	1056.8642	1664.25	768.55
856.4021	1058.8421	1665.25	766.2
856.5471	1060.8194	1672.75	775.3
856.6921	1062.7959	1663.2	769.65
856.8372	1064.7717	1660.7	764.6
856.9822	1066.7469	1675.55	779.65
857.1272	1068.7213	1671.95	773
857.2723	1070.695	1688.8	792.1
857.4173	1072.6679	1705.55	809.5
857.5623	1074.6402	1716.45	821.2
857.7073	1076.6117	1730.7	829.7
857.8523	1078.5826	1704.25	807.8
857.9973	1080.5527	1684.1	786.15
858.1423	1082.5221	1639.1	741.5
858.2873	1084.4908	1620.45	722.45
858.4323	1086.4587	1601.8	704
858.5773	1088.426	1603.7	703.6
858.7223	1090.3925	1603.15	701.7
858.8673	1092.3584	1607.25	711.95
859.0123	1094.3235	1606.2	710.7
859.1573	1096.2879	1629.85	736.05
859.3022	1098.2515	1652.75	756
859.4472	1100.2145	1681.35	785.7
859.5922	1102.1767	1710.75	815.6
859.7371	1104.1382	1758.8	862.1
859.8821	1106.099	1803.9	906
860.027	1108.0591	1830.9	933.8
860.172	1110.0185	1875.45	975.15
860.3169	1111.9771	1913	1017.1
860.4619	1113.9351	1956.85	1060.75
860.6068	1115.8923	2006.7	1109.6
860.7517	1117.8488	2023.85	1124.45
860.8967	1119.8045	1968.5	1075.7
861.0416	1121.7596	1887.65	990.95
861.1865	1123.7139	1797.4	900.85
861.3314	1125.6675	1750.15	854.8
861.4763	1127.6204	1755.25	859.3
861.6212	1129.5726	1784	886.5
861.7661	1131.524	1765.4	870.65
861.911	1133.4748	1738.2	842.7
862.0559	1135.4248	1676.95	778.05
862.2008	1137.3741	1636.3	740.3
862.3457	1139.3226	1616.1	719.65
862.4905	1141.2705	1616.8	719.55
862.6354	1143.2176	1627.3	724.05
862.7803	1145.164	1632.15	731.6
862.9251	1147.1097	1626.5	729.5
863.07	1149.0546	1605.45	705.95
863.2148	1150.9989	1584.2	685.95
863.3597	1152.9424	1565	666.25
863.5045	1154.8852	1553.65	654.7
863.6493	1156.8272	1549.35	652.35
863.7942	1158.7686	1559.9	654.5
863.939	1160.7092	1558.45	660
864.0838	1162.6491	1560.85	661.2
864.2286	1164.5883	1564	665.55
864.3734	1166.5267	1582.65	684.05
864.5182	1168.4644	1610.8	713.5
864.663	1170.4014	1635.85	734.15
864.8078	1172.3377	1668.3	773.15
864.9526	1174.2732	1716.8	817.6
865.0974	1176.2081	1802.35	907.15
865.2421	1178.1421	1921.4	1018.9
865.3869	1180.0755	2023.1	1125.9
865.5317	1182.0082	2072.1	1175.7
865.6764	1183.9401	2035.9	1137.85
865.8212	1185.8713	1940.45	1046.55
865.9659	1187.8017	1826.9	934.4
866.1106	1189.7315	1738.2	850.85
866.2554	1191.6605	1691	773.45
866.4001	1193.5888	1635.75	744.25
866.5448	1195.5163	1610.6	718.25
866.6895	1197.4432	1595.25	700.55
866.8342	1199.3693	1572.45	676.65
866.9789	1201.2947	1558.7	661.05
867.1236	1203.2193	1554.55	656.9
867.2683	1205.1432	1550.25	654.4
867.413	1207.0664	1552.8	658.45
867.5576	1208.9889	1556.9	656.65
867.7023	1210.9106	1551.95	655.75
867.847	1212.8316	1551.4	655.35
867.9916	1214.7519	1567.1	662.05
868.1363	1216.6715	1577.45	680.65
868.2809	1218.5903	1592.25	697.9
868.4255	1220.5084	1611.75	716.65
868.5701	1222.4257	1625.5	725.65
868.7148	1224.3424	1622.35	728.4
868.8594	1226.2583	1655.05	753.75
869.004	1228.1735	1676.9	777.85
869.1486	1230.0879	1715.65	817.1
869.2932	1232.0016	1742.9	845.9
869.4377	1233.9146	1770.95	874.55
869.5823	1235.8269	1797.55	899.95
869.7269	1237.7384	1813.85	917
869.8715	1239.6492	1808.8	914.95
870.016	1241.5592	1830.9	930.05
870.1606	1243.4686	1875.7	977.3
870.3051	1245.3772	1943.5	1045.4
870.4496	1247.285	2019	1120.35
870.5941	1249.1922	2091.8	1194.5
870.7387	1251.0986	2157.55	1261.5
870.8832	1253.0042	2216.3	1318.3
871.0277	1254.9092	2297.3	1400.25
