Software Version:	3.9.2.0
Unit SN:	10000200
Spectrometer SN:	6960
Date:	3/8/2024 1:50:10 PM
Data Line Index:	25
Spectral Points:	2048
Integration time (ms):	125
Averages:	20
Delay (ms):	30000
Sequence Number:	1
Processing:	dark subtract
Laser Power (mW):	305
Laser Current (mA):	823
Laser Diode Temp (C):	25.1
Laser Case Temp (C):	26.4
System Temp (C):	26.4
Spectrometer Temp (C):	24.1
CCD Temp (C):	0.009
Secondary Temp (C):	19.997
Heatsink Temp (C):	21.295
CCDPCB Temp (C):	36.24
SecondaryPCB Temp (C):	31.527

Wavelength	RamanShift	Raw Counts	Dark Subtracted
787.061	30.1047	471.45	65.3
787.2016	32.3739	470.05	65.2
787.3422	34.6426	478.15	70.95
787.4828	36.9109	485.95	76.4
787.6235	39.1787	495.35	82.2
787.7642	41.4461	503.7	84.5
787.9049	43.7131	516.6	97.5
788.0456	45.9796	522.35	99.5
788.1863	48.2456	533.2	106
788.3271	50.5112	543.85	113.3
788.4679	52.7764	554.9	120.8
788.6087	55.0411	566.25	126.15
788.7496	57.3054	579.8	133.35
788.8904	59.5692	590.4	143.6
789.0313	61.8326	601.15	152.15
789.1722	64.0955	614.35	162.25
789.3132	66.3579	634.4	176.25
789.4541	68.6199	657.65	195.65
789.5951	70.8815	696.8	227.55
789.7361	73.1426	780.2	308.85
789.8771	75.4032	996.9	522.85
790.0181	77.6634	1551.8	1073.95
790.1592	79.9231	2841.15	2356.5
790.3003	82.1824	5698.45	5202.35
790.4414	84.4412	10790.95	10271.9
790.5825	86.6995	17891.8	17341.4
790.7237	88.9574	24845.65	24272.2
790.8648	91.2148	29657.6	29064.4
791.006	93.4717	31999.8	31395.2
791.1472	95.7282	32552.85	31946.65
791.2885	97.9842	32588.6	31974.7
791.4297	100.2398	32088.7	31473.85
791.571	102.4949	31488.35	30868.85
791.7123	104.7495	30804.3	30184.5
791.8536	107.0036	30020.4	29396.15
791.9949	109.2573	29341.15	28722.9
792.1363	111.5105	28643	28019.7
792.2777	113.7632	27975.25	27350.95
792.4191	116.0154	27407	26773.05
792.5605	118.2672	27031.15	26397.05
792.7019	120.5185	26555.1	25924.85
792.8434	122.7693	26249	25611.15
792.9849	125.0197	25998.6	25361.25
793.1264	127.2696	25739.35	25096.9
793.2679	129.519	25651.4	25005.75
793.4094	131.7679	25494.6	24841.75
793.551	134.0163	25370.5	24719.85
793.6926	136.2642	25168.75	24514.05
793.8342	138.5117	24966.05	24306.95
793.9758	140.7587	24770.65	24109.85
794.1175	143.0052	24594.55	23931.8
794.2591	145.2512	24380.65	23718.15
794.4008	147.4967	24182.45	23517.55
794.5425	149.7417	24037.6	23368.65
794.6842	151.9863	23932.8	23259.7
794.826	154.2304	23914.7	23238.45
794.9677	156.4739	23762.5	23081.25
795.1095	158.717	23720.55	23041.15
795.2513	160.9596	23593.8	22905.35
795.3931	163.2017	23363.25	22673.5
795.535	165.4433	23095.95	22409.25
795.6768	167.6844	22749.85	22059.05
795.8187	169.925	22524.4	21831.1
795.9606	172.1651	22144.15	21450.25
796.1025	174.4047	21857.65	21161.85
796.2445	176.6439	21618.4	20918.2
796.3864	178.8825	21430.85	20723.65
796.5284	181.1206	21339.5	20632.65
796.6704	183.3582	21184.45	20471.3
796.8124	185.5954	21102.2	20387.9
796.9544	187.832	21027.2	20309.65
797.0965	190.0681	21036.85	20312.35
797.2386	192.3037	21045.85	20320.4
797.3806	194.5388	21070.05	20342.45
797.5228	196.7734	21150.45	20422.65
797.6649	199.0075	21235.55	20504
797.807	201.2411	21444.05	20713.4
797.9492	203.4742	21535.45	20804
798.0914	205.7068	21725.65	20983.8
798.2336	207.9389	21827.45	21084.05
798.3758	210.1704	22030.75	21295.25
798.518	212.4015	22169.05	21446.55
798.6603	214.632	22344.05	21625.6
798.8025	216.862	22560.6	21847.65
798.9448	219.0915	22726.2	22010.25
799.0871	221.3205	22966.75	22248.45
799.2294	223.549	23227.7	22516.15
799.3718	225.777	23543.2	22828.75
799.5141	228.0044	23936.4	23217.8
799.6565	230.2314	24403.05	23680.45
799.7989	232.4578	24746.55	24019.6
799.9413	234.6837	25124	24388.6
800.0837	236.909	25404.3	24663.75
800.2262	239.1339	25419.35	24656.6
800.3687	241.3582	25220.35	24472.15
800.5111	243.582	24924.85	24145.3
800.6536	245.8053	24622.85	23859.9
800.7961	248.0281	24343.05	23585.1
800.9387	250.2503	24120.75	23354.1
801.0812	252.472	23989.45	23222.05
801.2238	254.6932	24034.1	23272.6
801.3664	256.9139	23951.5	23186.25
801.509	259.134	23988.1	23217.45
801.6516	261.3536	24023.45	23253.6
801.7942	263.5727	24112.15	23343.4
801.9369	265.7912	24087.5	23316.7
802.0795	268.0092	24188.95	23415.9
802.2222	270.2267	24175.85	23405.9
802.3649	272.4436	24183.15	23410.15
802.5076	274.6601	24132.75	23352.45
802.6504	276.8759	24073.35	23299.35
802.7931	279.0913	24075.2	23298.3
802.9359	281.3061	24035.05	23250.3
803.0787	283.5204	24110	23323.4
803.2215	285.7341	24191.05	23402.7
803.3643	287.9473	24364.45	23567.5
803.5071	290.16	24637.5	23847.7
803.6499	292.3721	24887.7	24107.95
803.7928	294.5837	25353.6	24569.15
803.9357	296.7947	25712.25	24927.75
804.0786	299.0052	25927.65	25140.15
804.2215	301.2152	25778.2	24986.7
804.3644	303.4246	25496	24711.5
804.5074	305.6334	24968.1	24181.85
804.6503	307.8418	24497.9	23708
804.7933	310.0495	24137.6	23343.4
804.9363	312.2568	23851.5	23059.1
805.0793	314.4635	23622.8	22829.05
805.2223	316.6696	23548.05	22749.3
805.3653	318.8752	23496.15	22687.95
805.5084	321.0802	23539.6	22741.3
805.6514	323.2847	23694.75	22892.75
805.7945	325.4887	23716.85	22912.65
805.9376	327.692	23721.5	22918.2
806.0807	329.8949	23635.55	22829.3
806.2238	332.0972	23412.45	22610.15
806.367	334.2989	23137.25	22324.7
806.5101	336.5001	22878	22071.3
806.6533	338.7007	22705.8	21897.4
806.7965	340.9008	22659.7	21852.35
806.9397	343.1003	22510.6	21701.75
807.0829	345.2992	22514.3	21699.65
807.2261	347.4976	22481.1	21666.4
807.3693	349.6955	22502.75	21685.95
807.5126	351.8927	22596.95	21777.8
807.6559	354.0895	22594.05	21765.45
807.7991	356.2856	22658.4	21839.65
807.9424	358.4812	22655.6	21835.8
808.0857	360.6763	22741.65	21917.45
808.2291	362.8707	22715.75	21890.6
808.3724	365.0646	22753.8	21926.95
808.5158	367.258	22795.7	21968.1
808.6591	369.4508	22844.75	22009.75
808.8025	371.643	22959.5	22126.8
808.9459	373.8346	22910.3	22074.75
809.0893	376.0257	22923.3	22085.2
809.2327	378.2162	22864	22031.25
809.3762	380.4062	22831.2	21992.7
809.5196	382.5956	22651.95	21820.8
809.6631	384.7844	22609.8	21785.2
809.8066	386.9726	22473.15	21645.95
809.9501	389.1603	22455.9	21631.7
810.0936	391.3474	22460.35	21598.8
810.2371	393.5339	22432.1	21602.35
810.3806	395.7199	22405.8	21579.6
810.5241	397.9052	22429.85	21603.4
810.6677	400.09	22458.45	21632.6
810.8113	402.2743	22544.3	21718.8
810.9548	404.4579	22673.6	21843.9
811.0984	406.641	22874.95	22047.4
811.2421	408.8235	23102.2	22273.35
811.3857	411.0054	23396.2	22563.25
811.5293	413.1868	23857.25	23019.8
811.673	415.3675	24164.55	23320.9
811.8166	417.5477	24357.05	23517.6
811.9603	419.7273	24401.25	23557.5
812.104	421.9064	24310.8	23461.8
812.2477	424.0848	24169.2	23323.85
812.3914	426.2627	23947.35	23105.15
812.5351	428.4399	23708.9	22863
812.6788	430.6166	23376.55	22526.3
812.8226	432.7928	23001.1	22149.15
812.9663	434.9683	22730.2	21880.65
813.1101	437.1432	22548.55	21699.2
813.2539	439.3176	22349.7	21505.75
813.3977	441.4914	22255	21417.15
813.5415	443.6645	22234	21390.65
813.6853	445.8371	22197	21348.05
813.8291	448.0091	22102.25	21255.25
813.973	450.1806	22102.9	21253
814.1168	452.3514	22054.2	21206.2
814.2607	454.5216	22088.3	21226.45
814.4046	456.6913	22023.5	21174.3
814.5485	458.8603	22091.55	21244.25
814.6924	461.0288	22158.1	21314.35
814.8363	463.1967	22189.05	21345.5
814.9802	465.3639	22340.3	21493.15
815.1241	467.5306	22426.6	21574.55
815.2681	469.6967	22546.45	21701.75
815.412	471.8622	22704.8	21859.25
815.556	474.0271	22891.3	22046.7
815.7	476.1914	22961.3	22108.3
815.844	478.3551	22932.9	22082.1
815.988	480.5182	22941.45	22090.2
816.132	482.6807	22970.7	22124
816.276	484.8426	23102.8	22259.65
816.4201	487.0039	23443.7	22599.2
816.5641	489.1647	23845.6	22994.9
816.7082	491.3248	24293.85	23442.15
816.8522	493.4843	24454.55	23606.7
816.9963	495.6432	24490.9	23638.7
817.1404	497.8015	24351.8	23494.75
817.2845	499.9592	24392.3	23530.65
817.4286	502.1163	24366.2	23505.3
817.5727	504.2728	24130.15	23270.75
817.7168	506.4287	23852.45	23002.65
817.861	508.5839	23450.7	22602.15
818.0051	510.7386	23180.25	22324.45
818.1493	512.8927	23015.65	22154.05
818.2935	515.0461	22955.75	22096.4
818.4377	517.199	22908	22047.65
818.5818	519.3512	22977.05	22115.35
818.726	521.5029	23043.6	22176.6
818.8703	523.6539	23156.9	22293.2
819.0145	525.8043	23227.35	22364.75
819.1587	527.9541	23276.45	22409.75
819.303	530.1033	23231.6	22367.25
819.4472	532.2519	23273.35	22407.6
819.5915	534.3999	23380.95	22509.95
819.7357	536.5472	23648.95	22785
819.88	538.694	24077.65	23216.4
820.0243	540.8401	24730.45	23862.6
820.1686	542.9856	25210.95	24333.7
820.3129	545.1305	25335.2	24456.05
820.4572	547.2748	25297	24417.6
820.6016	549.4185	24907.1	24024.15
820.7459	551.5615	24618.55	23739.45
820.8902	553.704	24498.15	23618.6
821.0346	555.8458	24441.75	23564.15
821.1789	557.987	24516	23644.95
821.3233	560.1276	24496.2	23624.05
821.4677	562.2675	24581.6	23710.6
821.6121	564.4069	24655.05	23782.8
821.7565	566.5456	24720.15	23847.75
821.9009	568.6837	24664.7	23792.85
822.0453	570.8212	24338.4	23470.25
822.1897	572.958	24037.2	23164.7
822.3342	575.0942	23708.55	22838.6
822.4786	577.2299	23472.35	22604.9
822.6231	579.3648	23483.65	22624.8
822.7675	581.4992	23498.75	22642.5
822.912	583.6329	23712.9	22857.45
823.0565	585.766	23955.75	23092.95
823.201	587.8985	24117.4	23255.3
823.3454	590.0304	24125.8	23232.4
823.4899	592.1616	24070.95	23192.4
823.6345	594.2922	23940.5	23060.75
823.779	596.4222	23801.05	22922.75
823.9235	598.5515	23660.85	22781.05
824.068	600.6802	23514.35	22634.1
824.2126	602.8083	23304.4	22422.95
824.3571	604.9358	23269.75	22387.7
824.5017	607.0626	23228.3	22345.75
824.6462	609.1888	23232.7	22346.2
824.7908	611.3144	23225.55	22344.2
824.9354	613.4393	23148.55	22262.65
825.08	615.5636	23087.6	22203.85
825.2246	617.6873	23029.4	22150
825.3692	619.8103	22978.3	22095.4
825.5138	621.9327	22885	21998.4
825.6584	624.0544	22826.3	21947.35
825.803	626.1756	22837	21954.8
825.9477	628.2961	22815.85	21932.95
826.0923	630.4159	22734.95	21848.5
826.237	632.5351	22735.05	21851.8
826.3816	634.6537	22669.8	21781.4
826.5263	636.7716	22716	21826.85
826.6709	638.8889	22737.4	21846.8
826.8156	641.0056	22776.05	21883.8
826.9603	643.1216	22793.7	21903.5
827.105	645.237	22842	21954.25
827.2497	647.3518	22806.4	21919.95
827.3944	649.4659	22868.8	21987.9
827.5391	651.5793	22881.55	21999.65
827.6838	653.6922	22849.8	21965.1
827.8285	655.8043	22862.35	21978.7
827.9733	657.9159	22893.55	22007.4
828.118	660.0268	22826.6	21938.85
828.2627	662.137	22760.25	21873.3
828.4075	664.2466	22801.6	21908.45
828.5522	666.3556	22764.15	21874.05
828.697	668.4639	22774.05	21885.15
828.8418	670.5716	22884.6	21998.3
828.9865	672.6786	22954.3	22062.7
829.1313	674.785	23004.5	22110.6
829.2761	676.8907	23016.7	22126
829.4209	678.9958	23100.15	22212.65
829.5657	681.1002	23057.4	22168.2
829.7105	683.204	23029.9	22131.8
829.8553	685.3072	23010.4	22115.4
830.0001	687.4097	22959.2	22065.95
830.1449	689.5115	22984.05	22088.55
830.2898	691.6127	22934.2	22039.95
830.4346	693.7132	22889.9	21997.6
830.5794	695.8131	22909.8	22010.9
830.7243	697.9123	22919.15	22024.55
830.8691	700.0109	22902.8	22005.55
831.014	702.1089	22908.7	22011.7
831.1588	704.2061	22921.45	22030.35
831.3037	706.3028	22974.5	22074.7
831.4486	708.3987	23048.95	22153.35
831.5935	710.4941	23156.4	22259.2
831.7383	712.5887	23306.2	22409.2
831.8832	714.6827	23561.4	22659.8
832.0281	716.7761	23937.35	23044.55
832.173	718.8688	24318.8	23421.3
832.3179	720.9608	24510.3	23607.25
832.4628	723.0522	24581.6	23676.4
832.6077	725.1429	24373.25	23474.8
832.7527	727.233	24175.9	23275.6
832.8976	729.3224	23981.1	23081.15
833.0425	731.4112	23755.85	22856.8
833.1874	733.4993	23559.85	22660.25
833.3324	735.5867	23364.75	22468.95
833.4773	737.6735	23274.3	22372.35
833.6222	739.7596	23240.85	22340.5
833.7672	741.845	23168.7	22270
833.9122	743.9298	23164.4	22261.9
834.0571	746.014	23150.15	22253.05
834.2021	748.0974	23212	22304.95
834.347	750.1802	23150.2	22247.45
834.492	752.2624	23203.2	22300.85
834.637	754.3439	23231.95	22327.4
834.782	756.4247	23309.2	22397.7
834.9269	758.5048	23425.4	22525.1
835.0719	760.5843	23655.35	22752.35
835.2169	762.6631	23955.4	23047.75
835.3619	764.7413	24422.4	23513.7
835.5069	766.8188	25018.75	24113
835.6519	768.8956	25379.65	24473.1
835.7969	770.9718	25746.15	24843.45
835.9419	773.0473	25583.3	24679.15
836.0869	775.1221	25343.05	24439.85
836.232	777.1962	24943.75	24042.6
836.377	779.2697	24787.3	23880.85
836.522	781.3426	24864.35	23942.8
836.667	783.4147	25027.3	24120.3
836.8121	785.4862	25354.5	24446.7
836.9571	787.557	25399.5	24490.85
837.1021	789.6271	25056.35	24143.7
837.2472	791.6966	24494.7	23590.95
837.3922	793.7654	23974	23066.8
837.5373	795.8335	23720.55	22810.9
837.6823	797.901	23527.1	22621.4
837.8274	799.9678	23480.7	22569.15
837.9724	802.0339	23476.9	22569.45
838.1175	804.0993	23528.1	22609.8
838.2626	806.1641	23504.05	22596.85
838.4076	808.2282	23416.1	22507.1
838.5527	810.2916	23413.35	22503
838.6978	812.3544	23339.9	22433.85
838.8428	814.4164	23236	22326.25
838.9879	816.4778	23328.95	22419.4
839.133	818.5385	23281.4	22370.6
839.2781	820.5986	23380.65	22469.65
839.4232	822.658	23505.95	22593.8
839.5682	824.7166	23608.25	22697.85
839.7133	826.7747	23897.7	22987.05
839.8584	828.832	24128.05	23217.65
840.0035	830.8886	24251.25	23336.6
840.1486	832.9446	24400.65	23489.55
840.2937	834.9999	24446.55	23534.35
840.4388	837.0545	24432.75	23517.15
840.5839	839.1085	24423.5	23511
840.729	841.1618	24379.4	23460.65
840.8741	843.2143	24321.65	23411.55
841.0192	845.2662	24236.9	23326.9
841.1643	847.3175	24226.85	23316.1
841.3095	849.368	24094.5	23180.9
841.4546	851.4179	24012.3	23098.6
841.5997	853.467	23824.7	22910.8
841.7448	855.5155	23767	22853.35
841.8899	857.5633	23683.9	22772
842.0351	859.6105	23598	22685.55
842.1802	861.6569	23512.2	22597.8
842.3253	863.7027	23503.75	22589.9
842.4704	865.7478	23524.4	22611.35
842.6156	867.7922	23567.75	22654
842.7607	869.8359	23578.25	22660.55
842.9058	871.8789	23720.1	22804.5
843.0509	873.9212	23922.95	22972.9
843.1961	875.9629	23985.05	23070.1
843.3412	878.0039	24191.7	23276
843.4863	880.0441	24337.95	23424.2
843.6315	882.0837	24384.5	23470.35
843.7766	884.1226	24302.15	23386.75
843.9218	886.1609	24173.45	23259.8
844.0669	888.1984	24145.25	23232.35
844.212	890.2352	24220.5	23308.25
844.3572	892.2714	24176.85	23260.1
844.5023	894.3069	24170.55	23254.9
844.6475	896.3416	24108.45	23192.5
844.7926	898.3757	24079.05	23163.9
844.9377	900.4091	24083.4	23167.05
845.0829	902.4418	24067.55	23143.15
845.228	904.4739	24082.95	23162.9
845.3732	906.5052	24137.8	23219.6
845.5183	908.5358	24007.7	23090
845.6635	910.5658	23891.65	22968.05
845.8086	912.595	23742.8	22827.15
845.9538	914.6236	23577.5	22658.05
846.0989	916.6515	23558.5	22642.55
846.2441	918.6786	23514.65	22593.55
846.3892	920.7051	23604.6	22686.2
846.5344	922.7309	23747.7	22830.25
846.6795	924.756	23774.8	22858.05
846.8246	926.7804	23883.15	22963.2
846.9698	928.8041	23755.65	22835.1
847.1149	930.8272	23818.85	22899.1
847.2601	932.8495	23758.5	22836.95
847.4052	934.8711	23710.9	22790.2
847.5504	936.892	23588.4	22669.65
847.6955	938.9123	23432.4	22511.25
847.8407	940.9318	23338.5	22418.4
847.9858	942.9506	23279.05	22361.8
848.131	944.9688	23168.55	22252.55
848.2761	946.9862	23100.85	22183.1
848.4213	949.003	22960.75	22044.35
848.5664	951.019	22978.7	22054.3
848.7115	953.0344	23003.25	22084.15
848.8567	955.0491	23060.4	22139.25
849.0018	957.063	23144.85	22224.1
849.147	959.0763	23311.6	22395.45
849.2921	961.0888	23307.75	22386.3
849.4373	963.1007	23424.85	22509.25
849.5824	965.1119	23461.75	22549.85
849.7275	967.1223	23486.6	22579.2
849.8727	969.1321	23516.65	22609
850.0178	971.1412	23588.5	22676.15
850.1629	973.1495	23572.35	22657.75
850.3081	975.1572	23617.05	22646.05
850.4532	977.1641	23675.55	22757.15
850.5983	979.1704	23626.8	22705.6
850.7435	981.1759	23633.65	22707.05
850.8886	983.1808	23732.9	22812.15
851.0337	985.1849	23775.85	22843.9
851.1788	987.1884	23946.2	23025.05
851.324	989.1911	24050.45	23132.15
851.4691	991.1932	24221.15	23299.45
851.6142	993.1945	24253.2	23335.65
851.7593	995.1951	24137.55	23218.4
851.9045	997.1951	24134.85	23209.95
852.0496	999.1943	24015	23095.4
852.1947	1001.1928	23970.2	23047.95
852.3398	1003.1906	23940.3	23019.45
852.4849	1005.1877	24060.45	23140.9
852.63	1007.1841	23985.6	23065.2
852.7751	1009.1798	23886.45	22969.1
852.9202	1011.1748	23708.8	22789.5
853.0653	1013.1691	23548.8	22629.45
853.2104	1015.1627	23290.45	22372.55
853.3555	1017.1556	23028.95	22109.8
853.5006	1019.1477	22972.6	22054.95
853.6457	1021.1392	22803.25	21888.35
853.7908	1023.1299	22795.2	21883.7
853.9359	1025.12	22815.3	21906.1
854.081	1027.1093	22847.4	21946.2
854.2261	1029.0979	22926.3	22027.15
854.3712	1031.0859	22977.35	22075.8
854.5163	1033.0731	22989.45	22079.7
854.6613	1035.0596	22912.1	21998.9
854.8064	1037.0454	22727.45	21811.05
854.9515	1039.0304	22616.45	21697.8
855.0965	1041.0148	22468.85	21551.25
855.2416	1042.9985	22372.25	21451.75
855.3867	1044.9814	22394.65	21476.25
855.5317	1046.9636	22309.2	21388.7
855.6768	1048.9452	22281.85	21363.4
855.8219	1050.926	22293.2	21375.3
855.9669	1052.9061	22287.8	21370.45
856.112	1054.8855	22284	21363.2
856.257	1056.8642	22305.1	21386.35
856.4021	1058.8421	22361.8	21436.65
856.5471	1060.8194	22407.75	21486.05
856.6921	1062.7959	22398.95	21480.3
856.8372	1064.7717	22454.95	21534.5
856.9822	1066.7469	22476.2	21553.5
857.1272	1068.7213	22467.55	21544.4
857.2723	1070.695	22483.15	21563.85
857.4173	1072.6679	22353.25	21435.25
857.5623	1074.6402	22350.85	21431.95
857.7073	1076.6117	22406	21481.6
857.8523	1078.5826	22364.95	21443.6
857.9973	1080.5527	22353.05	21433.1
858.1423	1082.5221	22409.6	21491.55
858.2873	1084.4908	22590.4	21671.3
858.4323	1086.4587	22751.8	21829.6
858.5773	1088.426	22894.55	21972.05
858.7223	1090.3925	22824.45	21902.6
858.8673	1092.3584	22800.05	21878.9
859.0123	1094.3235	22688.05	21773.95
859.1573	1096.2879	22649.2	21730.65
859.3022	1098.2515	22632.15	21712.65
859.4472	1100.2145	22733.65	21813
859.5922	1102.1767	22762.9	21837.75
859.7371	1104.1382	22934.8	22015.15
859.8821	1106.099	23130.55	22208.15
860.027	1108.0591	23361	22444.1
860.172	1110.0185	23448.7	22527.35
860.3169	1111.9771	23484.3	22564.85
860.4619	1113.9351	23263.8	22342.65
860.6068	1115.8923	22944.5	22025.55
860.7517	1117.8488	22693.7	21772.75
860.8967	1119.8045	22362.15	21444.8
861.0416	1121.7596	22323.6	21404.15
861.1865	1123.7139	22238.65	21322.6
861.3314	1125.6675	22238.6	21320.55
861.4763	1127.6204	22308.1	21388.4
861.6212	1129.5726	22290.6	21371.3
861.7661	1131.524	22276.15	21354.5
861.911	1133.4748	22251.35	21332
862.0559	1135.4248	22164.2	21244.85
862.2008	1137.3741	22159	21238.3
862.3457	1139.3226	22116.25	21196.75
862.4905	1141.2705	22101.25	21178.6
862.6354	1143.2176	21958.4	21031.25
862.7803	1145.164	21979.2	21057
862.9251	1147.1097	21965.55	21044.35
863.07	1149.0546	21997.4	21077.45
863.2148	1150.9989	21890.75	20966.75
863.3597	1152.9424	21799.95	20877.75
863.5045	1154.8852	21621.3	20703.65
863.6493	1156.8272	21490.3	20570.75
863.7942	1158.7686	21492.3	20566.65
863.939	1160.7092	21445.6	20524.25
864.0838	1162.6491	21390.85	20470
864.2286	1164.5883	21515.1	20600.05
864.3734	1166.5267	21555.45	20635.3
864.5182	1168.4644	21716.05	20795.9
864.663	1170.4014	21891.6	20969
864.8078	1172.3377	22162.85	21246.35
864.9526	1174.2732	22406.6	21489.05
865.0974	1176.2081	22637.75	21718.65
865.2421	1178.1421	22886.55	21965.9
865.3869	1180.0755	23116.5	22200.1
865.5317	1182.0082	23180.7	22263.35
