Software Version:	3.9.2.0
Unit SN:	10000200
Spectrometer SN:	6960
Date:	3/8/2024 11:08:36 AM
Data Line Index:	25
Spectral Points:	2048
Integration time (ms):	125
Averages:	20
Delay (ms):	30000
Sequence Number:	1
Processing:	dark subtract
Laser Power (mW):	305
Laser Current (mA):	818
Laser Diode Temp (C):	25.1
Laser Case Temp (C):	24.3
System Temp (C):	24.2
Spectrometer Temp (C):	22.3
CCD Temp (C):	0.01
Secondary Temp (C):	20.008
Heatsink Temp (C):	19
CCDPCB Temp (C):	32.628
SecondaryPCB Temp (C):	25.991

Wavelength	RamanShift	Raw Counts	Dark Subtracted
787.061	30.1047	435.6	24.25
787.2016	32.3739	436.7	26.25
787.3422	34.6426	438.2	28.45
787.4828	36.9109	441.6	29.65
787.6235	39.1787	446.8	32.35
787.7642	41.4461	452.3	33.35
787.9049	43.7131	460.5	38.5
788.0456	45.9796	463.95	37.45
788.1863	48.2456	468.4	37.65
788.3271	50.5112	478	42.3
788.4679	52.7764	481.4	42.95
788.6087	55.0411	491.75	50.8
788.7496	57.3054	500.05	53.85
788.8904	59.5692	505.1	58
789.0313	61.8326	509.65	61.55
789.1722	64.0955	518.8	67.1
789.3132	66.3579	532.6	74.9
789.4541	68.6199	542.95	79.25
789.5951	70.8815	566.45	99.25
789.7361	73.1426	612.4	141.85
789.8771	75.4032	724.4	252.6
790.0181	77.6634	1002.25	527.4
790.1592	79.9231	1651.3	1173
790.3003	82.1824	2972.4	2492.6
790.4414	84.4412	5224.45	4737.8
790.5825	86.6995	8162.95	7671.35
790.7237	88.9574	10940.4	10443
790.8648	91.2148	12868.35	12366.35
791.006	93.4717	13761.6	13255.45
791.1472	95.7282	14005.8	13498.4
791.2885	97.9842	13998.6	13490.2
791.4297	100.2398	13842.9	13333.3
791.571	102.4949	13663.95	13151.2
791.7123	104.7495	13523.9	13009
791.8536	107.0036	13313.7	12795.75
791.9949	109.2573	13125.35	12607.2
792.1363	111.5105	12912.45	12392.95
792.2777	113.7632	12615.2	12095.45
792.4191	116.0154	12277.25	11743.1
792.5605	118.2672	11926.05	11400.95
792.7019	120.5185	11514.95	10987.4
792.8434	122.7693	11142.35	10608.95
792.9849	125.0197	10816	10279.7
793.1264	127.2696	10511.75	9971.8
793.2679	129.519	10320.1	9777.25
793.4094	131.7679	10186.45	9643.65
793.551	134.0163	10104.85	9558.75
793.6926	136.2642	10055.5	9504.05
793.8342	138.5117	10025.1	9471.85
793.9758	140.7587	9980.45	9425.7
794.1175	143.0052	9847.1	9291.35
794.2591	145.2512	9681.65	9124.25
794.4008	147.4967	9466.9	8905.35
794.5425	149.7417	9277.2	8714
794.6842	151.9863	9111.9	8543.95
794.826	154.2304	9035.55	8466.5
794.9677	156.4739	8993.6	8417.35
795.1095	158.717	9036.95	8461
795.2513	160.9596	9111.05	8529.75
795.3931	163.2017	9254.55	8671.35
795.535	165.4433	9343.45	8759.15
795.6768	167.6844	9364.15	8775.8
795.8187	169.925	9270.25	8679.8
795.9606	172.1651	9092	8496.15
796.1025	174.4047	8908	8308.15
796.2445	176.6439	8730.15	8130.75
796.3864	178.8825	8599.75	7997.25
796.5284	181.1206	8521.7	7916
796.6704	183.3582	8477.5	7865.6
796.8124	185.5954	8442.75	7830
796.9544	187.832	8421.5	7805.85
797.0965	190.0681	8440.75	7822.55
797.2386	192.3037	8454.85	7833.8
797.3806	194.5388	8458.85	7834.15
797.5228	196.7734	8510.95	7885.1
797.6649	199.0075	8538.85	7912.7
797.807	201.2411	8623.8	7996.45
797.9492	203.4742	8693.75	8061.25
798.0914	205.7068	8811.15	8174.75
798.2336	207.9389	8878.05	8241.35
798.3758	210.1704	8960.95	8333.25
798.518	212.4015	8985.6	8369.3
798.6603	214.632	8982.95	8368.8
798.8025	216.862	9008.25	8395.85
798.9448	219.0915	9034.75	8420.95
799.0871	221.3205	9100.75	8482.9
799.2294	223.549	9152.05	8541.1
799.3718	225.777	9158.75	8542.5
799.5141	228.0044	9160	8535.9
799.6565	230.2314	9125.95	8499.6
799.7989	232.4578	9088.25	8459.05
799.9413	234.6837	9041.05	8403.8
800.0837	236.909	8991	8352.1
800.2262	239.1339	8905.5	8240.9
800.3687	241.3582	8902.85	8253.65
800.5111	243.582	8888.1	8208.5
800.6536	245.8053	8911.2	8245.65
800.7961	248.0281	8928.2	8266.75
800.9387	250.2503	8946.75	8282.6
801.0812	252.472	8957.25	8293.8
801.2238	254.6932	8990.95	8325.7
801.3664	256.9139	8974.4	8306.9
801.509	259.134	9017.35	8346.85
801.6516	261.3536	9087	8417.8
801.7942	263.5727	9211.2	8542.5
801.9369	265.7912	9348.75	8676.35
802.0795	268.0092	9615.95	8946.7
802.2222	270.2267	9870.7	9198.65
802.3649	272.4436	10034.75	9359.4
802.5076	274.6601	10205.6	9521.75
802.6504	276.8759	10273.7	9593
802.7931	279.0913	10377.3	9695.85
802.9359	281.3061	10430.55	9748.1
803.0787	283.5204	10537.2	9854.75
803.2215	285.7341	10648	9961.2
803.3643	287.9473	10754.85	10066.25
803.5071	290.16	10734.45	10043.7
803.6499	292.3721	10575.35	9889.1
803.7928	294.5837	10345.65	9659.85
803.9357	296.7947	10195.25	9507.85
804.0786	299.0052	10118.7	9430.3
804.2215	301.2152	10030.2	9338.25
804.3644	303.4246	10004.15	9315.75
804.5074	305.6334	9974.7	9285.55
804.6503	307.8418	9943.1	9249.25
804.7933	310.0495	9873.2	9177.3
804.9363	312.2568	9756.55	9061.7
805.0793	314.4635	9600.5	8902.1
805.2223	316.6696	9379	8678.1
805.3653	318.8752	9192.5	8484.9
805.5084	321.0802	9038	8335.65
805.6514	323.2847	9004	8298.8
805.7945	325.4887	8983.6	8278.6
805.9376	327.692	9042.1	8335
806.0807	329.8949	9212.95	8506.5
806.2238	332.0972	9380.45	8670.55
806.367	334.2989	9590.7	8879.7
806.5101	336.5001	9615.05	8902.55
806.6533	338.7007	9524.3	8812.9
806.7965	340.9008	9371.05	8657.75
806.9397	343.1003	9093.15	8377.75
807.0829	345.2992	8838.85	8121.4
807.2261	347.4976	8665.35	7945.8
807.3693	349.6955	8506.3	7784.15
807.5126	351.8927	8407.7	7684.65
807.6559	354.0895	8335.95	7600.35
807.7991	356.2856	8296.5	7570.8
807.9424	358.4812	8255.3	7529.5
808.0857	360.6763	8241.8	7513.45
808.2291	362.8707	8178.7	7448.7
808.3724	365.0646	8175.25	7441.2
808.5158	367.258	8206.7	7472.05
808.6591	369.4508	8250.25	7509.5
808.8025	371.643	8374.5	7638.7
808.9459	373.8346	8469.85	7731.1
809.0893	376.0257	8622.5	7880.65
809.2327	378.2162	8726.85	7986.9
809.3762	380.4062	8824.05	8082.15
809.5196	382.5956	8737.5	7996.95
809.6631	384.7844	8591.7	7855.75
809.8066	386.9726	8404.8	7668.75
809.9501	389.1603	8248.2	7514.1
810.0936	391.3474	8171.95	7396.95
810.2371	393.5339	8147.4	7409.9
810.3806	395.7199	8130.6	7397.35
810.5241	397.9052	8250.7	7516
810.6677	400.09	8410.95	7673.3
810.8113	402.2743	8588.7	7849.8
810.9548	404.4579	8751.75	8012.55
811.0984	406.641	8883.45	8141.1
811.2421	408.8235	9065.1	8320.25
811.3857	411.0054	9183.4	8436
811.5293	413.1868	9306.5	8557.35
811.673	415.3675	9326.7	8574.95
811.8166	417.5477	9295.55	8541.8
811.9603	419.7273	9195.1	8438.4
812.104	421.9064	9047.85	8284.4
812.2477	424.0848	8836.65	8078.8
812.3914	426.2627	8593.5	7833.1
812.5351	428.4399	8343.1	7583.15
812.6788	430.6166	8122.4	7358.4
812.8226	432.7928	7917.9	7153.95
812.9663	434.9683	7766.95	7001.2
813.1101	437.1432	7684.2	6915.8
813.2539	439.3176	7578.4	6814.4
813.3977	441.4914	7522.5	6759.15
813.5415	443.6645	7495.25	6728.15
813.6853	445.8371	7461.4	6695.75
813.8291	448.0091	7448.4	6682.35
813.973	450.1806	7427.35	6661.55
814.1168	452.3514	7401.3	6631.65
814.2607	454.5216	7438.65	6658
814.4046	456.6913	7416.85	6645.7
814.5485	458.8603	7456.5	6685.2
814.6924	461.0288	7475.2	6706.05
814.8363	463.1967	7447.4	6676.6
814.9802	465.3639	7458.8	6686.7
815.1241	467.5306	7396.95	6623
815.2681	469.6967	7389.45	6617.5
815.412	471.8622	7343.85	6570.5
815.556	474.0271	7327.15	6554.2
815.7	476.1914	7313.3	6537.75
815.844	478.3551	7271.25	6495.65
815.988	480.5182	7275.1	6499
816.132	482.6807	7298.35	6520.3
816.276	484.8426	7353.45	6577.9
816.4201	487.0039	7523.9	6745.4
816.5641	489.1647	7737.8	6959.55
816.7082	491.3248	7941.85	7164.6
816.8522	493.4843	7992.6	7213.75
816.9963	495.6432	7954.15	7176.15
817.1404	497.8015	7849.95	7066.05
817.2845	499.9592	7658.6	6875.8
817.4286	502.1163	7436.35	6653.95
817.5727	504.2728	7229.55	6446.15
817.7168	506.4287	7167.35	6384.9
817.861	508.5839	7068.05	6282.8
818.0051	510.7386	7037.3	6254.9
818.1493	512.8927	7029.65	6235.85
818.2935	515.0461	7054.55	6266
818.4377	517.199	7100.6	6314.45
818.5818	519.3512	7255.05	6469.85
818.726	521.5029	7549.7	6756
818.8703	523.6539	7815.65	7025.25
819.0145	525.8043	7888.3	7094.5
819.1587	527.9541	7697	6903.35
819.303	530.1033	7381.15	6589.85
819.4472	532.2519	7159.7	6366
819.5915	534.3999	7026.85	6231.4
819.7357	536.5472	6973.65	6178.85
819.88	538.694	6971.1	6175.4
820.0243	540.8401	7025.8	6230.45
820.1686	542.9856	7100	6300
820.3129	545.1305	7149.65	6350.75
820.4572	547.2748	7214.85	6415.55
820.6016	549.4185	7225.9	6425.05
820.7459	551.5615	7225.55	6426.65
820.8902	553.704	7275.7	6476.85
821.0346	555.8458	7365.95	6568.95
821.1789	557.987	7453.7	6656.5
821.3233	560.1276	7570.45	6768.55
821.4677	562.2675	7831.7	7034.4
821.6121	564.4069	8196.7	7399.2
821.7565	566.5456	8393.6	7597.15
821.9009	568.6837	8333.1	7533.75
822.0453	570.8212	7933.2	7135.45
822.1897	572.958	7514.9	6716.75
822.3342	575.0942	7212.35	6412.9
822.4786	577.2299	7058.65	6259.15
822.6231	579.3648	6938	6140
822.7675	581.4992	6896.7	6098
822.912	583.6329	6937.85	6138.15
823.0565	585.766	7054.5	6253.9
823.201	587.8985	7216.25	6415.45
823.3454	590.0304	7415.75	6597.85
823.4899	592.1616	7622.8	6815.55
823.6345	594.2922	7682.2	6875
823.779	596.4222	7555.35	6749.1
823.9235	598.5515	7295.8	6488.1
824.068	600.6802	7025.7	6216.2
824.2126	602.8083	6823.7	6015.55
824.3571	604.9358	6732.15	5921.85
824.5017	607.0626	6693.9	5883.65
824.6462	609.1888	6707.6	5898.05
824.7908	611.3144	6797.55	5985.65
824.9354	613.4393	6933.8	6125.7
825.08	615.5636	7165.35	6354.2
825.2246	617.6873	7395.7	6586.3
825.3692	619.8103	7554.45	6742.45
825.5138	621.9327	7588.6	6772.05
825.6584	624.0544	7467.25	6654.45
825.803	626.1756	7194.85	6381.35
825.9477	628.2961	6933	6118.9
826.0923	630.4159	6780.35	5966.4
826.237	632.5351	6745.45	5931.7
826.3816	634.6537	6722.95	5908.1
826.5263	636.7716	6674.65	5857
826.6709	638.8889	6653.6	5837.25
826.8156	641.0056	6690.8	5874.8
826.9603	643.1216	6754	5937.25
827.105	645.237	6803.15	5983.85
827.2497	647.3518	6714.05	5895.35
827.3944	649.4659	6583.95	5766.4
827.5391	651.5793	6481.8	5663.7
827.6838	653.6922	6404.7	5589
827.8285	655.8043	6334.9	5519.25
827.9733	657.9159	6299.75	5479.25
828.118	660.0268	6254.2	5431.95
828.2627	662.137	6245.5	5427.3
828.4075	664.2466	6226.05	5404.3
828.5522	666.3556	6240.8	5419.85
828.697	668.4639	6205.1	5380.3
828.8418	670.5716	6186	5363.95
828.9865	672.6786	6166.1	5341.2
829.1313	674.785	6103.45	5278.05
829.2761	676.8907	6063.95	5239.4
829.4209	678.9958	6071.85	5249.95
829.5657	681.1002	6077.15	5252.65
829.7105	683.204	6074.45	5246.7
829.8553	685.3072	6080.75	5255.3
830.0001	687.4097	6053.85	5228.45
830.1449	689.5115	6059.4	5231
830.2898	691.6127	6045.25	5220.65
830.4346	693.7132	6042.35	5215.95
830.5794	695.8131	6031	5192.65
830.7243	697.9123	6038.65	5210.6
830.8691	700.0109	6053.1	5224.8
831.014	702.1089	6090.9	5266.6
831.1588	704.2061	6130.5	5303.15
831.3037	706.3028	6240.65	5410.3
831.4486	708.3987	6348	5518.3
831.5935	710.4941	6420.1	5591.4
831.7383	712.5887	6449.65	5618.75
831.8832	714.6827	6420.25	5584.55
832.0281	716.7761	6384.6	5555.15
832.173	718.8688	6345.85	5515.05
832.3179	720.9608	6321.3	5485.15
832.4628	723.0522	6356.4	5522.5
832.6077	725.1429	6406.95	5574.85
832.7527	727.233	6547.45	5716.05
832.8976	729.3224	6779.8	5947.95
833.0425	731.4112	7056.25	6221.65
833.1874	733.4993	7162.05	6326.05
833.3324	735.5867	6987.65	6152.9
833.4773	737.6735	6659.9	5824.3
833.6222	739.7596	6368.6	5533.85
833.7672	741.845	6187.3	5353.8
833.9122	743.9298	6089	5251.95
834.0571	746.014	6048.45	5214.45
834.2021	748.0974	6050.05	5213.15
834.347	750.1802	6051.25	5213.3
834.492	752.2624	6045.95	5210.75
834.637	754.3439	6026.85	5189.4
834.782	756.4247	6044.3	5196.9
834.9269	758.5048	6072.8	5236.2
835.0719	760.5843	6156	5318.7
835.2169	762.6631	6304.45	5466.15
835.3619	764.7413	6535.4	5698.3
835.5069	766.8188	6893.05	6053.35
835.6519	768.8956	7245.85	6403.55
835.7969	770.9718	7513.35	6676.15
835.9419	773.0473	7504.35	6666.25
836.0869	775.1221	7327.05	6486.75
836.232	777.1962	7235.3	6394.65
836.377	779.2697	7460.1	6619.75
836.522	781.3426	7941.45	7085.3
836.667	783.4147	8300.35	7459.7
836.8121	785.4862	8356.85	7518.5
836.9571	787.557	8004.05	7165.3
837.1021	789.6271	7461.25	6620.35
837.2472	791.6966	6861.05	6020.15
837.3922	793.7654	6409.8	5569.35
837.5373	795.8335	6128.6	5287.95
837.6823	797.901	5968.35	5128.4
837.8274	799.9678	5885.55	5040.95
837.9724	802.0339	5881.2	5041.3
838.1175	804.0993	5907.45	5055.9
838.2626	806.1641	5901.65	5057.4
838.4076	808.2282	5847.75	5006.5
838.5527	810.2916	5784.6	4938.7
838.6978	812.3544	5712.35	4869.75
838.8428	814.4164	5644.8	4803.75
838.9879	816.4778	5676.85	4833.2
839.133	818.5385	5729.75	4888.45
839.2781	820.5986	5859.25	5014.6
839.4232	822.658	6071.15	5224.05
839.5682	824.7166	6341.65	5497.35
839.7133	826.7747	6709.85	5865.75
839.8584	828.832	7041.75	6198.85
840.0035	830.8886	7286	6441.25
840.1486	832.9446	7442.75	6596.6
840.2937	834.9999	7371.65	6528.85
840.4388	837.0545	7114.15	6263.2
840.5839	839.1085	6700.7	5854.65
840.729	841.1618	6358.35	5507.3
840.8741	843.2143	6110.25	5264.6
841.0192	845.2662	5942.25	5097.05
841.1643	847.3175	5849.3	5004.15
841.3095	849.368	5789.05	4941.05
841.4546	851.4179	5789.3	4943.1
841.5997	853.467	5776.35	4928.8
841.7448	855.5155	5800.9	4952.9
841.8899	857.5633	5802.7	4955.25
842.0351	859.6105	5793.8	4945.85
842.1802	861.6569	5759.8	4911.2
842.3253	863.7027	5677.95	4827.85
842.4704	865.7478	5621.05	4772.45
842.6156	867.7922	5549.55	4700.5
842.7607	869.8359	5516.85	4667.6
842.9058	871.8789	5504.9	4655.4
843.0509	873.9212	5515.9	4631.95
843.1961	875.9629	5509.7	4660.55
843.3412	878.0039	5542.7	4690.75
843.4863	880.0441	5594.15	4744.1
843.6315	882.0837	5687.35	4837.55
843.7766	884.1226	5779.05	4926.9
843.9218	886.1609	5909.55	5062.1
844.0669	888.1984	6146.85	5298.55
844.212	890.2352	6383.1	5533.05
844.3572	892.2714	6434.45	5579.6
844.5023	894.3069	6356.6	5503.45
844.6475	896.3416	6121.55	5267
844.7926	898.3757	5906.25	5054.5
844.9377	900.4091	5780.4	4927.8
845.0829	902.4418	5785.95	4926.95
845.228	904.4739	5867.3	5013.6
845.3732	906.5052	5975.65	5124.35
845.5183	908.5358	6012.25	5160.85
845.6635	910.5658	5934.5	5080.35
845.8086	912.595	5775.5	4923.25
845.9538	914.6236	5599.85	4747
846.0989	916.6515	5487.85	4635
846.2441	918.6786	5393.9	4539.8
846.3892	920.7051	5335.7	4480.25
846.5344	922.7309	5320.75	4466.5
846.6795	924.756	5318.8	4463.6
846.8246	926.7804	5381.65	4525.2
846.9698	928.8041	5395.65	4539.7
847.1149	930.8272	5479.95	4625.2
847.2601	932.8495	5534.15	4678.1
847.4052	934.8711	5558.5	4703.45
847.5504	936.892	5589.35	4733.8
847.6955	938.9123	5660.35	4805.35
847.8407	940.9318	5793.2	4938.25
847.9858	942.9506	5868.95	5012.55
848.131	944.9688	5862.5	5007
848.2761	946.9862	5757.05	4903.1
848.4213	949.003	5607.05	4748.75
848.5664	951.019	5490.05	4633.7
848.7115	953.0344	5397.85	4542.5
848.8567	955.0491	5344.8	4486.75
849.0018	957.063	5270.8	4413.9
849.147	959.0763	5279.1	4423.7
849.2921	961.0888	5268.9	4411.55
849.4373	963.1007	5283.1	4424.3
849.5824	965.1119	5238	4381
849.7275	967.1223	5188.45	4331.6
849.8727	969.1321	5141.95	4285.65
850.0178	971.1412	5137.2	4281.2
850.1629	973.1495	5105.7	4247.7
850.3081	975.1572	5142.35	4246
850.4532	977.1641	5149.55	4293.1
850.5983	979.1704	5144.55	4284.15
850.7435	981.1759	5132.45	4271.65
850.8886	983.1808	5099.75	4240.3
851.0337	985.1849	5081	4211.55
851.1788	987.1884	5052.35	4190.9
851.324	989.1911	5053.35	4191.05
851.4691	991.1932	5083.25	4223.5
851.6142	993.1945	5111.85	4253.55
851.7593	995.1951	5110.95	4250.65
851.9045	997.1951	5097.3	4231.2
852.0496	999.1943	5056.9	4197.05
852.1947	1001.1928	5064.1	4202.85
852.3398	1003.1906	5102.95	4242.65
852.4849	1005.1877	5210.85	4349.05
852.63	1007.1841	5323.55	4464.8
852.7751	1009.1798	5413.2	4554.55
852.9202	1011.1748	5379.5	4518.7
853.0653	1013.1691	5276.5	4415.05
853.2104	1015.1627	5136.9	4274.8
853.3555	1017.1556	4996.35	4136.05
853.5006	1019.1477	4905.95	4043.9
853.6457	1021.1392	4825.15	3966.85
853.7908	1023.1299	4794.55	3934.3
853.9359	1025.12	4794.9	3929.6
854.081	1027.1093	4817.75	3958
854.2261	1029.0979	4897.25	4039.15
854.3712	1031.0859	4985.3	4126.45
854.5163	1033.0731	5044	4182.1
854.6613	1035.0596	5074.15	4211.1
854.8064	1037.0454	5051.65	4191.7
854.9515	1039.0304	4997.95	4134.55
855.0965	1041.0148	4913.15	4050.45
855.2416	1042.9985	4801.45	3937.5
855.3867	1044.9814	4749.8	3889.1
855.5317	1046.9636	4720.15	3854.9
855.6768	1048.9452	4719.8	3859.3
855.8219	1050.926	4796.55	3934.75
855.9669	1052.9061	4870.35	4008.9
856.112	1054.8855	4910	4046.7
856.257	1056.8642	4918.3	4056.15
856.4021	1058.8421	4903.5	4037.8
856.5471	1060.8194	4890.35	4022.75
856.6921	1062.7959	4890.25	4026.4
856.8372	1064.7717	4871.45	4005.8
856.9822	1066.7469	4863.55	3997.75
857.1272	1068.7213	4892.15	4028.25
857.2723	1070.695	4917.15	4054.75
857.4173	1072.6679	5013.15	4150.15
857.5623	1074.6402	5143.45	4279.3
857.7073	1076.6117	5210.8	4341.55
857.8523	1078.5826	5170.1	4303.35
857.9973	1080.5527	4989.95	4122.6
858.1423	1082.5221	4831.9	3966.85
858.2873	1084.4908	4718.9	3853.45
858.4323	1086.4587	4616.8	3749.3
858.5773	1088.426	4568.6	3704
858.7223	1090.3925	4562.1	3690.75
858.8673	1092.3584	4584	3720.65
859.0123	1094.3235	4606.9	3742.75
859.1573	1096.2879	4690.5	3824.45
859.3022	1098.2515	4770.45	3903.7
859.4472	1100.2145	4877.8	4011.8
859.5922	1102.1767	5003.5	4137.7
859.7371	1104.1382	5188.95	4322.2
859.8821	1106.099	5427.2	4562.1
860.027	1108.0591	5667.95	4801.75
860.172	1110.0185	5849	4980.3
860.3169	1111.9771	6006.25	5140.4
860.4619	1113.9351	6196.6	5330.3
860.6068	1115.8923	6512.8	5646.2
860.7517	1117.8488	6733.55	5866.75
860.8967	1119.8045	6633.35	5767.65
861.0416	1121.7596	6223.6	5357
861.1865	1123.7139	5712.05	4846.6
861.3314	1125.6675	5394.25	4528.55
861.4763	1127.6204	5354.85	4487.8
861.6212	1129.5726	5430.25	4561.7
861.7661	1131.524	5464.2	4598.2
861.911	1133.4748	5317.6	4452.15
862.0559	1135.4248	5057.8	4189.4
862.2008	1137.3741	4826.35	3960.75
862.3457	1139.3226	4670.3	3802.3
862.4905	1141.2705	4664.8	3799.45
862.6354	1143.2176	4669.5	3797.35
862.7803	1145.164	4733.85	3866.85
862.9251	1147.1097	4783.9	3916.75
863.07	1149.0546	4698.3	3830.7
863.2148	1150.9989	4580.45	3711.65
863.3597	1152.9424	4492.8	3625.4
863.5045	1154.8852	4420.65	3552
863.6493	1156.8272	4377.05	3510.6
863.7942	1158.7686	4366.65	3490.95
863.939	1160.7092	4349.5	3482.05
864.0838	1162.6491	4377.3	3508.05
864.2286	1164.5883	4413.6	3546.05
864.3734	1166.5267	4483.7	3615.95
864.5182	1168.4644	4567	3697.75
864.663	1170.4014	4688.55	3819.1
864.8078	1172.3377	4860.95	3994.05
864.9526	1174.2732	5049.55	4182.15
865.0974	1176.2081	5387.8	4520.7
865.2421	1178.1421	5900.3	5029.9
865.3869	1180.0755	6491.25	5621.95
865.5317	1182.0082	6920.35	6053.3
865.6764	1183.9401	6982.25	6113.6
865.8212	1185.8713	6640.35	5772.25
865.9659	1187.8017	6067.45	5199.2
866.1106	1189.7315	5542.7	4675.7
866.2554	1191.6605	5152	4256.9
866.4001	1193.5888	4897.1	4029.85
866.5448	1195.5163	4729.15	3861.25
866.6895	1197.4432	4635.25	3765.9
866.8342	1199.3693	4537.3	3668.05
866.9789	1201.2947	4475.25	3599.8
867.1236	1203.2193	4410.75	3542.7
867.2683	1205.1432	4402.9	3531.7
867.413	1207.0664	4376.8	3508
867.5576	1208.9889	4375.1	3502.8
867.7023	1210.9106	4385.7	3517.05
867.847	1212.8316	4386.9	3519.15
867.9916	1214.7519	4430.2	3551.85
868.1363	1216.6715	4493.4	3624.15
868.2809	1218.5903	4519.25	3647
868.4255	1220.5084	4583.95	3713.6
868.5701	1222.4257	4645.9	3775.85
868.7148	1224.3424	4691	3823.3
868.8594	1226.2583	4762.5	3887.9
869.004	1228.1735	4868.2	3999.7
869.1486	1230.0879	5014.95	4144.85
869.2932	1232.0016	5188.1	4317.95
869.4377	1233.9146	5351.85	4479.9
869.5823	1235.8269	5416	4545.65
869.7269	1237.7384	5449.55	4577.95
869.8715	1239.6492	5393.25	4523.4
