Software Version:	3.9.2.0
Unit SN:	10000200
Spectrometer SN:	6960
Date:	3/8/2024 1:37:32 PM
Data Line Index:	25
Spectral Points:	2048
Integration time (ms):	125
Averages:	20
Delay (ms):	30000
Sequence Number:	1
Processing:	dark subtract
Laser Power (mW):	300
Laser Current (mA):	823
Laser Diode Temp (C):	25.1
Laser Case Temp (C):	26.3
System Temp (C):	26.2
Spectrometer Temp (C):	24.1
CCD Temp (C):	0.013
Secondary Temp (C):	20.01
Heatsink Temp (C):	20.4
CCDPCB Temp (C):	35.94
SecondaryPCB Temp (C):	29.571

Wavelength	RamanShift	Raw Counts	Dark Subtracted
787.061	30.1047	457.85	50.6
787.2016	32.3739	456.75	51.95
787.3422	34.6426	467.1	60.3
787.4828	36.9109	468	58.65
787.6235	39.1787	482.8	71.25
787.7642	41.4461	491	72.75
787.9049	43.7131	500.2	79.5
788.0456	45.9796	508.05	84.6
788.1863	48.2456	516.3	88.3
788.3271	50.5112	526.25	94.75
788.4679	52.7764	532.85	97.8
788.6087	55.0411	544.95	105
788.7496	57.3054	560.25	114.75
788.8904	59.5692	567.35	120.65
789.0313	61.8326	583.75	136.55
789.1722	64.0955	593.45	141.85
789.3132	66.3579	606.6	150.5
789.4541	68.6199	633.1	171.65
789.5951	70.8815	663.4	196.75
789.7361	73.1426	750.15	280.85
789.8771	75.4032	948.35	475.3
790.0181	77.6634	1458.8	979.75
790.1592	79.9231	2670.4	2184.3
790.3003	82.1824	5292.65	4786.85
790.4414	84.4412	10006.6	9468.6
790.5825	86.6995	16518.8	15942
790.7237	88.9574	22821.2	22210.85
790.8648	91.2148	27289.35	26655.55
791.006	93.4717	29321.55	28672.65
791.1472	95.7282	29766.95	29110.35
791.2885	97.9842	29649.45	28986.2
791.4297	100.2398	29112.85	28448.5
791.571	102.4949	28514.95	27850.4
791.7123	104.7495	27702	27035.5
791.8536	107.0036	26940.3	26273.25
791.9949	109.2573	26160.95	25495.6
792.1363	111.5105	25458.85	24787.4
792.2777	113.7632	24756.85	24085.9
792.4191	116.0154	24204.2	23519.45
792.5605	118.2672	23760.25	23083.8
792.7019	120.5185	23293.05	22608.6
792.8434	122.7693	22901.3	22216.9
792.9849	125.0197	22626.4	21939.1
793.1264	127.2696	22389.05	21698.55
793.2679	129.519	22275.85	21579.75
793.4094	131.7679	22051.4	21356.45
793.551	134.0163	21876.25	21178.85
793.6926	136.2642	21678.15	20971.65
793.8342	138.5117	21429.75	20726.55
793.9758	140.7587	21189.3	20479.25
794.1175	143.0052	20977.65	20265.6
794.2591	145.2512	20733.3	20022.35
794.4008	147.4967	20490.95	19780.6
794.5425	149.7417	20310.8	19597.05
794.6842	151.9863	20203.25	19489.7
794.826	154.2304	20154.35	19428.25
794.9677	156.4739	20011.4	19279.95
795.1095	158.717	19943.4	19216.6
795.2513	160.9596	19805.4	19065.25
795.3931	163.2017	19556.25	18819.8
795.535	165.4433	19261.9	18519.8
795.6768	167.6844	18916.6	18180.15
795.8187	169.925	18602.1	17860.2
795.9606	172.1651	18268.65	17524.15
796.1025	174.4047	17967	17221.2
796.2445	176.6439	17748.2	17000.85
796.3864	178.8825	17540.4	16788.45
796.5284	181.1206	17365.7	16609.45
796.6704	183.3582	17241	16480.5
796.8124	185.5954	17135.6	16373.3
796.9544	187.832	17039.1	16270.95
797.0965	190.0681	17039.5	16271.4
797.2386	192.3037	17058.4	16288.1
797.3806	194.5388	17051.55	16277.65
797.5228	196.7734	17105	16331.1
797.6649	199.0075	17165.6	16387.95
797.807	201.2411	17321.05	16541.8
797.9492	203.4742	17389.05	16609.2
798.0914	205.7068	17544.05	16756.6
798.2336	207.9389	17640.9	16855.9
798.3758	210.1704	17802.85	17023.3
798.518	212.4015	17936	17169.25
798.6603	214.632	18114.95	17355.9
798.8025	216.862	18298.15	17535.8
798.9448	219.0915	18430	17665.1
799.0871	221.3205	18651.1	17882.3
799.2294	223.549	18871.9	18107.45
799.3718	225.777	19169.45	18406
799.5141	228.0044	19503.25	18730.85
799.6565	230.2314	19946.1	19174.65
799.7989	232.4578	20288.8	19517
799.9413	234.6837	20637.9	19856.15
800.0837	236.909	20840.1	20052.4
800.2262	239.1339	20861.55	20048.25
800.3687	241.3582	20642.05	19846.85
800.5111	243.582	20384.15	19556.35
800.6536	245.8053	20082.4	19267.05
800.7961	248.0281	19813.05	19005.8
800.9387	250.2503	19603.1	18793.1
801.0812	252.472	19479.15	18665
801.2238	254.6932	19485.3	18675.5
801.3664	256.9139	19429.1	18614.9
801.509	259.134	19465.25	18644
801.6516	261.3536	19481	18664.1
801.7942	263.5727	19572.5	18753.25
801.9369	265.7912	19621.2	18805.9
802.0795	268.0092	19699.65	18882.1
802.2222	270.2267	19705.5	18889.9
802.3649	272.4436	19690.95	18869.2
802.5076	274.6601	19657.6	18828.2
802.6504	276.8759	19564.05	18744.8
802.7931	279.0913	19524.25	18702.55
802.9359	281.3061	19452.75	18628.3
803.0787	283.5204	19501.85	18669.55
803.2215	285.7341	19559.8	18725.75
803.3643	287.9473	19741.4	18898.4
803.5071	290.16	19926.55	19091.55
803.6499	292.3721	20221.7	19394.65
803.7928	294.5837	20620.8	19787.9
803.9357	296.7947	20948.7	20116.9
804.0786	299.0052	21140.65	20306.05
804.2215	301.2152	20989.65	20154.1
804.3644	303.4246	20718.8	19886.8
804.5074	305.6334	20207.55	19375.7
804.6503	307.8418	19735	18905.6
804.7933	310.0495	19324.6	18486.2
804.9363	312.2568	19024.7	18181.3
805.0793	314.4635	18730.75	17887.9
805.2223	316.6696	18596	17754.55
805.3653	318.8752	18565.95	17712.1
805.5084	321.0802	18601.95	17757.55
805.6514	323.2847	18691.45	17847.95
805.7945	325.4887	18725.65	17882.95
805.9376	327.692	18704.3	17856.35
806.0807	329.8949	18625.55	17776
806.2238	332.0972	18390.6	17543.35
806.367	334.2989	18081.85	17228.3
806.5101	336.5001	17818.9	16963.85
806.6533	338.7007	17646.05	16793.15
806.7965	340.9008	17513.3	16654.1
806.9397	343.1003	17410.1	16554.9
807.0829	345.2992	17371.5	16514.9
807.2261	347.4976	17333.25	16477.75
807.3693	349.6955	17303.65	16441.85
807.5126	351.8927	17405.45	16541.2
807.6559	354.0895	17391.75	16516.15
807.7991	356.2856	17434.6	16567.4
807.9424	358.4812	17401.3	16534
808.0857	360.6763	17430.75	16561.95
808.2291	362.8707	17427.1	16555.8
808.3724	365.0646	17475.4	16602.7
808.5158	367.258	17460.2	16589.05
808.6591	369.4508	17538.95	16663.4
808.8025	371.643	17601.85	16724.4
808.9459	373.8346	17614.6	16734.85
809.0893	376.0257	17626.2	16747.05
809.2327	378.2162	17531.55	16655.15
809.3762	380.4062	17463.2	16585.5
809.5196	382.5956	17338.35	16466.5
809.6631	384.7844	17230.2	16361.95
809.8066	386.9726	17112.25	16243.4
809.9501	389.1603	17082	16215.8
810.0936	391.3474	17061.5	16158.95
810.2371	393.5339	17052.3	16182.9
810.3806	395.7199	16981.15	16111.95
810.5241	397.9052	17023.5	16152.05
810.6677	400.09	17047.8	16179.85
810.8113	402.2743	17130.6	16261.55
810.9548	404.4579	17233.9	16365.75
811.0984	406.641	17424.85	16554
811.2421	408.8235	17618.55	16747.3
811.3857	411.0054	17935.55	17061.2
811.5293	413.1868	18320.8	17439.65
811.673	415.3675	18628.6	17745.5
811.8166	417.5477	18810.5	17925.45
811.9603	419.7273	18819.4	17932.2
812.104	421.9064	18692.45	17801.45
812.2477	424.0848	18602.95	17719.25
812.3914	426.2627	18426.05	17540.6
812.5351	428.4399	18140.6	17253.3
812.6788	430.6166	17776.05	16882.8
812.8226	432.7928	17395.7	16501.2
812.9663	434.9683	17117.5	16228.65
813.1101	437.1432	16897.2	16012.75
813.2539	439.3176	16721.95	15840.95
813.3977	441.4914	16600.6	15725.55
813.5415	443.6645	16583.75	15702.5
813.6853	445.8371	16502.85	15617.1
813.8291	448.0091	16463.5	15576.8
813.973	450.1806	16443.5	15561.65
814.1168	452.3514	16363.35	15481.85
814.2607	454.5216	16390.9	15497.05
814.4046	456.6913	16369.6	15480.8
814.5485	458.8603	16388.4	15503.25
814.6924	461.0288	16444.05	15569.15
814.8363	463.1967	16440.7	15564.75
814.9802	465.3639	16562.85	15683.1
815.1241	467.5306	16655.3	15771.4
815.2681	469.6967	16815.9	15932
815.412	471.8622	16904	16025.3
815.556	474.0271	17051.25	16168.3
815.7	476.1914	17123.6	16234.7
815.844	478.3551	17155	16266.7
815.988	480.5182	17147.4	16261.95
816.132	482.6807	17138.05	16264.45
816.276	484.8426	17243.55	16376.1
816.4201	487.0039	17517.35	16641.05
816.5641	489.1647	17959.35	17071.55
816.7082	491.3248	18382.3	17493.6
816.8522	493.4843	18567.25	17685.55
816.9963	495.6432	18533.3	17649.25
817.1404	497.8015	18453.5	17560.85
817.2845	499.9592	18419.35	17519.3
817.4286	502.1163	18354.1	17452.9
817.5727	504.2728	18091.2	17200.05
817.7168	506.4287	17807.8	16926.1
817.861	508.5839	17420.85	16540.45
818.0051	510.7386	17109.05	16223.8
818.1493	512.8927	16957	16060.9
818.2935	515.0461	16887.6	15990.85
818.4377	517.199	16858.8	15958.25
818.5818	519.3512	16873.95	15976.2
818.726	521.5029	16967.75	16069.5
818.8703	523.6539	17070.95	16173.8
819.0145	525.8043	17147.65	16251.2
819.1587	527.9541	17171.1	16269.45
819.303	530.1033	17109.95	16211.5
819.4472	532.2519	17118.75	16222.5
819.5915	534.3999	17244.8	16345.1
819.7357	536.5472	17441.8	16542.35
819.88	538.694	17882.3	16988.4
820.0243	540.8401	18451.7	17550.4
820.1686	542.9856	18885.6	17977.2
820.3129	545.1305	19030.7	18114.2
820.4572	547.2748	18936.1	18023.35
820.6016	549.4185	18599.25	17685.45
820.7459	551.5615	18266.05	17352.5
820.8902	553.704	18151.05	17239.3
821.0346	555.8458	18101.8	17193.3
821.1789	557.987	18140.9	17234.95
821.3233	560.1276	18193.5	17285.6
821.4677	562.2675	18300	17387.35
821.6121	564.4069	18414.1	17500.5
821.7565	566.5456	18445.9	17535.45
821.9009	568.6837	18424.85	17517.55
822.0453	570.8212	18129.55	17221.9
822.1897	572.958	17735.65	16826.4
822.3342	575.0942	17404.85	16503.5
822.4786	577.2299	17191.05	16290.65
822.6231	579.3648	17156.05	16267.65
822.7675	581.4992	17177.7	16298.7
822.912	583.6329	17354.4	16473.7
823.0565	585.766	17567.05	16678.9
823.201	587.8985	17690.7	16798.05
823.3454	590.0304	17727.7	16802.75
823.4899	592.1616	17658.75	16747.25
823.6345	594.2922	17547.6	16634.75
823.779	596.4222	17381.6	16465.55
823.9235	598.5515	17232	16318.3
824.068	600.6802	17062.8	16156
824.2126	602.8083	16879.65	15970.95
824.3571	604.9358	16836.6	15928.75
824.5017	607.0626	16800.8	15888.75
824.6462	609.1888	16831.6	15910.4
824.7908	611.3144	16772.05	15853.9
824.9354	613.4393	16693.3	15772.5
825.08	615.5636	16641.95	15717.45
825.2246	617.6873	16601.05	15678.7
825.3692	619.8103	16552.5	15630.9
825.5138	621.9327	16442.2	15526.4
825.6584	624.0544	16354.95	15441.7
825.803	626.1756	16322.45	15411.45
825.9477	628.2961	16252.55	15337.65
826.0923	630.4159	16228.3	15313.2
826.237	632.5351	16213.15	15292.2
826.3816	634.6537	16149.65	15231.4
826.5263	636.7716	16136.75	15206.75
826.6709	638.8889	16145.7	15217.45
826.8156	641.0056	16193.5	15264.1
826.9603	643.1216	16153.55	15226.85
827.105	645.237	16173.35	15250
827.2497	647.3518	16170.8	15255.65
827.3944	649.4659	16195.05	15281.6
827.5391	651.5793	16167.55	15257.35
827.6838	653.6922	16145.35	15232.45
827.8285	655.8043	16169.35	15251.2
827.9733	657.9159	16138.4	15218.1
828.118	660.0268	16063.25	15147.6
828.2627	662.137	16038.25	15118.3
828.4075	664.2466	16044.95	15117.3
828.5522	666.3556	16027.15	15104.25
828.697	668.4639	15981.65	15061.65
828.8418	670.5716	16047.75	15131.1
828.9865	672.6786	16133.95	15208.5
829.1313	674.785	16144.2	15216.3
829.2761	676.8907	16166.85	15239.95
829.4209	678.9958	16241.1	15322.65
829.5657	681.1002	16204.1	15279.45
829.7105	683.204	16228	15297.3
829.8553	685.3072	16186.8	15260.5
830.0001	687.4097	16132.5	15203.2
830.1449	689.5115	16098.95	15172.45
830.2898	691.6127	16062.65	15139.6
830.4346	693.7132	16002.9	15077.8
830.5794	695.8131	15989.8	15058.95
830.7243	697.9123	15967	15033.3
830.8691	700.0109	15947.75	15015.75
831.014	702.1089	15948.35	15019.45
831.1588	704.2061	15984.15	15057.4
831.3037	706.3028	16026.05	15093.9
831.4486	708.3987	16071.35	15141.45
831.5935	710.4941	16154.7	15226.25
831.7383	712.5887	16321.35	15391.75
831.8832	714.6827	16566.2	15635.1
832.0281	716.7761	16848.15	15924.6
832.173	718.8688	17203.2	16275.95
832.3179	720.9608	17402.25	16468.75
832.4628	723.0522	17477.75	16535.65
832.6077	725.1429	17315.25	16380.75
832.7527	727.233	17142.6	16213
832.8976	729.3224	16944.15	16014.65
833.0425	731.4112	16691.5	15760.55
833.1874	733.4993	16521.9	15591.45
833.3324	735.5867	16341.9	15411.5
833.4773	737.6735	16198.85	15263.05
833.6222	739.7596	16145.05	15211.95
833.7672	741.845	16068.2	15136.05
833.9122	743.9298	16038.6	15102.1
834.0571	746.014	16078.9	15145.4
834.2021	748.0974	16068.6	15128.65
834.347	750.1802	16027.65	15090.05
834.492	752.2624	16058.3	15117.1
834.637	754.3439	16108.6	15167.35
834.782	756.4247	16184.5	15241.35
834.9269	758.5048	16294.05	15354.25
835.0719	760.5843	16530.5	15588.7
835.2169	762.6631	16865.3	15927.05
835.3619	764.7413	17366.85	16430.25
835.5069	766.8188	17927.75	16987.75
835.6519	768.8956	18407.15	17468.1
835.7969	770.9718	18700.85	17763.4
835.9419	773.0473	18555.8	17620.7
836.0869	775.1221	18276.15	17336.85
836.232	777.1962	17911.55	16974.35
836.377	779.2697	17709.2	16768.8
836.522	781.3426	17764.2	16806.2
836.667	783.4147	17963.15	17024.25
836.8121	785.4862	18255.8	17316.8
836.9571	787.557	18268	17325.55
837.1021	789.6271	17867.7	16927.2
837.2472	791.6966	17350.45	16410.35
837.3922	793.7654	16822.9	15881.25
837.5373	795.8335	16537.45	15599.2
837.6823	797.901	16307.05	15367.5
837.8274	799.9678	16264.75	15322.35
837.9724	802.0339	16227.4	15289.35
838.1175	804.0993	16246.2	15294.05
838.2626	806.1641	16230.95	15288.7
838.4076	808.2282	16168.9	15228.2
838.5527	810.2916	16073	15131.2
838.6978	812.3544	16019.65	15083.05
838.8428	814.4164	15938.1	15001.3
838.9879	816.4778	15975.05	15027.5
839.133	818.5385	15993.85	15049.35
839.2781	820.5986	16067.7	15121.95
839.4232	822.658	16192.95	15247.3
839.5682	824.7166	16342.2	15401.55
839.7133	826.7747	16616.5	15671.5
839.8584	828.832	16869.7	15923.85
840.0035	830.8886	17041.05	16091.45
840.1486	832.9446	17184.4	16235.8
840.2937	834.9999	17187.4	16244.6
840.4388	837.0545	17135	16184.6
840.5839	839.1085	17059.65	16114.2
840.729	841.1618	17019.55	16073
840.8741	843.2143	16929.35	15985.95
841.0192	845.2662	16817.45	15870.85
841.1643	847.3175	16777.9	15832.05
841.3095	849.368	16656.25	15712.3
841.4546	851.4179	16541.65	15598.95
841.5997	853.467	16391	15446.75
841.7448	855.5155	16324.1	15377.15
841.8899	857.5633	16226.5	15282.5
842.0351	859.6105	16131.75	15182.15
842.1802	861.6569	16080.35	15136.75
842.3253	863.7027	16057.7	15109.7
842.4704	865.7478	16030.4	15083.75
842.6156	867.7922	16035.4	15089.1
842.7607	869.8359	16071.15	15122.35
842.9058	871.8789	16178.4	15230
843.0509	873.9212	16335.7	15355.3
843.1961	875.9629	16449.8	15501.65
843.3412	878.0039	16630.6	15682.75
843.4863	880.0441	16741.9	15797.55
843.6315	882.0837	16768.25	15825.7
843.7766	884.1226	16705.4	15759.85
843.9218	886.1609	16609.9	15661.35
844.0669	888.1984	16588.7	15639.45
844.212	890.2352	16587.75	15640.1
844.3572	892.2714	16555.6	15604.2
844.5023	894.3069	16552.75	15606.25
844.6475	896.3416	16457.55	15511.4
844.7926	898.3757	16424.3	15477.75
844.9377	900.4091	16383.35	15430.7
845.0829	902.4418	16383.2	15424.95
845.228	904.4739	16396.7	15443.3
845.3732	906.5052	16443.35	15491.05
845.5183	908.5358	16372.1	15422.45
845.6635	910.5658	16220.75	15265.95
845.8086	912.595	16050.85	15102.2
845.9538	914.6236	15882.3	14933.4
846.0989	916.6515	15819	14869.45
846.2441	918.6786	15791.4	14841.4
846.3892	920.7051	15864.3	14912.3
846.5344	922.7309	15958.95	15006.25
846.6795	924.756	16046.5	15099.15
846.8246	926.7804	16164.05	15212.6
846.9698	928.8041	16101	15149.3
847.1149	930.8272	16148.1	15198.1
847.2601	932.8495	16037.65	15086.95
847.4052	934.8711	15985.55	15033.7
847.5504	936.892	15872.75	14919.95
847.6955	938.9123	15756.35	14806.6
847.8407	940.9318	15632.65	14679.6
847.9858	942.9506	15575.85	14624.3
848.131	944.9688	15520.95	14571.5
848.2761	946.9862	15449.05	14496.55
848.4213	949.003	15336.3	14386.8
848.5664	951.019	15330.85	14379.15
848.7115	953.0344	15337.35	14386.35
848.8567	955.0491	15388.85	14433.9
849.0018	957.063	15450.3	14496.05
849.147	959.0763	15591.65	14642.25
849.2921	961.0888	15583.3	14634.25
849.4373	963.1007	15717.8	14767.15
849.5824	965.1119	15734.9	14796.1
849.7275	967.1223	15766.1	14832.2
849.8727	969.1321	15762.05	14827.1
850.0178	971.1412	15794.1	14852.05
850.1629	973.1495	15801.1	14855.75
850.3081	975.1572	15878.6	14875.25
850.4532	977.1641	15900.65	14947.95
850.5983	979.1704	15859.45	14909.3
850.7435	981.1759	15859.9	14906.95
850.8886	983.1808	15900.65	14945.5
851.0337	985.1849	15985.25	15023.75
851.1788	987.1884	16117.2	15167.55
851.324	989.1911	16256.5	15307.6
851.4691	991.1932	16402.1	15453.15
851.6142	993.1945	16419.35	15468.4
851.7593	995.1951	16375.65	15424.05
851.9045	997.1951	16313	15357.7
852.0496	999.1943	16254.6	15303.55
852.1947	1001.1928	16245.8	15293.2
852.3398	1003.1906	16230.6	15281.7
852.4849	1005.1877	16305.5	15354.2
852.63	1007.1841	16294.25	15343.75
852.7751	1009.1798	16228.2	15280.7
852.9202	1011.1748	16057.05	15108.95
853.0653	1013.1691	15884.1	14936.25
853.2104	1015.1627	15661.8	14708.55
853.3555	1017.1556	15466.1	14517.8
853.5006	1019.1477	15368.15	14420.9
853.6457	1021.1392	15266.6	14324.4
853.7908	1023.1299	15258.35	14319.3
853.9359	1025.12	15231.8	14301.1
854.081	1027.1093	15288.8	14368.8
854.2261	1029.0979	15382.05	14463.75
854.3712	1031.0859	15436.5	14514.35
854.5163	1033.0731	15451.75	14516.85
854.6613	1035.0596	15426.2	14485.95
854.8064	1037.0454	15256.7	14314.5
854.9515	1039.0304	15121.75	14176.3
855.0965	1041.0148	15011.5	14067
855.2416	1042.9985	14900.05	13949.25
855.3867	1044.9814	14886.55	13940
855.5317	1046.9636	14836.15	13889.1
855.6768	1048.9452	14818.05	13875.05
855.8219	1050.926	14846.7	13899.1
855.9669	1052.9061	14834.7	13887.95
856.112	1054.8855	14827.45	13881.1
856.257	1056.8642	14874.6	13927.6
856.4021	1058.8421	14918.45	13964.9
856.5471	1060.8194	14943.6	13993.5
856.6921	1062.7959	14996.65	14049.65
856.8372	1064.7717	15040.95	14089.6
856.9822	1066.7469	15078.35	14127.6
857.1272	1068.7213	15060.7	14111.5
857.2723	1070.695	15076.5	14127.8
857.4173	1072.6679	15016.75	14068.4
857.5623	1074.6402	14980.9	14033.3
857.7073	1076.6117	14996.95	14043.75
857.8523	1078.5826	14959.1	14008
857.9973	1080.5527	14939.9	13990.75
858.1423	1082.5221	14977	14025.5
858.2873	1084.4908	15122.85	14174.65
858.4323	1086.4587	15270.55	14321.6
858.5773	1088.426	15403.35	14456.6
858.7223	1090.3925	15397.05	14448.05
858.8673	1092.3584	15370.35	14421.65
859.0123	1094.3235	15256.75	14312.4
859.1573	1096.2879	15223	14275.4
859.3022	1098.2515	15236.55	14288
859.4472	1100.2145	15303.15	14355.6
859.5922	1102.1767	15440.55	14489
859.7371	1104.1382	15584.9	14636.05
859.8821	1106.099	15801.8	14853.6
860.027	1108.0591	16003.6	15053.1
860.172	1110.0185	16130.05	15180.7
860.3169	1111.9771	16166.8	15221.9
860.4619	1113.9351	15979.8	15032
860.6068	1115.8923	15710.95	14764.85
860.7517	1117.8488	15484.4	14534.1
860.8967	1119.8045	15217.55	14270
861.0416	1121.7596	15048.65	14100.7
861.1865	1123.7139	14973.3	14029.6
861.3314	1125.6675	14971.95	14025.25
861.4763	1127.6204	15060.65	14117.05
861.6212	1129.5726	15036.6	14088.05
861.7661	1131.524	15028	14084.25
861.911	1133.4748	14963.7	14017.65
862.0559	1135.4248	14920.1	13974.3
862.2008	1137.3741	14897.1	13952.65
862.3457	1139.3226	14842.35	13893.4
862.4905	1141.2705	14798.95	13850.65
862.6354	1143.2176	14701.4	13749.4
862.7803	1145.164	14666.5	13717.75
862.9251	1147.1097	14657.95	13712.5
863.07	1149.0546	14668.55	13719.75
863.2148	1150.9989	14591.5	13642.7
863.3597	1152.9424	14462.2	13513.75
863.5045	1154.8852	14327.25	13379
863.6493	1156.8272	14244.7	13297.7
863.7942	1158.7686	14215.15	13263.15
863.939	1160.7092	14174.05	13225.7
864.0838	1162.6491	14168.55	13218.15
864.2286	1164.5883	14248.6	13302.45
864.3734	1166.5267	14350.9	13402.6
864.5182	1168.4644	14473.2	13525.7
864.663	1170.4014	14645.15	13698
864.8078	1172.3377	14910.15	13966.4
864.9526	1174.2732	15100.9	14159.4
865.0974	1176.2081	15389.75	14444.8
865.2421	1178.1421	15684.15	14736
865.3869	1180.0755	15954.45	15011.75
865.5317	1182.0082	16085.5	15141.8
865.6764	1183.9401	16145.4	15201
