Software Version:	3.9.2.0
Unit SN:	10000200
Spectrometer SN:	6960
Date:	3/8/2024 11:24:38 AM
Data Line Index:	25
Spectral Points:	2048
Integration time (ms):	125
Averages:	20
Delay (ms):	30000
Sequence Number:	1
Processing:	dark subtract
Laser Power (mW):	305
Laser Current (mA):	822
Laser Diode Temp (C):	25
Laser Case Temp (C):	25
System Temp (C):	24.9
Spectrometer Temp (C):	22.7
CCD Temp (C):	0.004
Secondary Temp (C):	20.004
Heatsink Temp (C):	19.511
CCDPCB Temp (C):	32.316
SecondaryPCB Temp (C):	26.903

Wavelength	RamanShift	Raw Counts	Dark Subtracted
787.061	30.1047	416.2	6.3
787.2016	32.3739	413.75	8.15
787.3422	34.6426	415.4	7
787.4828	36.9109	417.05	7.7
787.6235	39.1787	422.2	8.15
787.7642	41.4461	427	8.6
787.9049	43.7131	430.4	8.8
788.0456	45.9796	432.85	8.1
788.1863	48.2456	439.5	9.15
788.3271	50.5112	441.55	9.05
788.4679	52.7764	447	11.7
788.6087	55.0411	453.4	14.7
788.7496	57.3054	458.95	12.3
788.8904	59.5692	462.6	15
789.0313	61.8326	465.3	15.05
789.1722	64.0955	471.75	18.2
789.3132	66.3579	477.1	19.8
789.4541	68.6199	482.85	22.1
789.5951	70.8815	493.55	29.1
789.7361	73.1426	513.35	42.8
789.8771	75.4032	549.1	75.5
790.0181	77.6634	629.3	152.8
790.1592	79.9231	808.6	329.45
790.3003	82.1824	1188.05	699.3
790.4414	84.4412	1820.05	1317.95
790.5825	86.6995	2613.15	2091.8
790.7237	88.9574	3378.3	2838.6
790.8648	91.2148	3888.15	3339.5
791.006	93.4717	4108.65	3555.05
791.1472	95.7282	4145.2	3591.15
791.2885	97.9842	4147.7	3587.6
791.4297	100.2398	4091.8	3530.1
791.571	102.4949	4028.8	3462.75
791.7123	104.7495	4002.6	3432.15
791.8536	107.0036	3966.6	3394.95
791.9949	109.2573	3892.2	3324.2
792.1363	111.5105	3771.9	3201
792.2777	113.7632	3700.9	3128.5
792.4191	116.0154	3616.85	3031.85
792.5605	118.2672	3481.5	2904.6
792.7019	120.5185	3373.05	2792.35
792.8434	122.7693	3286.05	2703.5
792.9849	125.0197	3175.9	2589.75
793.1264	127.2696	3103.95	2512.4
793.2679	129.519	3065.8	2472.6
793.4094	131.7679	3030.9	2432.6
793.551	134.0163	3008.75	2411.3
793.6926	136.2642	2996.3	2392.85
793.8342	138.5117	2984.15	2375.1
793.9758	140.7587	2964	2354.3
794.1175	143.0052	2906.75	2297.35
794.2591	145.2512	2858.8	2248.4
794.4008	147.4967	2804.5	2193.4
794.5425	149.7417	2764.25	2150.3
794.6842	151.9863	2732.75	2113.7
794.826	154.2304	2715.85	2092.6
794.9677	156.4739	2705.6	2078.55
795.1095	158.717	2727.75	2099.95
795.2513	160.9596	2751.25	2117.15
795.3931	163.2017	2776.95	2143
795.535	165.4433	2792.9	2155.5
795.6768	167.6844	2790.25	2151.1
795.8187	169.925	2767.3	2126.8
795.9606	172.1651	2707.65	2061
796.1025	174.4047	2655.55	2006.1
796.2445	176.6439	2623.15	1972.35
796.3864	178.8825	2588.1	1933.5
796.5284	181.1206	2581.45	1924.15
796.6704	183.3582	2573.3	1912.3
796.8124	185.5954	2558.15	1897.25
796.9544	187.832	2552.8	1882.65
797.0965	190.0681	2553.95	1885.85
797.2386	192.3037	2563	1889.85
797.3806	194.5388	2567.05	1889.7
797.5228	196.7734	2591	1916.95
797.6649	199.0075	2602.45	1923.45
797.807	201.2411	2628.55	1949
797.9492	203.4742	2641.7	1961.45
798.0914	205.7068	2682.85	1996
798.2336	207.9389	2693.85	2006.25
798.3758	210.1704	2719.55	2037.85
798.518	212.4015	2709.9	2036.85
798.6603	214.632	2713	2048.7
798.8025	216.862	2717.6	2053.35
798.9448	219.0915	2719.95	2050.9
799.0871	221.3205	2740.45	2072.25
799.2294	223.549	2746.75	2081.15
799.3718	225.777	2746.25	2080.8
799.5141	228.0044	2740.05	2064.95
799.6565	230.2314	2726.25	2053.6
799.7989	232.4578	2720.8	2043.7
799.9413	234.6837	2716.15	2031.45
800.0837	236.909	2703.65	2013.9
800.2262	239.1339	2709.3	1992.9
800.3687	241.3582	2695	1995.7
800.5111	243.582	2718.55	1990.85
800.6536	245.8053	2715.4	1998.35
800.7961	248.0281	2711.35	2001.3
800.9387	250.2503	2732.25	2015.6
801.0812	252.472	2734.55	2017.05
801.2238	254.6932	2739.2	2025
801.3664	256.9139	2728.35	2011.3
801.509	259.134	2754.7	2031.9
801.6516	261.3536	2769.45	2053.6
801.7942	263.5727	2810.8	2091.75
801.9369	265.7912	2855.3	2132.25
802.0795	268.0092	2930.6	2211.7
802.2222	270.2267	2992.5	2270.6
802.3649	272.4436	3039	2315.5
802.5076	274.6601	3074.05	2340.5
802.6504	276.8759	3104.65	2374.65
802.7931	279.0913	3130.65	2399.55
802.9359	281.3061	3147.45	2419.7
803.0787	283.5204	3185.15	2451.25
803.2215	285.7341	3216.6	2478.9
803.3643	287.9473	3225.35	2490.8
803.5071	290.16	3229.9	2490.05
803.6499	292.3721	3184.85	2448.85
803.7928	294.5837	3145.95	2410.35
803.9357	296.7947	3113.25	2374.05
804.0786	299.0052	3078.75	2342.75
804.2215	301.2152	3074.2	2334.05
804.3644	303.4246	3061.95	2324.9
804.5074	305.6334	3025.5	2288.9
804.6503	307.8418	3026.1	2283.3
804.7933	310.0495	2993.05	2252.55
804.9363	312.2568	2962.6	2216.65
805.0793	314.4635	2919	2172.65
805.2223	316.6696	2870	2124.1
805.3653	318.8752	2819.95	2062.85
805.5084	321.0802	2786.3	2034.5
805.6514	323.2847	2776.7	2027.35
805.7945	325.4887	2775	2022.1
805.9376	327.692	2798	2046.85
806.0807	329.8949	2839.75	2081.6
806.2238	332.0972	2895.75	2140.25
806.367	334.2989	2934.6	2176.25
806.5101	336.5001	2943.25	2181.2
806.6533	338.7007	2901.4	2139
806.7965	340.9008	2845.35	2083.2
806.9397	343.1003	2789.2	2023.5
807.0829	345.2992	2729.55	1963.55
807.2261	347.4976	2696.4	1930.8
807.3693	349.6955	2651.35	1880.65
807.5126	351.8927	2639.3	1868.45
807.6559	354.0895	2622.5	1840.9
807.7991	356.2856	2605.6	1829.95
807.9424	358.4812	2581.8	1808.65
808.0857	360.6763	2584.55	1807.3
808.2291	362.8707	2572.05	1796.45
808.3724	365.0646	2577.4	1797.2
808.5158	367.258	2589.35	1807.4
808.6591	369.4508	2619.35	1831.95
808.8025	371.643	2642.7	1858.75
808.9459	373.8346	2672.85	1887.05
809.0893	376.0257	2703.4	1911.75
809.2327	378.2162	2747.1	1959.85
809.3762	380.4062	2758.55	1968.15
809.5196	382.5956	2736.6	1953.15
809.6631	384.7844	2700.4	1922.9
809.8066	386.9726	2631.25	1851.75
809.9501	389.1603	2594.55	1817.45
810.0936	391.3474	2596.65	1784.85
810.2371	393.5339	2568.45	1783.45
810.3806	395.7199	2588.85	1806.5
810.5241	397.9052	2617.7	1836.6
810.6677	400.09	2665	1882.95
810.8113	402.2743	2713.45	1927.45
810.9548	404.4579	2769.4	1983.45
811.0984	406.641	2798.9	2013.45
811.2421	408.8235	2843.2	2055.05
811.3857	411.0054	2901.95	2112.65
811.5293	413.1868	2970.3	2173.6
811.673	415.3675	3018.15	2219.7
811.8166	417.5477	3012.3	2211.75
811.9603	419.7273	2964.25	2161.8
812.104	421.9064	2871.55	2063.15
812.2477	424.0848	2804.7	2002.6
812.3914	426.2627	2728.85	1927.3
812.5351	428.4399	2660.85	1860.6
812.6788	430.6166	2618.95	1809.3
812.8226	432.7928	2557.2	1745.9
812.9663	434.9683	2505.7	1698.4
813.1101	437.1432	2484.45	1679.6
813.2539	439.3176	2462.1	1655.2
813.3977	441.4914	2449.65	1643.5
813.5415	443.6645	2437.4	1632.7
813.6853	445.8371	2423.95	1614.75
813.8291	448.0091	2435.7	1631.05
813.973	450.1806	2442.35	1634.1
814.1168	452.3514	2436.85	1627.25
814.2607	454.5216	2440.5	1621.6
814.4046	456.6913	2428.3	1618.1
814.5485	458.8603	2431.25	1619.25
814.6924	461.0288	2446.6	1639.8
814.8363	463.1967	2443.7	1632.45
814.9802	465.3639	2436.25	1625.95
815.1241	467.5306	2424.2	1614.25
815.2681	469.6967	2418.15	1605.95
815.412	471.8622	2397.45	1587
815.556	474.0271	2411.8	1602.4
815.7	476.1914	2411.7	1595.95
815.844	478.3551	2392.95	1577.55
815.988	480.5182	2387.55	1574.2
816.132	482.6807	2401.75	1589.15
816.276	484.8426	2416.15	1605
816.4201	487.0039	2468.75	1657.75
816.5641	489.1647	2527.4	1710.4
816.7082	491.3248	2572.95	1754.35
816.8522	493.4843	2596	1780.35
816.9963	495.6432	2586	1768.15
817.1404	497.8015	2553.5	1730
817.2845	499.9592	2502.75	1679.75
817.4286	502.1163	2445.6	1620.95
817.5727	504.2728	2393.05	1570.8
817.7168	506.4287	2367.6	1552.05
817.861	508.5839	2351.95	1532.85
818.0051	510.7386	2345.8	1525.7
818.1493	512.8927	2353.2	1520.45
818.2935	515.0461	2358.6	1530.3
818.4377	517.199	2364.1	1537.9
818.5818	519.3512	2419.45	1590.75
818.726	521.5029	2501.65	1668.7
818.8703	523.6539	2573.55	1742.7
819.0145	525.8043	2577.55	1749.4
819.1587	527.9541	2517.15	1683.25
819.303	530.1033	2438	1606.25
819.4472	532.2519	2390.1	1556.7
819.5915	534.3999	2357.2	1522.75
819.7357	536.5472	2338.2	1506.25
819.88	538.694	2349.15	1518.05
820.0243	540.8401	2367.55	1534.25
820.1686	542.9856	2384.25	1550
820.3129	545.1305	2396.75	1556.7
820.4572	547.2748	2412.6	1575.45
820.6016	549.4185	2425.2	1586.2
820.7459	551.5615	2436.65	1598.45
820.8902	553.704	2443.55	1609.05
821.0346	555.8458	2464.85	1630
821.1789	557.987	2491.45	1659.9
821.3233	560.1276	2512	1674.55
821.4677	562.2675	2588.15	1751.9
821.6121	564.4069	2667.7	1834.5
821.7565	566.5456	2710.55	1873.35
821.9009	568.6837	2687.35	1848.7
822.0453	570.8212	2605.25	1767.75
822.1897	572.958	2498.7	1659.05
822.3342	575.0942	2433.55	1598.05
822.4786	577.2299	2402.9	1563
822.6231	579.3648	2375.8	1541.25
822.7675	581.4992	2346.3	1512.8
822.912	583.6329	2355.9	1523.5
823.0565	585.766	2382.95	1548.4
823.201	587.8985	2433.15	1594.9
823.3454	590.0304	2503	1653.35
823.4899	592.1616	2532.4	1686.5
823.6345	594.2922	2536.55	1693.9
823.779	596.4222	2498.55	1654.1
823.9235	598.5515	2430.55	1583.7
824.068	600.6802	2371.55	1525.75
824.2126	602.8083	2314.55	1472.1
824.3571	604.9358	2291.9	1445.15
824.5017	607.0626	2292.65	1448.1
824.6462	609.1888	2311	1459.9
824.7908	611.3144	2318.4	1467.35
824.9354	613.4393	2383.3	1535.05
825.08	615.5636	2437.7	1588.05
825.2246	617.6873	2488.6	1641.1
825.3692	619.8103	2521.95	1668.5
825.5138	621.9327	2518.05	1665.4
825.6584	624.0544	2483.35	1636.25
825.803	626.1756	2412	1563.1
825.9477	628.2961	2363.4	1512.05
826.0923	630.4159	2326.25	1473
826.237	632.5351	2323.2	1472
826.3816	634.6537	2311.4	1458.25
826.5263	636.7716	2298.65	1444.5
826.6709	638.8889	2293.5	1438.9
826.8156	641.0056	2309.15	1455.55
826.9603	643.1216	2315.55	1457.5
827.105	645.237	2329.9	1472.15
827.2497	647.3518	2307.8	1457.95
827.3944	649.4659	2265.5	1414.3
827.5391	651.5793	2246.6	1393.75
827.6838	653.6922	2231.35	1379.05
827.8285	655.8043	2216.35	1362.8
827.9733	657.9159	2200.85	1347.35
828.118	660.0268	2192.6	1336.9
828.2627	662.137	2194.35	1338.4
828.4075	664.2466	2197.15	1336.95
828.5522	666.3556	2186.1	1328.25
828.697	668.4639	2181.25	1323.1
828.8418	670.5716	2175.6	1319.7
828.9865	672.6786	2168.35	1310.45
829.1313	674.785	2162.5	1299.3
829.2761	676.8907	2150.4	1293.2
829.4209	678.9958	2149.9	1293.1
829.5657	681.1002	2155.45	1295.15
829.7105	683.204	2157.75	1290.7
829.8553	685.3072	2160.95	1297.7
830.0001	687.4097	2156.75	1295.95
830.1449	689.5115	2155.5	1291.2
830.2898	691.6127	2150.9	1290.45
830.4346	693.7132	2139.15	1279.9
830.5794	695.8131	2163.9	1290.65
830.7243	697.9123	2155.9	1293.05
830.8691	700.0109	2155.05	1289.95
831.014	702.1089	2160.2	1297.1
831.1588	704.2061	2183.95	1321.45
831.3037	706.3028	2201.3	1334.3
831.4486	708.3987	2223.3	1359.55
831.5935	710.4941	2251.9	1387.3
831.7383	712.5887	2245.1	1379.6
831.8832	714.6827	2246.25	1377.25
832.0281	716.7761	2236.25	1372.1
832.173	718.8688	2238.15	1371.55
832.3179	720.9608	2232.15	1362.5
832.4628	723.0522	2245.3	1373.45
832.6077	725.1429	2264.15	1397.05
832.7527	727.233	2298.75	1429.75
832.8976	729.3224	2386.25	1519.15
833.0425	731.4112	2444	1575.3
833.1874	733.4993	2453.35	1581.25
833.3324	735.5867	2410.65	1541
833.4773	737.6735	2327.55	1457.8
833.6222	739.7596	2258.4	1386.3
833.7672	741.845	2223.9	1351.85
833.9122	743.9298	2224.05	1350.15
834.0571	746.014	2213.15	1342.05
834.2021	748.0974	2220.95	1345.95
834.347	750.1802	2225.95	1351.65
834.492	752.2624	2228.85	1355.8
834.637	754.3439	2217.5	1343.6
834.782	756.4247	2213.45	1331.7
834.9269	758.5048	2216.7	1345.15
835.0719	760.5843	2229.45	1355.4
835.2169	762.6631	2264.4	1391.85
835.3619	764.7413	2312.05	1438.6
835.5069	766.8188	2410.4	1535.25
835.6519	768.8956	2496.7	1618
835.7969	770.9718	2576.05	1702.7
835.9419	773.0473	2559.85	1684.95
836.0869	775.1221	2532.3	1658.95
836.232	777.1962	2498.2	1623.3
836.377	779.2697	2569.55	1691.9
836.522	781.3426	2691.4	1802.55
836.667	783.4147	2777.05	1902.7
836.8121	785.4862	2755.1	1881.55
836.9571	787.557	2654.05	1777.75
837.1021	789.6271	2514.05	1635.75
837.2472	791.6966	2366.05	1491.35
837.3922	793.7654	2258.45	1382.25
837.5373	795.8335	2190.1	1311.45
837.6823	797.901	2155.55	1280.8
837.8274	799.9678	2147.5	1267.35
837.9724	802.0339	2147.6	1271.05
838.1175	804.0993	2158.75	1270.4
838.2626	806.1641	2140.4	1259.8
838.4076	808.2282	2129.25	1253.85
838.5527	810.2916	2111.35	1231.65
838.6978	812.3544	2091.55	1214.6
838.8428	814.4164	2071.85	1197.75
838.9879	816.4778	2083.35	1203.15
839.133	818.5385	2092	1212.7
839.2781	820.5986	2131.75	1250.65
839.4232	822.658	2190.2	1309.4
839.5682	824.7166	2268.5	1390.5
839.7133	826.7747	2370.85	1489.7
839.8584	828.832	2443.4	1565.35
840.0035	830.8886	2514.25	1632.05
840.1486	832.9446	2545.25	1664.35
840.2937	834.9999	2515.8	1636.65
840.4388	837.0545	2437.95	1553.35
840.5839	839.1085	2336.45	1456.9
840.729	841.1618	2251.25	1364.45
840.8741	843.2143	2188.7	1307.6
841.0192	845.2662	2156.95	1276.85
841.1643	847.3175	2134.2	1252.15
841.3095	849.368	2119.45	1239
841.4546	851.4179	2103.15	1219.05
841.5997	853.467	2118.15	1235.4
841.7448	855.5155	2129.9	1251.15
841.8899	857.5633	2124.2	1241.95
842.0351	859.6105	2112.2	1230.4
842.1802	861.6569	2102.35	1218.9
842.3253	863.7027	2086.15	1200.45
842.4704	865.7478	2085.75	1201.9
842.6156	867.7922	2061.1	1177.6
842.7607	869.8359	2049.45	1162.5
842.9058	871.8789	2042.15	1157.45
843.0509	873.9212	2076.6	1160.25
843.1961	875.9629	2049.4	1163.35
843.3412	878.0039	2064.35	1178.15
843.4863	880.0441	2080.95	1197.5
843.6315	882.0837	2099.05	1214.55
843.7766	884.1226	2128.6	1241.55
843.9218	886.1609	2172.55	1287.65
844.0669	888.1984	2225.3	1339.3
844.212	890.2352	2273.6	1387.9
844.3572	892.2714	2292.8	1402.8
844.5023	894.3069	2263.25	1376.9
844.6475	896.3416	2196.8	1309.05
844.7926	898.3757	2151.8	1263.1
844.9377	900.4091	2120.4	1231.2
845.0829	902.4418	2132.3	1243.05
845.228	904.4739	2141.1	1251.85
845.3732	906.5052	2167.7	1276.95
845.5183	908.5358	2163.8	1277.15
845.6635	910.5658	2152.55	1265.3
845.8086	912.595	2098.5	1210
845.9538	914.6236	2062.6	1174.55
846.0989	916.6515	2025.75	1139.45
846.2441	918.6786	2006.85	1116.4
846.3892	920.7051	2003.05	1113.45
846.5344	922.7309	1991.95	1104
846.6795	924.756	1993.15	1103.75
846.8246	926.7804	2005.65	1116.1
846.9698	928.8041	2015.4	1124.75
847.1149	930.8272	2036.1	1145.15
847.2601	932.8495	2042.8	1153.1
847.4052	934.8711	2053	1163.15
847.5504	936.892	2063.4	1176.15
847.6955	938.9123	2083.05	1192.8
847.8407	940.9318	2113.3	1224.4
847.9858	942.9506	2145.1	1257.05
848.131	944.9688	2132.2	1241.1
848.2761	946.9862	2101.85	1212.5
848.4213	949.003	2048.35	1157.5
848.5664	951.019	2034.45	1143.25
848.7115	953.0344	2011.2	1121.75
848.8567	955.0491	1996.8	1104.95
849.0018	957.063	1987	1097.7
849.147	959.0763	1975.35	1086.45
849.2921	961.0888	1973.6	1084.4
849.4373	963.1007	1976.6	1084.85
849.5824	965.1119	1981.25	1096.7
849.7275	967.1223	1973.1	1086.1
849.8727	969.1321	1960.1	1076.5
850.0178	971.1412	1948.9	1062.5
850.1629	973.1495	1940.25	1052.5
850.3081	975.1572	1974.5	1051.1
850.4532	977.1641	1942.6	1050.85
850.5983	979.1704	1940.15	1050.95
850.7435	981.1759	1944.45	1051.2
850.8886	983.1808	1936.65	1045.65
851.0337	985.1849	1930.1	1027.5
851.1788	987.1884	1924.8	1030.3
851.324	989.1911	1934.25	1038.9
851.4691	991.1932	1933.95	1039.4
851.6142	993.1945	1937.45	1047.8
851.7593	995.1951	1937.5	1044.7
851.9045	997.1951	1950.9	1052.05
852.0496	999.1943	1941.3	1051
852.1947	1001.1928	1934.1	1038.9
852.3398	1003.1906	1961.25	1068.05
852.4849	1005.1877	1983.7	1089.6
852.63	1007.1841	2003.1	1111.1
852.7751	1009.1798	2022.1	1130.15
852.9202	1011.1748	2007.7	1112.5
853.0653	1013.1691	1982.85	1089.1
853.2104	1015.1627	1941.1	1045.45
853.3555	1017.1556	1905.05	1013.95
853.5006	1019.1477	1881.5	988.65
853.6457	1021.1392	1858	970.6
853.7908	1023.1299	1844.35	955.65
853.9359	1025.12	1854.6	966.9
854.081	1027.1093	1861.55	976.2
854.2261	1029.0979	1877	997.8
854.3712	1031.0859	1907.65	1023.6
854.5163	1033.0731	1924.9	1034.65
854.6613	1035.0596	1917.35	1027.35
854.8064	1037.0454	1923.4	1030
854.9515	1039.0304	1902.85	1010.95
855.0965	1041.0148	1876.15	986.05
855.2416	1042.9985	1857.7	964.95
855.3867	1044.9814	1843	950.55
855.5317	1046.9636	1843.1	948.35
855.6768	1048.9452	1842.85	950.4
855.8219	1050.926	1869.6	978.85
855.9669	1052.9061	1883.9	992.3
856.112	1054.8855	1891.65	999.05
856.257	1056.8642	1892.7	999.25
856.4021	1058.8421	1893.8	996.6
856.5471	1060.8194	1879.95	984.65
856.6921	1062.7959	1879.55	983.3
856.8372	1064.7717	1877.55	983.95
856.9822	1066.7469	1881.95	987.05
857.1272	1068.7213	1879.7	982.9
857.2723	1070.695	1892.4	999.45
857.4173	1072.6679	1914.55	1018.55
857.5623	1074.6402	1938.25	1044.85
857.7073	1076.6117	1959.15	1060.2
857.8523	1078.5826	1937.35	1042.2
857.9973	1080.5527	1897.25	1002.5
858.1423	1082.5221	1855.9	961.15
858.2873	1084.4908	1826.45	932.5
858.4323	1086.4587	1804.1	909.95
858.5773	1088.426	1801.65	905.25
858.7223	1090.3925	1792.75	895.8
858.8673	1092.3584	1810.6	914.8
859.0123	1094.3235	1812.7	919.45
859.1573	1096.2879	1830.75	936.4
859.3022	1098.2515	1854	960.7
859.4472	1100.2145	1888.35	996.15
859.5922	1102.1767	1919.6	1021.15
859.7371	1104.1382	1973.6	1078.8
859.8821	1106.099	2035.95	1136.55
860.027	1108.0591	2083.75	1190.2
860.172	1110.0185	2133.75	1238.8
860.3169	1111.9771	2166.45	1273.1
860.4619	1113.9351	2219.6	1327.2
860.6068	1115.8923	2294.8	1400.25
860.7517	1117.8488	2327	1428.45
860.8967	1119.8045	2281.3	1387.8
861.0416	1121.7596	2181.3	1286.05
861.1865	1123.7139	2049.25	1154.6
861.3314	1125.6675	1983	1087.75
861.4763	1127.6204	1993.4	1099
861.6212	1129.5726	2013.3	1117.9
861.7661	1131.524	2012.15	1117.45
861.911	1133.4748	1966.95	1069.3
862.0559	1135.4248	1899.4	1004.05
862.2008	1137.3741	1847.15	954.6
862.3457	1139.3226	1817.5	922.7
862.4905	1141.2705	1812.1	918.45
862.6354	1143.2176	1827.75	923.65
862.7803	1145.164	1841.35	943.25
862.9251	1147.1097	1842.8	947.5
863.07	1149.0546	1811.6	914.55
863.2148	1150.9989	1790.05	894.7
863.3597	1152.9424	1760.3	864.5
863.5045	1154.8852	1743.8	848.65
863.6493	1156.8272	1742.8	847.05
863.7942	1158.7686	1746.2	844.3
863.939	1160.7092	1737.2	838.7
864.0838	1162.6491	1741.55	842.1
864.2286	1164.5883	1759.6	864
864.3734	1166.5267	1777.25	878.4
864.5182	1168.4644	1802.1	904.75
864.663	1170.4014	1838.1	942.15
864.8078	1172.3377	1867.65	972.15
864.9526	1174.2732	1920.6	1027.7
865.0974	1176.2081	2019.55	1123.05
865.2421	1178.1421	2150.55	1250.1
865.3869	1180.0755	2294.05	1397.75
865.5317	1182.0082	2377.2	1481.7
865.6764	1183.9401	2364.95	1468.15
865.8212	1185.8713	2260.35	1366.15
865.9659	1187.8017	2104.8	1211.45
866.1106	1189.7315	1985.25	1099.35
866.2554	1191.6605	1924.95	1006.4
866.4001	1193.5888	1842.45	952.65
866.5448	1195.5163	1817.95	924.1
866.6895	1197.4432	1793.9	900.85
866.8342	1199.3693	1774.65	880.1
866.9789	1201.2947	1758.55	858.35
867.1236	1203.2193	1747.3	850.1
867.2683	1205.1432	1737.75	841.35
867.413	1207.0664	1742.65	846.8
867.5576	1208.9889	1737.45	839.2
867.7023	1210.9106	1739.8	845.5
867.847	1212.8316	1741.7	847.8
867.9916	1214.7519	1759.95	854.95
868.1363	1216.6715	1759	865.7
868.2809	1218.5903	1782.3	886.2
868.4255	1220.5084	1796.15	899.1
868.5701	1222.4257	1815.35	919.45
868.7148	1224.3424	1817.4	921.75
868.8594	1226.2583	1846.05	946.2
869.004	1228.1735	1875.2	977.8
869.1486	1230.0879	1918.9	1025
869.2932	1232.0016	1952.25	1056.5
869.4377	1233.9146	1993.9	1092.9
869.5823	1235.8269	2023.4	1126.3
869.7269	1237.7384	2025.7	1130.2
869.8715	1239.6492	2008.5	1111.8
870.016	1241.5592	2036.6	1140.55
870.1606	1243.4686	2090.7	1195.8
870.3051	1245.3772	2161.15	1265.3
870.4496	1247.285	2265.2	1370.05
