Software Version:	3.9.2.0
Unit SN:	10000200
Spectrometer SN:	6960
Date:	3/8/2024 2:16:18 PM
Data Line Index:	25
Spectral Points:	2048
Integration time (ms):	125
Averages:	20
Delay (ms):	30000
Sequence Number:	1
Processing:	dark subtract
Laser Power (mW):	305
Laser Current (mA):	823
Laser Diode Temp (C):	25.1
Laser Case Temp (C):	26.3
System Temp (C):	26.3
Spectrometer Temp (C):	24.2
CCD Temp (C):	0.007
Secondary Temp (C):	20.006
Heatsink Temp (C):	20.752
CCDPCB Temp (C):	36.307
SecondaryPCB Temp (C):	31.171

Wavelength	RamanShift	Raw Counts	Dark Subtracted
787.061	30.1047	465.5	56.65
787.2016	32.3739	462.6	55.9
787.3422	34.6426	470.2	63.1
787.4828	36.9109	475.9	66.65
787.6235	39.1787	483.5	72
787.7642	41.4461	493.75	76.25
787.9049	43.7131	504.55	84
788.0456	45.9796	507.2	83.75
788.1863	48.2456	523.35	94.9
788.3271	50.5112	530.8	99.85
788.4679	52.7764	542.65	106.7
788.6087	55.0411	552.4	114.65
788.7496	57.3054	566.5	122.9
788.8904	59.5692	569.15	123.7
789.0313	61.8326	579.8	131.15
789.1722	64.0955	594.15	141.8
789.3132	66.3579	616	159
789.4541	68.6199	635.45	175.55
789.5951	70.8815	673.95	210.45
789.7361	73.1426	754.8	286.3
789.8771	75.4032	970.5	499.45
790.0181	77.6634	1483.35	1006.35
790.1592	79.9231	2706.15	2219.7
790.3003	82.1824	5375.65	4873.75
790.4414	84.4412	10170.8	9640.3
790.5825	86.6995	16740.6	16171.9
790.7237	88.9574	23157.2	22559.25
790.8648	91.2148	27560.65	26941.2
791.006	93.4717	29623.65	28994.1
791.1472	95.7282	30131.1	29490.7
791.2885	97.9842	30071.25	29423.5
791.4297	100.2398	29591.7	28940.85
791.571	102.4949	29068.65	28418.1
791.7123	104.7495	28354.8	27701.1
791.8536	107.0036	27572.3	26917.6
791.9949	109.2573	26827.7	26179.25
792.1363	111.5105	26125.05	25468.3
792.2777	113.7632	25415.55	24757.65
792.4191	116.0154	24815.85	24146.7
792.5605	118.2672	24339.8	23674.65
792.7019	120.5185	23847.55	23180.9
792.8434	122.7693	23502.7	22836.25
792.9849	125.0197	23236.2	22563.6
793.1264	127.2696	22970.05	22289.45
793.2679	129.519	22855.2	22172.45
793.4094	131.7679	22682.05	22000.65
793.551	134.0163	22549.6	21860.05
793.6926	136.2642	22390.95	21706.15
793.8342	138.5117	22218.65	21520.95
793.9758	140.7587	22008.55	21312.4
794.1175	143.0052	21831.7	21133.2
794.2591	145.2512	21600.35	20900.55
794.4008	147.4967	21395.1	20697.65
794.5425	149.7417	21271.25	20572.85
794.6842	151.9863	21144.8	20441.55
794.826	154.2304	21152.6	20441.9
794.9677	156.4739	20998.2	20285.7
795.1095	158.717	20951.5	20233.75
795.2513	160.9596	20812.05	20093.4
795.3931	163.2017	20551.55	19828.7
795.535	165.4433	20273.6	19548.35
795.6768	167.6844	19959.7	19229.3
795.8187	169.925	19675.05	18944.6
795.9606	172.1651	19288.4	18557.75
796.1025	174.4047	19033.8	18299.8
796.2445	176.6439	18780.85	18047.2
796.3864	178.8825	18567.95	17832.2
796.5284	181.1206	18385.25	17640.9
796.6704	183.3582	18231.05	17481.15
796.8124	185.5954	18174.55	17426.15
796.9544	187.832	18055.1	17301.5
797.0965	190.0681	18070	17314.6
797.2386	192.3037	18070.7	17310.95
797.3806	194.5388	18068	17310
797.5228	196.7734	18119.9	17356.1
797.6649	199.0075	18216.05	17452.85
797.807	201.2411	18396.95	17632.75
797.9492	203.4742	18438.85	17668.65
798.0914	205.7068	18621.05	17848.4
798.2336	207.9389	18745.05	17974.5
798.3758	210.1704	18932.45	18165.65
798.518	212.4015	19030.75	18275.1
798.6603	214.632	19199.8	18450
798.8025	216.862	19443.55	18694.35
798.9448	219.0915	19591.65	18842.2
799.0871	221.3205	19842.4	19086.1
799.2294	223.549	20094.35	19343.95
799.3718	225.777	20445.15	19690.45
799.5141	228.0044	20825.1	20064.8
799.6565	230.2314	21315.5	20557.2
799.7989	232.4578	21744.1	20984.9
799.9413	234.6837	22159	21388.35
800.0837	236.909	22393.9	21621.05
800.2262	239.1339	22393.95	21595.95
800.3687	241.3582	22190	21405.5
800.5111	243.582	21849.85	21038.4
800.6536	245.8053	21464.05	20665.45
800.7961	248.0281	21149.95	20357
800.9387	250.2503	20910.45	20111.65
801.0812	252.472	20753.55	19951.9
801.2238	254.6932	20714.9	19915.45
801.3664	256.9139	20596.25	19797.3
801.509	259.134	20571.95	19766.9
801.6516	261.3536	20528.4	19723.85
801.7942	263.5727	20598.55	19793.95
801.9369	265.7912	20565.05	19758.55
802.0795	268.0092	20602.15	19801.45
802.2222	270.2267	20491.2	19685.6
802.3649	272.4436	20483.25	19676.1
802.5076	274.6601	20465.2	19650.05
802.6504	276.8759	20398.2	19587.75
802.7931	279.0913	20400.1	19587.25
802.9359	281.3061	20387	19576.3
803.0787	283.5204	20521.75	19704.05
803.2215	285.7341	20587.7	19764.25
803.3643	287.9473	20751.1	19924.55
803.5071	290.16	20998.25	20175.5
803.6499	292.3721	21315.8	20499.7
803.7928	294.5837	21777.7	20962.35
803.9357	296.7947	22144.2	21326
804.0786	299.0052	22326.9	21508.25
804.2215	301.2152	22212.55	21389.35
804.3644	303.4246	21908.45	21091.75
804.5074	305.6334	21334.35	20517.3
804.6503	307.8418	20858.2	20034.7
804.7933	310.0495	20448.3	19626.95
804.9363	312.2568	20140.25	19318.65
805.0793	314.4635	19928.75	19098.5
805.2223	316.6696	19882	19054.6
805.3653	318.8752	19850.05	19010.75
805.5084	321.0802	19951.6	19118.25
805.6514	323.2847	20003.9	19169.95
805.7945	325.4887	20115.7	19282.5
805.9376	327.692	20023.4	19188.4
806.0807	329.8949	19975.1	19138.65
806.2238	332.0972	19705.9	18867.4
806.367	334.2989	19460.65	18619.95
806.5101	336.5001	19137.45	18293.55
806.6533	338.7007	18962.7	18121.7
806.7965	340.9008	18882.2	18040.6
806.9397	343.1003	18781.8	17943.55
807.0829	345.2992	18713.6	17866.9
807.2261	347.4976	18727.3	17883.3
807.3693	349.6955	18674.8	17825.35
807.5126	351.8927	18803.55	17951.65
807.6559	354.0895	18817.05	17955.2
807.7991	356.2856	18888.3	18032.95
807.9424	358.4812	18873.95	18019.05
808.0857	360.6763	18935.95	18080.05
808.2291	362.8707	18904.6	18049.25
808.3724	365.0646	18939.95	18083.15
808.5158	367.258	18968.2	18107
808.6591	369.4508	19002.35	18140.35
808.8025	371.643	19070.05	18208.15
808.9459	373.8346	19078.6	18215.85
809.0893	376.0257	19089.85	18222.8
809.2327	378.2162	18974.6	18112.1
809.3762	380.4062	18925.45	18061.35
809.5196	382.5956	18730.45	17869
809.6631	384.7844	18683.5	17827.6
809.8066	386.9726	18594.25	17739.5
809.9501	389.1603	18521.85	17669.3
810.0936	391.3474	18501.3	17622.4
810.2371	393.5339	18495.3	17637.2
810.3806	395.7199	18436.85	17578.2
810.5241	397.9052	18508.1	17648.6
810.6677	400.09	18500	17642.85
810.8113	402.2743	18582.55	17727.25
810.9548	404.4579	18668.65	17811.85
811.0984	406.641	18843.7	17981.55
811.2421	408.8235	19056.15	18191.6
811.3857	411.0054	19422.6	18560.1
811.5293	413.1868	19845.3	18977.75
811.673	415.3675	20210.6	19338.8
811.8166	417.5477	20419.65	19549.3
811.9603	419.7273	20490.15	19622
812.104	421.9064	20374.35	19498.4
812.2477	424.0848	20241	19366.6
812.3914	426.2627	20010	19136.45
812.5351	428.4399	19743.8	18873.8
812.6788	430.6166	19421.15	18545.35
812.8226	432.7928	19057.95	18178.4
812.9663	434.9683	18725	17848.95
813.1101	437.1432	18524.05	17652.4
813.2539	439.3176	18349.7	17479.1
813.3977	441.4914	18227.5	17361.25
813.5415	443.6645	18247.4	17378.75
813.6853	445.8371	18183.7	17310.65
813.8291	448.0091	18113.6	17241.05
813.973	450.1806	18080.05	17209.1
814.1168	452.3514	18045.8	17173.45
814.2607	454.5216	18053.8	17174.75
814.4046	456.6913	17983	17109.7
814.5485	458.8603	18023.25	17153.2
814.6924	461.0288	18099.95	17235.7
814.8363	463.1967	18128.05	17261.8
814.9802	465.3639	18284.4	17412.6
815.1241	467.5306	18386.45	17516.3
815.2681	469.6967	18533.4	17663.65
815.412	471.8622	18703	17835.2
815.556	474.0271	18882.8	18008.15
815.7	476.1914	18997.3	18115.85
815.844	478.3551	18947.85	18071.85
815.988	480.5182	18953.6	18076.8
816.132	482.6807	18952.4	18085.45
816.276	484.8426	19076.05	18213.7
816.4201	487.0039	19349.6	18483.45
816.5641	489.1647	19776.4	18901.85
816.7082	491.3248	20202	19324.8
816.8522	493.4843	20404.6	19538.2
816.9963	495.6432	20395.4	19523.75
817.1404	497.8015	20359.2	19470.55
817.2845	499.9592	20382.6	19494.15
817.4286	502.1163	20349.65	19461.15
817.5727	504.2728	20097	19217.95
817.7168	506.4287	19802.3	18934.2
817.861	508.5839	19393	18522.6
818.0051	510.7386	19060.7	18187.45
818.1493	512.8927	18912.15	18030.65
818.2935	515.0461	18813.3	17930.95
818.4377	517.199	18758.95	17875.3
818.5818	519.3512	18728.7	17845.45
818.726	521.5029	18838.3	17948.7
818.8703	523.6539	18908.35	18025.3
819.0145	525.8043	18966.15	18076.15
819.1587	527.9541	18991	18097.4
819.303	530.1033	18965.75	18075.8
819.4472	532.2519	19012.4	18129.05
819.5915	534.3999	19160	18270.2
819.7357	536.5472	19489.4	18604.45
819.88	538.694	19931.6	19053.4
820.0243	540.8401	20581.9	19691.05
820.1686	542.9856	21099.7	20205.75
820.3129	545.1305	21230.85	20329.45
820.4572	547.2748	21178.9	20273.7
820.6016	549.4185	20784.15	19876.9
820.7459	551.5615	20431.9	19523.55
820.8902	553.704	20283.4	19379.05
821.0346	555.8458	20242.6	19343.2
821.1789	557.987	20260.9	19363
821.3233	560.1276	20242.95	19343.95
821.4677	562.2675	20246.1	19345.6
821.6121	564.4069	20237	19337.35
821.7565	566.5456	20214.55	19317.1
821.9009	568.6837	20139.2	19243.65
822.0453	570.8212	19907.9	19013.6
822.1897	572.958	19584.8	18686.5
822.3342	575.0942	19323.65	18431.2
822.4786	577.2299	19148.05	18253.85
822.6231	579.3648	19147.25	18265.25
822.7675	581.4992	19204.85	18334.7
822.912	583.6329	19398.6	18529.2
823.0565	585.766	19670.4	18798.2
823.201	587.8985	19815.55	18938.15
823.3454	590.0304	19841.1	18939.95
823.4899	592.1616	19792.05	18896.15
823.6345	594.2922	19707.45	18806.2
823.779	596.4222	19553.35	18649.35
823.9235	598.5515	19393.75	18489.15
824.068	600.6802	19255.5	18350.75
824.2126	602.8083	19024.05	18124.85
824.3571	604.9358	19036	18133.25
824.5017	607.0626	18950.75	18045.8
824.6462	609.1888	18919.45	18010.4
824.7908	611.3144	18851.7	17940.25
824.9354	613.4393	18787.9	17880.9
825.08	615.5636	18689.45	17782.95
825.2246	617.6873	18559.65	17651.05
825.3692	619.8103	18557.35	17647.55
825.5138	621.9327	18451.25	17543.75
825.6584	624.0544	18444.5	17542.05
825.803	626.1756	18423.6	17519.6
825.9477	628.2961	18397.15	17491.75
826.0923	630.4159	18328.5	17423.1
826.237	632.5351	18334.15	17424.25
826.3816	634.6537	18303.75	17393.45
826.5263	636.7716	18276.55	17358.6
826.6709	638.8889	18297.2	17379.65
826.8156	641.0056	18355.6	17438.6
826.9603	643.1216	18378.35	17461.5
827.105	645.237	18448.85	17535.25
827.2497	647.3518	18395.85	17491.95
827.3944	649.4659	18455.35	17557.3
827.5391	651.5793	18451.7	17548.2
827.6838	653.6922	18397.85	17488.9
827.8285	655.8043	18451.95	17545.6
827.9733	657.9159	18449.15	17542.15
828.118	660.0268	18360.75	17454.15
828.2627	662.137	18325.85	17417.35
828.4075	664.2466	18282.65	17360.8
828.5522	666.3556	18308.1	17396.15
828.697	668.4639	18320.1	17408.25
828.8418	670.5716	18402.9	17499.1
828.9865	672.6786	18484.45	17572.05
829.1313	674.785	18523.6	17605.15
829.2761	676.8907	18572.4	17658.95
829.4209	678.9958	18681.8	17776.7
829.5657	681.1002	18653.05	17737.45
829.7105	683.204	18657.65	17735.65
829.8553	685.3072	18637.3	17715
830.0001	687.4097	18585.4	17669.35
830.1449	689.5115	18560.8	17641.9
830.2898	691.6127	18525.6	17610.45
830.4346	693.7132	18440.15	17528.4
830.5794	695.8131	18427.6	17497.95
830.7243	697.9123	18411.25	17489.85
830.8691	700.0109	18375.35	17449.55
831.014	702.1089	18372.45	17452.1
831.1588	704.2061	18412.9	17493.85
831.3037	706.3028	18444.35	17523.4
831.4486	708.3987	18510.1	17591.1
831.5935	710.4941	18621.55	17704.15
831.7383	712.5887	18815.15	17894.8
831.8832	714.6827	19103.55	18184.8
832.0281	716.7761	19457.05	18544.1
832.173	718.8688	19858.25	18939.45
832.3179	720.9608	20090.7	19165.25
832.4628	723.0522	20148.85	19219
832.6077	725.1429	19928.7	19004.3
832.7527	727.233	19673.25	18751.35
832.8976	729.3224	19425.85	18502.15
833.0425	731.4112	19150.15	18229.45
833.1874	733.4993	18911.9	17990.2
833.3324	735.5867	18765.75	17843.7
833.4773	737.6735	18688.05	17764.9
833.6222	739.7596	18652.05	17730.1
833.7672	741.845	18622.7	17702.4
833.9122	743.9298	18604.4	17678.55
834.0571	746.014	18617.7	17697.85
834.2021	748.0974	18615.1	17684.1
834.347	750.1802	18664.45	17736.65
834.492	752.2624	18648.35	17720.4
834.637	754.3439	18674.8	17746.55
834.782	756.4247	18737.9	17804.9
834.9269	758.5048	18861.55	17935.8
835.0719	760.5843	19080.3	18148.3
835.2169	762.6631	19360.3	18432.65
835.3619	764.7413	19815.2	18889.15
835.5069	766.8188	20400.5	19472.9
835.6519	768.8956	20854.5	19927.1
835.7969	770.9718	21182.55	20250.9
835.9419	773.0473	21047.4	20117.3
836.0869	775.1221	20680.2	19749.65
836.232	777.1962	20351.8	19422.25
836.377	779.2697	20165.8	19236.05
836.522	781.3426	20246.8	19299.8
836.667	783.4147	20499.2	19571.35
836.8121	785.4862	20795.35	19866.45
836.9571	787.557	20835.15	19903.45
837.1021	789.6271	20516.85	19583.05
837.2472	791.6966	20018.8	19087.8
837.3922	793.7654	19478.2	18549.95
837.5373	795.8335	19207.45	18278.8
837.6823	797.901	19019.6	18087.8
837.8274	799.9678	18951.7	18017.7
837.9724	802.0339	19042.6	18109.15
838.1175	804.0993	19064.6	18121.75
838.2626	806.1641	19027.9	18094.2
838.4076	808.2282	18962.9	18033.45
838.5527	810.2916	18911.5	17978.35
838.6978	812.3544	18813.7	17884.05
838.8428	814.4164	18769.15	17840
838.9879	816.4778	18781.4	17848.75
839.133	818.5385	18765.1	17828.1
839.2781	820.5986	18857.65	17922.15
839.4232	822.658	18991.55	18056.15
839.5682	824.7166	19063.7	18130.2
839.7133	826.7747	19318.3	18387.4
839.8584	828.832	19484.3	18551.55
840.0035	830.8886	19609.7	18669.85
840.1486	832.9446	19750.55	18810.65
840.2937	834.9999	19774.25	18840.25
840.4388	837.0545	19840.25	18900.4
840.5839	839.1085	19858.35	18922.7
840.729	841.1618	19860.65	18921.7
840.8741	843.2143	19836.35	18903
841.0192	845.2662	19775.05	18842.9
841.1643	847.3175	19729.4	18792.95
841.3095	849.368	19604.55	18668.05
841.4546	851.4179	19545.6	18609.95
841.5997	853.467	19344.35	18409.3
841.7448	855.5155	19256	18320.8
841.8899	857.5633	19146.8	18208.85
842.0351	859.6105	19058.9	18121.75
842.1802	861.6569	19028.1	18090.65
842.3253	863.7027	18973.6	18034.05
842.4704	865.7478	19001.75	18062.65
842.6156	867.7922	19014.6	18073.4
842.7607	869.8359	19059.65	18121.45
842.9058	871.8789	19170.5	18233.3
843.0509	873.9212	19411.45	18440.25
843.1961	875.9629	19543.05	18604.65
843.3412	878.0039	19754.35	18816.9
843.4863	880.0441	19867.15	18930.45
843.6315	882.0837	19872.9	18936
843.7766	884.1226	19795.25	18853.2
843.9218	886.1609	19688.05	18751.4
844.0669	888.1984	19592.15	18654.6
844.212	890.2352	19641.35	18708.35
844.3572	892.2714	19567.5	18622.8
844.5023	894.3069	19590.15	18647.35
844.6475	896.3416	19483.4	18543.7
844.7926	898.3757	19503.15	18565.85
844.9377	900.4091	19498.25	18558.65
845.0829	902.4418	19510.15	18562.9
845.228	904.4739	19534.15	18590.45
845.3732	906.5052	19539.1	18594.3
845.5183	908.5358	19462.3	18517.95
845.6635	910.5658	19305.9	18361.95
845.8086	912.595	19137.5	18198.15
845.9538	914.6236	18982.9	18044.6
846.0989	916.6515	19013	18072.95
846.2441	918.6786	18960.5	18014.1
846.3892	920.7051	19067.85	18122.55
846.5344	922.7309	19216.05	18273.25
846.6795	924.756	19247.35	18305.85
846.8246	926.7804	19359.15	18410.95
846.9698	928.8041	19288.9	18347.3
847.1149	930.8272	19329.2	18387.65
847.2601	932.8495	19253.35	18310
847.4052	934.8711	19226.65	18284.45
847.5504	936.892	19045.2	18101.05
847.6955	938.9123	18926.55	17985.45
847.8407	940.9318	18811.95	17873.25
847.9858	942.9506	18693.15	17750.35
848.131	944.9688	18595.25	17655.4
848.2761	946.9862	18550.65	17607.3
848.4213	949.003	18471.45	17528.95
848.5664	951.019	18489.15	17550.85
848.7115	953.0344	18525.85	17585.8
848.8567	955.0491	18543.9	17598.85
849.0018	957.063	18682.65	17738.5
849.147	959.0763	18837.35	17894.4
849.2921	961.0888	18861.35	17916.9
849.4373	963.1007	18903.25	17964.4
849.5824	965.1119	18978.85	18047.55
849.7275	967.1223	19011.75	18084.35
849.8727	969.1321	19054.2	18128.35
850.0178	971.1412	19097.55	18165.3
850.1629	973.1495	19119.55	18179.65
850.3081	975.1572	19194.2	18211.8
850.4532	977.1641	19204.15	18261
850.5983	979.1704	19174.5	18232.05
850.7435	981.1759	19173.9	18227.05
850.8886	983.1808	19238.95	18294.9
851.0337	985.1849	19357.85	18408.8
851.1788	987.1884	19495.9	18552.45
851.324	989.1911	19699.05	18760.5
851.4691	991.1932	19815.75	18870.8
851.6142	993.1945	19838	18894.2
851.7593	995.1951	19782.9	18843.35
851.9045	997.1951	19808.35	18859.55
852.0496	999.1943	19706.2	18764.3
852.1947	1001.1928	19652.35	18710.1
852.3398	1003.1906	19644.35	18701.05
852.4849	1005.1877	19693.6	18750.9
852.63	1007.1841	19644.8	18706.1
852.7751	1009.1798	19547.75	18608.6
852.9202	1011.1748	19364.6	18423.95
853.0653	1013.1691	19189.6	18244.15
853.2104	1015.1627	18935.95	17994.7
853.3555	1017.1556	18765.9	17827.2
853.5006	1019.1477	18650.65	17714.35
853.6457	1021.1392	18551.65	17620.25
853.7908	1023.1299	18516	17585.35
853.9359	1025.12	18537.95	17609.95
854.081	1027.1093	18574.3	17661.1
854.2261	1029.0979	18668.95	17758.55
854.3712	1031.0859	18733.2	17813.65
854.5163	1033.0731	18736.8	17811.6
854.6613	1035.0596	18652.3	17720.5
854.8064	1037.0454	18480.55	17546.1
854.9515	1039.0304	18373.15	17440.15
855.0965	1041.0148	18272.45	17338.2
855.2416	1042.9985	18167.7	17226.5
855.3867	1044.9814	18176.3	17238.05
855.5317	1046.9636	18113.9	17173.9
855.6768	1048.9452	18062.25	17126.75
855.8219	1050.926	18077.15	17138.75
855.9669	1052.9061	18029.95	17090.1
856.112	1054.8855	18042.9	17101
856.257	1056.8642	18107	17169.95
856.4021	1058.8421	18204.05	17256.2
856.5471	1060.8194	18218	17278.35
856.6921	1062.7959	18228.55	17287.5
856.8372	1064.7717	18239	17298.3
856.9822	1066.7469	18256.95	17311.65
857.1272	1068.7213	18276.4	17334.15
857.2723	1070.695	18269.4	17328.85
857.4173	1072.6679	18174.85	17231.35
857.5623	1074.6402	18126	17185.6
857.7073	1076.6117	18139.9	17195.95
857.8523	1078.5826	18116.65	17178.9
857.9973	1080.5527	18126.55	17187.2
858.1423	1082.5221	18260.1	17321.4
858.2873	1084.4908	18423.05	17484.4
858.4323	1086.4587	18599.85	17659.55
858.5773	1088.426	18751.05	17809
858.7223	1090.3925	18748.8	17801.2
858.8673	1092.3584	18700.55	17760.8
859.0123	1094.3235	18542.3	17600.95
859.1573	1096.2879	18471.7	17531.9
859.3022	1098.2515	18464.85	17526.9
859.4472	1100.2145	18532.65	17592.25
859.5922	1102.1767	18603.1	17660.6
859.7371	1104.1382	18743.4	17806.5
859.8821	1106.099	18973.35	18032.6
860.027	1108.0591	19179.9	18238.65
860.172	1110.0185	19283.45	18342.05
860.3169	1111.9771	19348.95	18407.55
860.4619	1113.9351	19092.25	18151.65
860.6068	1115.8923	18804.15	17867.45
860.7517	1117.8488	18507.75	17567.3
860.8967	1119.8045	18246.45	17308.65
861.0416	1121.7596	18132.5	17190.85
861.1865	1123.7139	18076.7	17138.55
861.3314	1125.6675	18027.15	17088.95
861.4763	1127.6204	18132.15	17193.5
861.6212	1129.5726	18072	17132.45
861.7661	1131.524	18075.3	17136.2
861.911	1133.4748	18084.25	17144.3
862.0559	1135.4248	18112.05	17171.65
862.2008	1137.3741	18087.05	17149.9
862.3457	1139.3226	18046.5	17107.7
862.4905	1141.2705	18029.8	17091.9
862.6354	1143.2176	17941.65	16997.75
862.7803	1145.164	17948.45	17006.2
862.9251	1147.1097	17966.75	17028.4
863.07	1149.0546	17939.35	16999.25
863.2148	1150.9989	17895.9	16954.85
863.3597	1152.9424	17731.55	16790.85
863.5045	1154.8852	17572.4	16633.25
863.6493	1156.8272	17443.7	16504.2
863.7942	1158.7686	17424.4	16478.5
863.939	1160.7092	17346.2	16405
864.0838	1162.6491	17322.5	16379.85
864.2286	1164.5883	17424.4	16486.35
864.3734	1166.5267	17506.75	16567.15
864.5182	1168.4644	17634.9	16695.6
864.663	1170.4014	17811.5	16868.7
864.8078	1172.3377	18066.15	17131.9
864.9526	1174.2732	18272.95	17337.5
865.0974	1176.2081	18488.2	17552.1
865.2421	1178.1421	18742.15	17798.25
865.3869	1180.0755	18968	18031.65
865.5317	1182.0082	19001.75	18068.05
