Software Version:	3.9.2.0
Unit SN:	10000200
Spectrometer SN:	6960
Date:	3/8/2024 12:59:42 PM
Data Line Index:	25
Spectral Points:	2048
Integration time (ms):	125
Averages:	20
Delay (ms):	30000
Sequence Number:	1
Processing:	dark subtract
Laser Power (mW):	305
Laser Current (mA):	822
Laser Diode Temp (C):	25
Laser Case Temp (C):	26.1
System Temp (C):	26
Spectrometer Temp (C):	24
CCD Temp (C):	0.008
Secondary Temp (C):	20.013
Heatsink Temp (C):	20.595
CCDPCB Temp (C):	36.018
SecondaryPCB Temp (C):	29.182

Wavelength	RamanShift	Raw Counts	Dark Subtracted
787.061	30.1047	455.8	48.25
787.2016	32.3739	456	51.1
787.3422	34.6426	458.1	48.05
787.4828	36.9109	467.6	58.65
787.6235	39.1787	473	59.35
787.7642	41.4461	487.15	69.2
787.9049	43.7131	489.1	67.95
788.0456	45.9796	501.25	78.15
788.1863	48.2456	508.45	79.85
788.3271	50.5112	520.6	88.35
788.4679	52.7764	527.55	91.25
788.6087	55.0411	538.75	96.55
788.7496	57.3054	545.95	99.65
788.8904	59.5692	552.95	106.35
789.0313	61.8326	570.4	121.7
789.1722	64.0955	577.2	124.7
789.3132	66.3579	595.8	137.35
789.4541	68.6199	615.4	153.6
789.5951	70.8815	652.35	185.95
789.7361	73.1426	731.2	260.3
789.8771	75.4032	944.35	470.6
790.0181	77.6634	1458.7	979.65
790.1592	79.9231	2661.25	2170.85
790.3003	82.1824	5253.8	4744.1
790.4414	84.4412	9907.1	9366.95
790.5825	86.6995	16231.2	15645.4
790.7237	88.9574	22332.2	21711.3
790.8648	91.2148	26496.85	25848.6
791.006	93.4717	28352.9	27689.6
791.1472	95.7282	28624	27953.25
791.2885	97.9842	28306.6	27635
791.4297	100.2398	27619.85	26940.35
791.571	102.4949	26810.3	26128.35
791.7123	104.7495	25889.05	25209.25
791.8536	107.0036	25005.4	24322.5
791.9949	109.2573	24178.45	23496.2
792.1363	111.5105	23451.15	22766
792.2777	113.7632	22719.65	22034.8
792.4191	116.0154	22135.55	21433.85
792.5605	118.2672	21706.75	21012.55
792.7019	120.5185	21279	20585
792.8434	122.7693	20917.85	20220
792.9849	125.0197	20628.2	19926.8
793.1264	127.2696	20324.55	19619.15
793.2679	129.519	20201.05	19489.75
793.4094	131.7679	19917	19206.4
793.551	134.0163	19649.55	18933.55
793.6926	136.2642	19303.7	18585.15
793.8342	138.5117	19015.75	18290.05
793.9758	140.7587	18693.9	17970.7
794.1175	143.0052	18383.75	17655.6
794.2591	145.2512	18098.65	17374.45
794.4008	147.4967	17765.1	17045.05
794.5425	149.7417	17569.95	16845.15
794.6842	151.9863	17416	16683.7
794.826	154.2304	17327.95	16589.05
794.9677	156.4739	17152.4	16408.5
795.1095	158.717	17027.2	16282.45
795.2513	160.9596	16879.9	16129.95
795.3931	163.2017	16586.2	15839.05
795.535	165.4433	16325.65	15576.8
795.6768	167.6844	15987.7	15238.05
795.8187	169.925	15654.85	14896.65
795.9606	172.1651	15295.2	14541.8
796.1025	174.4047	15020.3	14260.25
796.2445	176.6439	14770.3	14007.35
796.3864	178.8825	14559.05	13795.6
796.5284	181.1206	14420.85	13650.3
796.6704	183.3582	14272.15	13499.2
796.8124	185.5954	14167.6	13389.75
796.9544	187.832	14079.05	13299.3
797.0965	190.0681	14027.85	13248.5
797.2386	192.3037	14043.3	13257.6
797.3806	194.5388	14027.95	13238.35
797.5228	196.7734	14077.1	13283.65
797.6649	199.0075	14138.4	13344.5
797.807	201.2411	14257.55	13467.6
797.9492	203.4742	14332	13534.9
798.0914	205.7068	14499.85	13698
798.2336	207.9389	14611.25	13809.85
798.3758	210.1704	14790.35	14000.45
798.518	212.4015	14890.65	14108.5
798.6603	214.632	15045.65	14268.4
798.8025	216.862	15197.45	14420.4
798.9448	219.0915	15314.45	14539.1
799.0871	221.3205	15475.75	14691.25
799.2294	223.549	15623.3	14848.65
799.3718	225.777	15767.05	14987.6
799.5141	228.0044	15950.35	15168.1
799.6565	230.2314	16221.7	15434.6
799.7989	232.4578	16442.45	15654.75
799.9413	234.6837	16686.1	15892.6
800.0837	236.909	16813.25	16012.65
800.2262	239.1339	16782	15960.2
800.3687	241.3582	16683.1	15869.2
800.5111	243.582	16466.3	15623.1
800.6536	245.8053	16312.8	15487.15
800.7961	248.0281	16149.3	15331.8
800.9387	250.2503	16084.55	15260.8
801.0812	252.472	16055.85	15229.85
801.2238	254.6932	16135.25	15312.3
801.3664	256.9139	16192.1	15365.65
801.509	259.134	16324.1	15491.85
801.6516	261.3536	16483.05	15653.5
801.7942	263.5727	16745.75	15913.05
801.9369	265.7912	16916.6	16087.75
802.0795	268.0092	17103.4	16276.6
802.2222	270.2267	17224.4	16391.55
802.3649	272.4436	17289.75	16460.5
802.5076	274.6601	17293.45	16450.85
802.6504	276.8759	17174.95	16338.25
802.7931	279.0913	17096.15	16260.05
802.9359	281.3061	16990.05	16146.6
803.0787	283.5204	16945.5	16103.5
803.2215	285.7341	16974.1	16130
803.3643	287.9473	17046	16188.45
803.5071	290.16	17158.9	16311.9
803.6499	292.3721	17319.95	16477.95
803.7928	294.5837	17596	16744.65
803.9357	296.7947	17890.35	17044.95
804.0786	299.0052	18055.65	17209.5
804.2215	301.2152	18008.85	17159.45
804.3644	303.4246	17771.75	16929
804.5074	305.6334	17329.4	16487.85
804.6503	307.8418	16905.4	16058.75
804.7933	310.0495	16465.8	15612.05
804.9363	312.2568	16084.05	15232.45
805.0793	314.4635	15758.75	14903.4
805.2223	316.6696	15508.9	14652.85
805.3653	318.8752	15372.1	14505.85
805.5084	321.0802	15312.95	14455.15
805.6514	323.2847	15392.95	14537.75
805.7945	325.4887	15423.35	14565.5
805.9376	327.692	15391.35	14527.45
806.0807	329.8949	15321.8	14463.35
806.2238	332.0972	15094.85	14228.4
806.367	334.2989	14876.8	14006.05
806.5101	336.5001	14632.8	13764.85
806.6533	338.7007	14403.1	13533.1
806.7965	340.9008	14270.95	13404
806.9397	343.1003	14148.4	13281.9
807.0829	345.2992	14014.95	13147.2
807.2261	347.4976	13956.55	13082.65
807.3693	349.6955	13949.9	13070.35
807.5126	351.8927	13950.75	13076.55
807.6559	354.0895	13877.8	12991.65
807.7991	356.2856	13895.15	13017.15
807.9424	358.4812	13836.65	12954.35
808.0857	360.6763	13833.2	12953.15
808.2291	362.8707	13844.25	12959.15
808.3724	365.0646	13887.6	13003.65
808.5158	367.258	13935	13057.6
808.6591	369.4508	13994.95	13103.45
808.8025	371.643	14145.2	13256.4
808.9459	373.8346	14162.95	13271.15
809.0893	376.0257	14217.25	13326.65
809.2327	378.2162	14184.25	13296.1
809.3762	380.4062	14165.5	13278.5
809.5196	382.5956	14024.95	13139.55
809.6631	384.7844	13895.85	13013.1
809.8066	386.9726	13813.8	12932.15
809.9501	389.1603	13723.6	12845.7
810.0936	391.3474	13676.45	12770.05
810.2371	393.5339	13663.2	12775.35
810.3806	395.7199	13585.45	12701.15
810.5241	397.9052	13652.15	12768
810.6677	400.09	13719.85	12839.5
810.8113	402.2743	13831.1	12948.75
810.9548	404.4579	13992.2	13107.95
811.0984	406.641	14193	13308.45
811.2421	408.8235	14367.95	13481.55
811.3857	411.0054	14575.1	13681.6
811.5293	413.1868	14844.85	13950.6
811.673	415.3675	14993.4	14094.3
811.8166	417.5477	15084.6	14188.25
811.9603	419.7273	15076.45	14178.85
812.104	421.9064	14998.95	14095.9
812.2477	424.0848	14896.6	13999.55
812.3914	426.2627	14730.75	13833.1
812.5351	428.4399	14506.8	13607.2
812.6788	430.6166	14152.8	13250.2
812.8226	432.7928	13787.2	12884.35
812.9663	434.9683	13504.35	12605.75
813.1101	437.1432	13273.65	12379.65
813.2539	439.3176	13089.45	12197.7
813.3977	441.4914	12979.2	12088.6
813.5415	443.6645	12966.9	12075.95
813.6853	445.8371	12892.65	11998.1
813.8291	448.0091	12845.65	11949.6
813.973	450.1806	12835.25	11941.7
814.1168	452.3514	12821.3	11927.15
814.2607	454.5216	12831.1	11925.3
814.4046	456.6913	12799.9	11899.25
814.5485	458.8603	12854.5	11962.25
814.6924	461.0288	12931.4	12038.8
814.8363	463.1967	12929.75	12040.8
814.9802	465.3639	12967.75	12077.2
815.1241	467.5306	13010.4	12113.6
815.2681	469.6967	13031.9	12139.25
815.412	471.8622	13096.8	12208.6
815.556	474.0271	13205.65	12310.65
815.7	476.1914	13242.1	12341.75
815.844	478.3551	13242.95	12345.8
815.988	480.5182	13270.5	12375.9
816.132	482.6807	13352.45	12466.3
816.276	484.8426	13511.95	12632.65
816.4201	487.0039	13835.25	12950.1
816.5641	489.1647	14236.35	13339.9
816.7082	491.3248	14602.65	13704.6
816.8522	493.4843	14721.7	13827.25
816.9963	495.6432	14690.5	13794.95
817.1404	497.8015	14588.9	13685.35
817.2845	499.9592	14501.8	13590.35
817.4286	502.1163	14370.5	13464.5
817.5727	504.2728	14078.2	13176.55
817.7168	506.4287	13775	12884.2
817.861	508.5839	13425.85	12534.1
818.0051	510.7386	13191.7	12296
818.1493	512.8927	13052.8	12143.75
818.2935	515.0461	13008.8	12100
818.4377	517.199	13053.2	12145
818.5818	519.3512	13196	12283.8
818.726	521.5029	13383.75	12471.6
818.8703	523.6539	13573.6	12669.3
819.0145	525.8043	13656.75	12745.4
819.1587	527.9541	13612.55	12697.6
819.303	530.1033	13508.8	12599.15
819.4472	532.2519	13409.25	12502.9
819.5915	534.3999	13406.35	12496.25
819.7357	536.5472	13550.8	12641.85
819.88	538.694	13802.95	12897.9
820.0243	540.8401	14246.05	13335
820.1686	542.9856	14548.8	13629.2
820.3129	545.1305	14636.55	13715.45
820.4572	547.2748	14541.5	13611.95
820.6016	549.4185	14309.8	13381.5
820.7459	551.5615	14072.45	13144.35
820.8902	553.704	14038.75	13115.95
821.0346	555.8458	14051.05	13133.65
821.1789	557.987	14195.55	13275
821.3233	560.1276	14369.75	13450.85
821.4677	562.2675	14632	13713.05
821.6121	564.4069	15055.5	14132.6
821.7565	566.5456	15292.85	14375.85
821.9009	568.6837	15388.65	14472.15
822.0453	570.8212	15011.95	14093.3
822.1897	572.958	14446.95	13528.95
822.3342	575.0942	13909.65	12996.75
822.4786	577.2299	13552.85	12643.25
822.6231	579.3648	13358.65	12460.4
822.7675	581.4992	13380.4	12491.35
822.912	583.6329	13514.75	12628.8
823.0565	585.766	13718.2	12828.1
823.201	587.8985	13829.65	12928.95
823.3454	590.0304	13887.7	12953.4
823.4899	592.1616	13831.05	12906.35
823.6345	594.2922	13703	12781.3
823.779	596.4222	13513.95	12586.35
823.9235	598.5515	13337.75	12411.45
824.068	600.6802	13173.65	12251.35
824.2126	602.8083	13002.4	12084.4
824.3571	604.9358	12950.15	12024.2
824.5017	607.0626	12992.75	12071.55
824.6462	609.1888	13052.95	12124.45
824.7908	611.3144	13138.85	12206.6
824.9354	613.4393	13159.8	12230.1
825.08	615.5636	13209.5	12274.4
825.2246	617.6873	13206.55	12275
825.3692	619.8103	13147.35	12218.8
825.5138	621.9327	12998.15	12070.5
825.6584	624.0544	12826.85	11904.4
825.803	626.1756	12694.3	11773.65
825.9477	628.2961	12581.7	11654.55
826.0923	630.4159	12503.45	11573.15
826.237	632.5351	12492.5	11563.8
826.3816	634.6537	12459.35	11525.35
826.5263	636.7716	12446.4	11509.8
826.6709	638.8889	12455.5	11516.25
826.8156	641.0056	12473.05	11534.85
826.9603	643.1216	12478.8	11539.65
827.105	645.237	12470.25	11537.35
827.2497	647.3518	12394.55	11474.6
827.3944	649.4659	12367.85	11446.9
827.5391	651.5793	12318.35	11402.75
827.6838	653.6922	12287.6	11361.8
827.8285	655.8043	12270.05	11342.1
827.9733	657.9159	12271.4	11343.45
828.118	660.0268	12236.6	11310.65
828.2627	662.137	12212.45	11280.3
828.4075	664.2466	12234.05	11297.2
828.5522	666.3556	12252.25	11315.9
828.697	668.4639	12189.7	11257
828.8418	670.5716	12171.25	11246.6
828.9865	672.6786	12193.2	11256.95
829.1313	674.785	12160	11223.65
829.2761	676.8907	12156.85	11227.8
829.4209	678.9958	12183.25	11256.2
829.5657	681.1002	12170.55	11234
829.7105	683.204	12201.95	11261.35
829.8553	685.3072	12151.85	11213.75
830.0001	687.4097	12125.55	11190.9
830.1449	689.5115	12082.45	11148.95
830.2898	691.6127	12059.6	11122.65
830.4346	693.7132	12040	11109
830.5794	695.8131	12056.75	11113.75
830.7243	697.9123	12080.3	11141.85
830.8691	700.0109	12059.5	11117.75
831.014	702.1089	12105.5	11165.85
831.1588	704.2061	12109.5	11176.25
831.3037	706.3028	12170.7	11230.7
831.4486	708.3987	12222.35	11280.1
831.5935	710.4941	12270.6	11331.55
831.7383	712.5887	12356.4	11417.8
831.8832	714.6827	12496.5	11557.6
832.0281	716.7761	12675.85	11740.3
832.173	718.8688	12961.4	12026.6
832.3179	720.9608	13104.35	12158.25
832.4628	723.0522	13194.3	12244
832.6077	725.1429	13209.05	12266.9
832.7527	727.233	13157.75	12216.2
832.8976	729.3224	13165.8	12223.05
833.0425	731.4112	13017	12076.5
833.1874	733.4993	12819.9	11883.45
833.3324	735.5867	12642.55	11701.6
833.4773	737.6735	12429.25	11486.9
833.6222	739.7596	12299.15	11357.6
833.7672	741.845	12204.8	11265.75
833.9122	743.9298	12169.1	11229.7
834.0571	746.014	12134	11191.75
834.2021	748.0974	12110.25	11165.25
834.347	750.1802	12069.2	11121.35
834.492	752.2624	12105.6	11157.6
834.637	754.3439	12184.2	11237.4
834.782	756.4247	12289	11333
834.9269	758.5048	12422.25	11474.7
835.0719	760.5843	12701.55	11752.9
835.2169	762.6631	13085.25	12136.05
835.3619	764.7413	13652.55	12707.7
835.5069	766.8188	14317.7	13372.85
835.6519	768.8956	14862.55	13912.55
835.7969	770.9718	15208.5	14261.3
835.9419	773.0473	15123.55	14179.25
836.0869	775.1221	14839.7	13896.05
836.232	777.1962	14526.95	13578.75
836.377	779.2697	14398.05	13452.55
836.522	781.3426	14429.85	13470.1
836.667	783.4147	14564.5	13618.05
836.8121	785.4862	14745.25	13795.25
836.9571	787.557	14609.4	13658.4
837.1021	789.6271	14184.65	13233.8
837.2472	791.6966	13636.35	12685.7
837.3922	793.7654	13032.4	12084
837.5373	795.8335	12629.3	11685.8
837.6823	797.901	12370.3	11421.65
837.8274	799.9678	12254.35	11299.55
837.9724	802.0339	12169.8	11218.7
838.1175	804.0993	12152.25	11191.55
838.2626	806.1641	12102.6	11152.2
838.4076	808.2282	12082.05	11134.9
838.5527	810.2916	12001.05	11048.7
838.6978	812.3544	11889.5	10943.5
838.8428	814.4164	11862.5	10916.15
838.9879	816.4778	11893.75	10940.05
839.133	818.5385	11880.95	10928.85
839.2781	820.5986	12025	11076.05
839.4232	822.658	12234.5	11279.5
839.5682	824.7166	12478.6	11528.05
839.7133	826.7747	12931.9	11977.75
839.8584	828.832	13351.45	12402.35
840.0035	830.8886	13662.2	12708.25
840.1486	832.9446	13816.55	12860.55
840.2937	834.9999	13743.85	12791.05
840.4388	837.0545	13564.4	12606.55
840.5839	839.1085	13310.35	12354.4
840.729	841.1618	13068.85	12110.7
840.8741	843.2143	12909.3	11954.45
841.0192	845.2662	12711.05	11758.7
841.1643	847.3175	12614.6	11661.95
841.3095	849.368	12496.85	11540.3
841.4546	851.4179	12402.85	11448.85
841.5997	853.467	12290.45	11339.3
841.7448	855.5155	12197.9	11244.8
841.8899	857.5633	12127.65	11173.55
842.0351	859.6105	12028.1	11072.45
842.1802	861.6569	11961.35	11003.9
842.3253	863.7027	11917.85	10960.05
842.4704	865.7478	11876.75	10923.85
842.6156	867.7922	11828.6	10871.35
842.7607	869.8359	11863.75	10907.15
842.9058	871.8789	11916.55	10958.85
843.0509	873.9212	12040.95	11051.5
843.1961	875.9629	12121.35	11163.8
843.3412	878.0039	12264.2	11308.2
843.4863	880.0441	12368.1	11415.6
843.6315	882.0837	12407.1	11452.2
843.7766	884.1226	12375.4	11417.7
843.9218	886.1609	12396.3	11443.5
844.0669	888.1984	12443.2	11483.75
844.212	890.2352	12530.95	11574.75
844.3572	892.2714	12542.55	11580.05
844.5023	894.3069	12489.3	11531.85
844.6475	896.3416	12356.4	11399.4
844.7926	898.3757	12254.5	11296.7
844.9377	900.4091	12197.2	11237.15
845.0829	902.4418	12165.95	11204.5
845.228	904.4739	12219.6	11255.85
845.3732	906.5052	12260.1	11297.1
845.5183	908.5358	12178.85	11217.3
845.6635	910.5658	12030.15	11070
845.8086	912.595	11849.35	10893.65
845.9538	914.6236	11665.85	10705.85
846.0989	916.6515	11544.3	10585.8
846.2441	918.6786	11480.05	10519.35
846.3892	920.7051	11470.75	10513.25
846.5344	922.7309	11562.3	10603.2
846.6795	924.756	11599.55	10641.4
846.8246	926.7804	11682.1	10722.5
846.9698	928.8041	11678.4	10721.8
847.1149	930.8272	11760	10800.3
847.2601	932.8495	11697.75	10736.2
847.4052	934.8711	11704.75	10743.9
847.5504	936.892	11592.3	10633
847.6955	938.9123	11522.15	10563.3
847.8407	940.9318	11538.85	10582.35
847.9858	942.9506	11494.15	10530.8
848.131	944.9688	11413.55	10455.95
848.2761	946.9862	11332.3	10372.6
848.4213	949.003	11196.35	10236.05
848.5664	951.019	11153.05	10195.4
848.7115	953.0344	11128.15	10168.2
848.8567	955.0491	11115.15	10157.6
849.0018	957.063	11169.05	10209.25
849.147	959.0763	11278.75	10319.55
849.2921	961.0888	11301.45	10341.15
849.4373	963.1007	11367.55	10414.85
849.5824	965.1119	11392.4	10446
849.7275	967.1223	11403.15	10461.8
849.8727	969.1321	11398.45	10457.7
850.0178	971.1412	11397.55	10445.5
850.1629	973.1495	11392.8	10439.1
850.3081	975.1572	11447.9	10445.5
850.4532	977.1641	11445.3	10484.35
850.5983	979.1704	11429.45	10469.25
850.7435	981.1759	11423.55	10462.25
850.8886	983.1808	11424.25	10465
851.0337	985.1849	11480.7	10512.6
851.1788	987.1884	11555.85	10596.3
851.324	989.1911	11669.95	10710.2
851.4691	991.1932	11773.25	10814.15
851.6142	993.1945	11781.8	10826
851.7593	995.1951	11749.8	10792.15
851.9045	997.1951	11754.05	10787.3
852.0496	999.1943	11669.9	10714.2
852.1947	1001.1928	11671.55	10714.7
852.3398	1003.1906	11704.15	10746.2
852.4849	1005.1877	11798.35	10838.1
852.63	1007.1841	11861.8	10904.1
852.7751	1009.1798	11856.05	10900.45
852.9202	1011.1748	11734.85	10778.75
853.0653	1013.1691	11581.7	10624.75
853.2104	1015.1627	11368.15	10415.45
853.3555	1017.1556	11166.3	10212.1
853.5006	1019.1477	11042.75	10092.5
853.6457	1021.1392	10924.55	9976.1
853.7908	1023.1299	10901.45	9957.6
853.9359	1025.12	10898.4	9960.65
854.081	1027.1093	10956.6	10029.7
854.2261	1029.0979	11083.85	10161.85
854.3712	1031.0859	11183.1	10252.2
854.5163	1033.0731	11203.6	10264.6
854.6613	1035.0596	11168.75	10221.3
854.8064	1037.0454	11018.2	10067.9
854.9515	1039.0304	10922.2	9970.75
855.0965	1041.0148	10783.15	9829.15
855.2416	1042.9985	10726.95	9771.45
855.3867	1044.9814	10677.65	9722
855.5317	1046.9636	10610.5	9654.85
855.6768	1048.9452	10588.1	9634.7
855.8219	1050.926	10617.45	9663.3
855.9669	1052.9061	10642.95	9687.85
856.112	1054.8855	10681.4	9726.6
856.257	1056.8642	10716.45	9760.8
856.4021	1058.8421	10765.95	9803.95
856.5471	1060.8194	10801.75	9845.05
856.6921	1062.7959	10831.95	9877.55
856.8372	1064.7717	10885.95	9928.6
856.9822	1066.7469	10950.1	9993.75
857.1272	1068.7213	11002.9	10045.4
857.2723	1070.695	11054.4	10101.05
857.4173	1072.6679	11044.75	10090.75
857.5623	1074.6402	11034.9	10078.3
857.7073	1076.6117	10992.7	10033.35
857.8523	1078.5826	10932	9973.6
857.9973	1080.5527	10854	9891.95
858.1423	1082.5221	10804.35	9848.25
858.2873	1084.4908	10856	9900.1
858.4323	1086.4587	10930.65	9977.2
858.5773	1088.426	11022	10064.75
858.7223	1090.3925	11024.8	10061.5
858.8673	1092.3584	11031	10076
859.0123	1094.3235	10983.1	10030.95
859.1573	1096.2879	11065.85	10111.35
859.3022	1098.2515	11113.95	10162.5
859.4472	1100.2145	11241.2	10286.05
859.5922	1102.1767	11390.25	10431.65
859.7371	1104.1382	11637.95	10685.8
859.8821	1106.099	11864.5	10907.85
860.027	1108.0591	12062.8	11109.7
860.172	1110.0185	12229.05	11270.55
860.3169	1111.9771	12288.6	11334.6
860.4619	1113.9351	12181.25	11229.8
860.6068	1115.8923	12008.5	11053.9
860.7517	1117.8488	11786.4	10831.3
860.8967	1119.8045	11578.95	10623.6
861.0416	1121.7596	11443.8	10489.2
861.1865	1123.7139	11334.95	10382.85
861.3314	1125.6675	11305.45	10351.1
861.4763	1127.6204	11359.15	10407
861.6212	1129.5726	11304.35	10348.75
861.7661	1131.524	11248.6	10298.85
861.911	1133.4748	11142.2	10188.85
862.0559	1135.4248	10989.9	10033.65
862.2008	1137.3741	10894.05	9940.05
862.3457	1139.3226	10801.5	9846.4
862.4905	1141.2705	10747.65	9793
862.6354	1143.2176	10647.15	9687.15
862.7803	1145.164	10639.3	9682.05
862.9251	1147.1097	10583.55	9629.2
863.07	1149.0546	10519.15	9563.7
863.2148	1150.9989	10427.95	9474.85
863.3597	1152.9424	10324.6	9369.6
863.5045	1154.8852	10216.75	9262.15
863.6493	1156.8272	10160.75	9204.15
863.7942	1158.7686	10160.6	9197.7
863.939	1160.7092	10176.05	9219.25
864.0838	1162.6491	10167.75	9214.2
864.2286	1164.5883	10279.15	9326.7
864.3734	1166.5267	10374.15	9418.9
864.5182	1168.4644	10559.85	9606.9
864.663	1170.4014	10709.75	9754.75
864.8078	1172.3377	10976.45	10025.5
864.9526	1174.2732	11263.05	10313.1
865.0974	1176.2081	11648.05	10698.15
865.2421	1178.1421	12060.35	11105.45
865.3869	1180.0755	12497.6	11547.05
865.5317	1182.0082	12808.5	11856.9
865.6764	1183.9401	12944.8	11996.7
