Software Version:	3.9.2.0
Unit SN:	10000200
Spectrometer SN:	6960
Date:	3/8/2024 12:43:10 PM
Data Line Index:	25
Spectral Points:	2048
Integration time (ms):	125
Averages:	20
Delay (ms):	30000
Sequence Number:	1
Processing:	dark subtract
Laser Power (mW):	300
Laser Current (mA):	822
Laser Diode Temp (C):	25.1
Laser Case Temp (C):	26.1
System Temp (C):	26.1
Spectrometer Temp (C):	24
CCD Temp (C):	0.007
Secondary Temp (C):	20.01
Heatsink Temp (C):	21.081
CCDPCB Temp (C):	36.007
SecondaryPCB Temp (C):	29.715

Wavelength	RamanShift	Raw Counts	Dark Subtracted
787.061	30.1047	453.2	44.45
787.2016	32.3739	455.15	48.5
787.3422	34.6426	459.35	50.7
787.4828	36.9109	463.9	53.1
787.6235	39.1787	474.5	61.35
787.7642	41.4461	482.6	62.7
787.9049	43.7131	493.8	73.15
788.0456	45.9796	501.5	77.6
788.1863	48.2456	509.2	81.85
788.3271	50.5112	517.95	85
788.4679	52.7764	526.55	91.2
788.6087	55.0411	538.45	98.85
788.7496	57.3054	548.85	103.1
788.8904	59.5692	557.25	108.2
789.0313	61.8326	565.7	115.2
789.1722	64.0955	582.25	130.2
789.3132	66.3579	599	141.2
789.4541	68.6199	616.05	154.4
789.5951	70.8815	654.8	188.7
789.7361	73.1426	737.05	267.15
789.8771	75.4032	948.85	472.6
790.0181	77.6634	1471.8	990.2
790.1592	79.9231	2695.55	2204.45
790.3003	82.1824	5338.8	4829.15
790.4414	84.4412	10073.4	9529.8
790.5825	86.6995	16514.6	15919.75
790.7237	88.9574	22748.5	22118.05
790.8648	91.2148	26889.55	26227.9
791.006	93.4717	28712.85	28037
791.1472	95.7282	28906.4	28222.5
791.2885	97.9842	28581.25	27892.1
791.4297	100.2398	27815.15	27124.4
791.571	102.4949	26960.9	26268.55
791.7123	104.7495	25936	25238.4
791.8536	107.0036	25003.5	24307.75
791.9949	109.2573	24160.5	23464.9
792.1363	111.5105	23420.85	22723.35
792.2777	113.7632	22700.4	21995.05
792.4191	116.0154	22141.25	21427.35
792.5605	118.2672	21716.55	21009.45
792.7019	120.5185	21321.45	20615.75
792.8434	122.7693	20995.4	20283.2
792.9849	125.0197	20751.65	20038.45
793.1264	127.2696	20502.15	19784.85
793.2679	129.519	20294.75	19572.95
793.4094	131.7679	20016.9	19291.45
793.551	134.0163	19735.1	19007.2
793.6926	136.2642	19377.1	18648.2
793.8342	138.5117	18987.8	18243.8
793.9758	140.7587	18583.6	17847.75
794.1175	143.0052	18236.8	17497.55
794.2591	145.2512	17861.7	17121.8
794.4008	147.4967	17539.1	16802.8
794.5425	149.7417	17321.3	16580.15
794.6842	151.9863	17113.55	16366.9
794.826	154.2304	17042.65	16295.55
794.9677	156.4739	16804.9	16048.35
795.1095	158.717	16745.45	15991.05
795.2513	160.9596	16539.45	15778
795.3931	163.2017	16301.2	15539.25
795.535	165.4433	15989.55	15229.5
795.6768	167.6844	15653.2	14885.55
795.8187	169.925	15335.35	14572.4
795.9606	172.1651	15004.55	14236.95
796.1025	174.4047	14745.85	13974.85
796.2445	176.6439	14466.5	13694.3
796.3864	178.8825	14260.6	13482.35
796.5284	181.1206	14114.75	13330.75
796.6704	183.3582	14001.9	13212.25
796.8124	185.5954	13916.75	13130.3
796.9544	187.832	13831.7	13041.1
797.0965	190.0681	13799.35	13003.65
797.2386	192.3037	13787.6	12989.5
797.3806	194.5388	13781.55	12979.75
797.5228	196.7734	13859.75	13054.9
797.6649	199.0075	13903.35	13095.2
797.807	201.2411	14019.6	13212.75
797.9492	203.4742	14107.95	13299
798.0914	205.7068	14268.95	13458.6
798.2336	207.9389	14393	13577.1
798.3758	210.1704	14533.3	13723.4
798.518	212.4015	14639.4	13846.7
798.6603	214.632	14780.8	13992.1
798.8025	216.862	14913.35	14123.45
798.9448	219.0915	15004.45	14212.55
799.0871	221.3205	15099.1	14303.75
799.2294	223.549	15213.2	14424.3
799.3718	225.777	15269.5	14479.1
799.5141	228.0044	15389.15	14593
799.6565	230.2314	15544.2	14744.95
799.7989	232.4578	15619.8	14824.85
799.9413	234.6837	15738.9	14934.8
800.0837	236.909	15806.1	14992.55
800.2262	239.1339	15786.45	14951.95
800.3687	241.3582	15729.2	14907.2
800.5111	243.582	15634.6	14785.55
800.6536	245.8053	15573.65	14737.6
800.7961	248.0281	15534	14707.9
800.9387	250.2503	15519.9	14685.35
801.0812	252.472	15551.25	14716.2
801.2238	254.6932	15673.9	14839.1
801.3664	256.9139	15795.15	14955.85
801.509	259.134	16008.05	15160.8
801.6516	261.3536	16256.8	15414.5
801.7942	263.5727	16560.55	15716.15
801.9369	265.7912	16862.6	16019.75
802.0795	268.0092	17184.5	16339.05
802.2222	270.2267	17398.1	16557.1
802.3649	272.4436	17506.8	16663.5
802.5076	274.6601	17507.35	16652.35
802.6504	276.8759	17428.9	16583.3
802.7931	279.0913	17346.75	16499.1
802.9359	281.3061	17205.25	16353.95
803.0787	283.5204	17183.8	16327.75
803.2215	285.7341	17150.95	16292.95
803.3643	287.9473	17171.75	16299.05
803.5071	290.16	17213.1	16354.95
803.6499	292.3721	17304	16444.2
803.7928	294.5837	17485.55	16625.3
803.9357	296.7947	17700.25	16842.15
804.0786	299.0052	17891	17034.35
804.2215	301.2152	17838.6	16979.65
804.3644	303.4246	17704.1	16845.7
804.5074	305.6334	17339	16484.45
804.6503	307.8418	16939.4	16081.1
804.7933	310.0495	16531.05	15666.4
804.9363	312.2568	16110.4	15249.05
805.0793	314.4635	15678.85	14812.9
805.2223	316.6696	15405.55	14537.4
805.3653	318.8752	15182.55	14302.65
805.5084	321.0802	15096.65	14224.3
805.6514	323.2847	15087.3	14213.2
805.7945	325.4887	15115.75	14241.05
805.9376	327.692	15078.35	14203.1
806.0807	329.8949	15070.35	14195.5
806.2238	332.0972	14881.5	14009.25
806.367	334.2989	14694.35	13812.8
806.5101	336.5001	14451	13574.2
806.6533	338.7007	14215.85	13336.95
806.7965	340.9008	14085.2	13207.05
806.9397	343.1003	13883.1	12999.6
807.0829	345.2992	13781.65	12899.15
807.2261	347.4976	13674.85	12787.7
807.3693	349.6955	13602.15	12708.6
807.5126	351.8927	13585	12696.5
807.6559	354.0895	13525.6	12626.75
807.7991	356.2856	13472.25	12578.75
807.9424	358.4812	13424.95	12535.4
808.0857	360.6763	13416.45	12527.5
808.2291	362.8707	13393.3	12499.15
808.3724	365.0646	13437.1	12542.2
808.5158	367.258	13492.7	12594.35
808.6591	369.4508	13570	12669.5
808.8025	371.643	13693.7	12792.75
808.9459	373.8346	13780.95	12879.1
809.0893	376.0257	13842.45	12937.6
809.2327	378.2162	13856.9	12955.7
809.3762	380.4062	13900.85	13002.7
809.5196	382.5956	13782.9	12882.7
809.6631	384.7844	13655.25	12758.1
809.8066	386.9726	13529.85	12639.35
809.9501	389.1603	13433.55	12544.2
810.0936	391.3474	13412.3	12489.45
810.2371	393.5339	13349.6	12451.55
810.3806	395.7199	13312.1	12416.95
810.5241	397.9052	13352.1	12460.25
810.6677	400.09	13467.8	12576.05
810.8113	402.2743	13595.3	12701.95
810.9548	404.4579	13763	12868.85
811.0984	406.641	13969.4	13076.9
811.2421	408.8235	14145.95	13251.55
811.3857	411.0054	14286	13384.7
811.5293	413.1868	14434.25	13524.7
811.673	415.3675	14485.2	13578.45
811.8166	417.5477	14473.7	13565.85
811.9603	419.7273	14435.25	13526.15
812.104	421.9064	14349.2	13437.2
812.2477	424.0848	14298.45	13390.15
812.3914	426.2627	14174.35	13266.05
812.5351	428.4399	13915.4	13010.05
812.6788	430.6166	13618.7	12707.35
812.8226	432.7928	13269	12354.1
812.9663	434.9683	12961.25	12051.55
813.1101	437.1432	12740.25	11830.85
813.2539	439.3176	12577.35	11675.15
813.3977	441.4914	12485.8	11588.65
813.5415	443.6645	12404.2	11501.15
813.6853	445.8371	12369.1	11459.65
813.8291	448.0091	12327.1	11416.6
813.973	450.1806	12319.4	11412.75
814.1168	452.3514	12290.8	11385.4
814.2607	454.5216	12318.75	11400.65
814.4046	456.6913	12302.5	11395.8
814.5485	458.8603	12366.4	11461.25
814.6924	461.0288	12399.5	11496.95
814.8363	463.1967	12380.75	11484.4
814.9802	465.3639	12421.1	11522.6
815.1241	467.5306	12390.5	11488.05
815.2681	469.6967	12387.3	11487.95
815.412	471.8622	12438.45	11539.1
815.556	474.0271	12460.4	11555.85
815.7	476.1914	12504.5	11590.35
815.844	478.3551	12500.15	11590.85
815.988	480.5182	12561.9	11657.15
816.132	482.6807	12620.85	11722.3
816.276	484.8426	12826.2	11933.35
816.4201	487.0039	13182.6	12288.3
816.5641	489.1647	13531.7	12622.55
816.7082	491.3248	13878.3	12969.4
816.8522	493.4843	13981.55	13078.55
816.9963	495.6432	13947.65	13042.05
817.1404	497.8015	13818.9	12904.45
817.2845	499.9592	13673	12751.4
817.4286	502.1163	13494.3	12570.4
817.5727	504.2728	13164.2	12253.9
817.7168	506.4287	12868.6	11967.05
817.861	508.5839	12570.2	11669.05
818.0051	510.7386	12354.05	11442.85
818.1493	512.8927	12269	11350.2
818.2935	515.0461	12264	11351.65
818.4377	517.199	12349.8	11434.05
818.5818	519.3512	12535.45	11615
818.726	521.5029	12816.25	11894.2
818.8703	523.6539	13042.7	12127.9
819.0145	525.8043	13178	12257.1
819.1587	527.9541	13100.9	12175.55
819.303	530.1033	12928.3	12008.75
819.4472	532.2519	12767.7	11847.95
819.5915	534.3999	12677.4	11756.35
819.7357	536.5472	12719.8	11805.7
819.88	538.694	12883.85	11967.3
820.0243	540.8401	13162.5	12234.7
820.1686	542.9856	13383.55	12450.25
820.3129	545.1305	13438.15	12496.95
820.4572	547.2748	13339.55	12400.15
820.6016	549.4185	13173.3	12231.3
820.7459	551.5615	13064.9	12123.85
820.8902	553.704	13076.4	12140.6
821.0346	555.8458	13141.5	12209.1
821.1789	557.987	13327.95	12397.65
821.3233	560.1276	13551.15	12621.6
821.4677	562.2675	13994.35	13065.05
821.6121	564.4069	14529.45	13598.25
821.7565	566.5456	14973.3	14043.15
821.9009	568.6837	15135	14210.5
822.0453	570.8212	14730.7	13802.9
822.1897	572.958	14049.75	13121.1
822.3342	575.0942	13394.4	12470.25
822.4786	577.2299	12896.1	11975.85
822.6231	579.3648	12671.3	11768.85
822.7675	581.4992	12622.5	11726.35
822.912	583.6329	12699.8	11804.85
823.0565	585.766	12866	11965.2
823.201	587.8985	13020.8	12111.25
823.3454	590.0304	13100.9	12154.3
823.4899	592.1616	13019.55	12086
823.6345	594.2922	12923.25	11987.8
823.779	596.4222	12725.1	11790.7
823.9235	598.5515	12513.15	11576.4
824.068	600.6802	12372.4	11435.15
824.2126	602.8083	12205.9	11273.35
824.3571	604.9358	12156.35	11218.1
824.5017	607.0626	12174.35	11237.75
824.6462	609.1888	12289.35	11343.2
824.7908	611.3144	12446.4	11504
824.9354	613.4393	12606.7	11662.7
825.08	615.5636	12701.15	11760.05
825.2246	617.6873	12740.8	11799.85
825.3692	619.8103	12675.4	11733.8
825.5138	621.9327	12453.35	11515
825.6584	624.0544	12245.55	11314.45
825.803	626.1756	12052	11116.5
825.9477	628.2961	11890.75	10949.3
826.0923	630.4159	11820.05	10882.6
826.237	632.5351	11787	10842.25
826.3816	634.6537	11770.4	10823.95
826.5263	636.7716	11800.2	10849.1
826.6709	638.8889	11797.9	10845
826.8156	641.0056	11820.5	10871.35
826.9603	643.1216	11793.85	10843.8
827.105	645.237	11783.1	10835.75
827.2497	647.3518	11665.9	10729.25
827.3944	649.4659	11575.8	10644.45
827.5391	651.5793	11541.55	10607.8
827.6838	653.6922	11509.4	10577.6
827.8285	655.8043	11481.7	10545.55
827.9733	657.9159	11520.8	10582.95
828.118	660.0268	11477.35	10542.9
828.2627	662.137	11487.35	10545.25
828.4075	664.2466	11505.45	10554.7
828.5522	666.3556	11486.2	10537.95
828.697	668.4639	11422.45	10482.6
828.8418	670.5716	11373.25	10439.55
828.9865	672.6786	11350.75	10412.15
829.1313	674.785	11311.45	10361.9
829.2761	676.8907	11262.5	10320.7
829.4209	678.9958	11249.45	10310.85
829.5657	681.1002	11246.5	10300.3
829.7105	683.204	11259.05	10302.25
829.8553	685.3072	11223.75	10272.1
830.0001	687.4097	11206.05	10257.45
830.1449	689.5115	11205.1	10255.75
830.2898	691.6127	11165.15	10218.55
830.4346	693.7132	11170.95	10229.25
830.5794	695.8131	11203.45	10244.05
830.7243	697.9123	11198.95	10246.2
830.8691	700.0109	11243.45	10288.35
831.014	702.1089	11294.05	10344.15
831.1588	704.2061	11342.8	10395.4
831.3037	706.3028	11393.75	10444.3
831.4486	708.3987	11428.55	10479.2
831.5935	710.4941	11458.75	10512.25
831.7383	712.5887	11515.8	10564.95
831.8832	714.6827	11586.2	10636.7
832.0281	716.7761	11702.4	10757.25
832.173	718.8688	11833.05	10887.9
832.3179	720.9608	11991.45	11031.05
832.4628	723.0522	12121.7	11159.65
832.6077	725.1429	12193.6	11234.5
832.7527	727.233	12289.65	11333.1
832.8976	729.3224	12347.05	11392.4
833.0425	731.4112	12286.15	11332.85
833.1874	733.4993	12153.5	11200.4
833.3324	735.5867	11933.1	10977.55
833.4773	737.6735	11716.6	10762.75
833.6222	739.7596	11507.6	10555.2
833.7672	741.845	11368.6	10415.3
833.9122	743.9298	11256.85	10306.95
834.0571	746.014	11236.25	10285.1
834.2021	748.0974	11220.3	10262.25
834.347	750.1802	11224.5	10264.05
834.492	752.2624	11226.5	10270
834.637	754.3439	11294.35	10332.55
834.782	756.4247	11417.1	10452.75
834.9269	758.5048	11565.8	10604.3
835.0719	760.5843	11857.25	10894.5
835.2169	762.6631	12247.85	11286.75
835.3619	764.7413	12831.05	11877.05
835.5069	766.8188	13571.45	12611.75
835.6519	768.8956	14143.75	13182.85
835.7969	770.9718	14547.2	13590.7
835.9419	773.0473	14486.15	13528.7
836.0869	775.1221	14255.45	13299.5
836.232	777.1962	13969.3	13008.75
836.377	779.2697	13914.95	12950.9
836.522	781.3426	13968.2	12995.2
836.667	783.4147	14065.95	13105.65
836.8121	785.4862	14122.3	13163.6
836.9571	787.557	13947.25	12982
837.1021	789.6271	13447.1	12483.55
837.2472	791.6966	12833.25	11870.5
837.3922	793.7654	12195.75	11237.3
837.5373	795.8335	11770.45	10809.05
837.6823	797.901	11470.25	10507.35
837.8274	799.9678	11292.25	10329.1
837.9724	802.0339	11207.95	10247.15
838.1175	804.0993	11164.2	10189.05
838.2626	806.1641	11073.2	10108.75
838.4076	808.2282	11002.35	10042.25
838.5527	810.2916	10922.75	9961.7
838.6978	812.3544	10849.6	9889.6
838.8428	814.4164	10803	9844
838.9879	816.4778	10836.3	9871.3
839.133	818.5385	10884.5	9918.65
839.2781	820.5986	11030.8	10064
839.4232	822.658	11262.45	10297.15
839.5682	824.7166	11600.9	10634.6
839.7133	826.7747	12168.25	11203.6
839.8584	828.832	12697	11734.7
840.0035	830.8886	13117.3	12151.85
840.1486	832.9446	13310.2	12340.8
840.2937	834.9999	13184.15	12219.95
840.4388	837.0545	12871.95	11903.45
840.5839	839.1085	12503.1	11537.45
840.729	841.1618	12150.1	11181.95
840.8741	843.2143	11916.9	10952.1
841.0192	845.2662	11671.25	10707.7
841.1643	847.3175	11510.55	10542.5
841.3095	849.368	11409.4	10443.7
841.4546	851.4179	11296.35	10327.65
841.5997	853.467	11222.6	10254.7
841.7448	855.5155	11168.25	10202.2
841.8899	857.5633	11070.3	10107.85
842.0351	859.6105	10965.2	10000.4
842.1802	861.6569	10932	9968.3
842.3253	863.7027	10831.1	9860.25
842.4704	865.7478	10785.7	9810.8
842.6156	867.7922	10750.15	9782.2
842.7607	869.8359	10707.05	9738.7
842.9058	871.8789	10731.75	9760.55
843.0509	873.9212	10842.95	9842.95
843.1961	875.9629	10861.8	9892.15
843.3412	878.0039	11003.4	10032.45
843.4863	880.0441	11102.85	10136.1
843.6315	882.0837	11172.35	10203.2
843.7766	884.1226	11189.15	10215.85
843.9218	886.1609	11257.65	10291.25
844.0669	888.1984	11345.9	10380.3
844.212	890.2352	11482.1	10512.45
844.3572	892.2714	11541.7	10567.9
844.5023	894.3069	11477.45	10507.85
844.6475	896.3416	11278.55	10310.5
844.7926	898.3757	11140.1	10167.05
844.9377	900.4091	11067.35	10097.7
845.0829	902.4418	11048.4	10074.6
845.228	904.4739	11065.9	10094.05
845.3732	906.5052	11124.55	10157.7
845.5183	908.5358	11077.9	10105.15
845.6635	910.5658	10966.95	9990.55
845.8086	912.595	10738.05	9765.3
845.9538	914.6236	10525.95	9553.5
846.0989	916.6515	10395.95	9426.35
846.2441	918.6786	10279.2	9307.35
846.3892	920.7051	10281.2	9310.7
846.5344	922.7309	10321.25	9349.95
846.6795	924.756	10339.65	9369.45
846.8246	926.7804	10420.7	9448.85
846.9698	928.8041	10406.25	9433.55
847.1149	930.8272	10504.3	9532.15
847.2601	932.8495	10457.8	9485
847.4052	934.8711	10429.1	9453
847.5504	936.892	10409.9	9438.75
847.6955	938.9123	10405.15	9431.25
847.8407	940.9318	10427.5	9456.85
847.9858	942.9506	10431.5	9460.25
848.131	944.9688	10393.8	9424.75
848.2761	946.9862	10274.3	9305.15
848.4213	949.003	10113.3	9135.55
848.5664	951.019	10019.7	9044.8
848.7115	953.0344	9960.2	8988.2
848.8567	955.0491	9928.95	8953.8
849.0018	957.063	9990.25	9019.65
849.147	959.0763	10070.5	9099.75
849.2921	961.0888	10075.3	9106.55
849.4373	963.1007	10135.05	9169.4
849.5824	965.1119	10126.75	9166.5
849.7275	967.1223	10130.7	9180.6
849.8727	969.1321	10093.25	9141
850.0178	971.1412	10092.05	9131.45
850.1629	973.1495	10098.15	9132.65
850.3081	975.1572	10099.15	9087.3
850.4532	977.1641	10131.3	9158.65
850.5983	979.1704	10119.1	9151.2
850.7435	981.1759	10085.3	9108.65
850.8886	983.1808	10073.2	9102
851.0337	985.1849	10081.7	9098.25
851.1788	987.1884	10160.25	9191.2
851.324	989.1911	10244.4	9274.6
851.4691	991.1932	10304.1	9335.15
851.6142	993.1945	10328.6	9361.05
851.7593	995.1951	10267.85	9297.25
851.9045	997.1951	10240.1	9262.85
852.0496	999.1943	10219.3	9249.4
852.1947	1001.1928	10206.55	9235
852.3398	1003.1906	10273.35	9300.4
852.4849	1005.1877	10368.05	9400.15
852.63	1007.1841	10451.65	9483.1
852.7751	1009.1798	10506.05	9537.6
852.9202	1011.1748	10436.85	9467.3
853.0653	1013.1691	10248.45	9279.6
853.2104	1015.1627	10069	9101.55
853.3555	1017.1556	9853.85	8890.9
853.5006	1019.1477	9752.15	8788.15
853.6457	1021.1392	9603.35	8645.6
853.7908	1023.1299	9582	8627.4
853.9359	1025.12	9590.7	8640.15
854.081	1027.1093	9625.8	8687.45
854.2261	1029.0979	9740.65	8807.3
854.3712	1031.0859	9853.9	8913.6
854.5163	1033.0731	9911.05	8958.7
854.6613	1035.0596	9882.2	8926.4
854.8064	1037.0454	9760.3	8799.55
854.9515	1039.0304	9666.6	8701.6
855.0965	1041.0148	9543.6	8578.1
855.2416	1042.9985	9441.45	8475.2
855.3867	1044.9814	9402.95	8440.6
855.5317	1046.9636	9339.15	8372.35
855.6768	1048.9452	9311.3	8349.1
855.8219	1050.926	9387.05	8422.15
855.9669	1052.9061	9411.25	8445.55
856.112	1054.8855	9395.15	8427.05
856.257	1056.8642	9484.1	8516.8
856.4021	1058.8421	9507.75	8538.1
856.5471	1060.8194	9556.45	8588.85
856.6921	1062.7959	9590.5	8621.7
856.8372	1064.7717	9660.55	8695.55
856.9822	1066.7469	9741.85	8773.9
857.1272	1068.7213	9841.2	8872.95
857.2723	1070.695	9867.5	8900.45
857.4173	1072.6679	9908.95	8944.5
857.5623	1074.6402	9943.6	8975.65
857.7073	1076.6117	9902	8927.35
857.8523	1078.5826	9813.55	8845.15
857.9973	1080.5527	9665.35	8698.05
858.1423	1082.5221	9563	8596.9
858.2873	1084.4908	9514.45	8551.2
858.4323	1086.4587	9503.85	8540.45
858.5773	1088.426	9544.1	8577.2
858.7223	1090.3925	9566.95	8599.15
858.8673	1092.3584	9587.45	8622
859.0123	1094.3235	9640.75	8677.2
859.1573	1096.2879	9704.45	8736.7
859.3022	1098.2515	9844.05	8880.75
859.4472	1100.2145	10034.75	9065.85
859.5922	1102.1767	10207.25	9237.85
859.7371	1104.1382	10444.45	9480.4
859.8821	1106.099	10717.95	9751.5
860.027	1108.0591	10938.45	9975.15
860.172	1110.0185	11098.35	10131.9
860.3169	1111.9771	11155.65	10189.55
860.4619	1113.9351	11093.2	10126.05
860.6068	1115.8923	10963.1	9998.2
860.7517	1117.8488	10824.9	9857.85
860.8967	1119.8045	10637.7	9674.35
861.0416	1121.7596	10507.3	9544.6
861.1865	1123.7139	10378	9418.2
861.3314	1125.6675	10314.4	9354
861.4763	1127.6204	10333	9369.65
861.6212	1129.5726	10278.1	9315.1
861.7661	1131.524	10198.45	9235.15
861.911	1133.4748	10050.1	9084.5
862.0559	1135.4248	9842.35	8880.9
862.2008	1137.3741	9703.2	8740.2
862.3457	1139.3226	9585.15	8622.3
862.4905	1141.2705	9525.45	8562.3
862.6354	1143.2176	9438.8	8468
862.7803	1145.164	9415.7	8451.55
862.9251	1147.1097	9324.8	8359.1
863.07	1149.0546	9235.4	8271.35
863.2148	1150.9989	9117	8150.45
863.3597	1152.9424	9048	8084.6
863.5045	1154.8852	8942.75	7983.6
863.6493	1156.8272	8907.25	7946.4
863.7942	1158.7686	8936.6	7962.7
863.939	1160.7092	8937.15	7976.05
864.0838	1162.6491	8994.45	8029.55
864.2286	1164.5883	9119.85	8154.85
864.3734	1166.5267	9229.25	8263.5
864.5182	1168.4644	9379.15	8416.15
864.663	1170.4014	9573.8	8609.75
864.8078	1172.3377	9853.2	8893
864.9526	1174.2732	10136.95	9179.15
865.0974	1176.2081	10568.2	9603.9
865.2421	1178.1421	11091.1	10126.4
865.3869	1180.0755	11652.5	10692.1
865.5317	1182.0082	12049.5	11089.95
865.6764	1183.9401	12224.65	11263.85
865.8212	1185.8713	12075.75	11123.7
865.9659	1187.8017	11725.1	10779.4
866.1106	1189.7315	11319.05	10382
866.2554	1191.6605	10880.75	9948
866.4001	1193.5888	10584.95	9641.45
866.5448	1195.5163	10429.5	9478.3
