Software Version:	3.9.2.0
Unit SN:	10000200
Spectrometer SN:	6960
Date:	3/8/2024 11:50:03 AM
Data Line Index:	25
Spectral Points:	2048
Integration time (ms):	125
Averages:	20
Delay (ms):	30000
Sequence Number:	1
Processing:	dark subtract
Laser Power (mW):	300
Laser Current (mA):	822
Laser Diode Temp (C):	25.1
Laser Case Temp (C):	25.4
System Temp (C):	25.4
Spectrometer Temp (C):	23.2
CCD Temp (C):	0.008
Secondary Temp (C):	20.01
Heatsink Temp (C):	19.947
CCDPCB Temp (C):	35.262
SecondaryPCB Temp (C):	27.559

Wavelength	RamanShift	Raw Counts	Dark Subtracted
787.061	30.1047	413.5	3.9
787.2016	32.3739	413.6	7.6
787.3422	34.6426	413.35	5.3
787.4828	36.9109	415.2	5.75
787.6235	39.1787	418.55	3.85
787.7642	41.4461	426.35	6.45
787.9049	43.7131	430.65	8.7
788.0456	45.9796	433	8
788.1863	48.2456	440.4	12.7
788.3271	50.5112	440.55	8.3
788.4679	52.7764	445.4	10.55
788.6087	55.0411	450.2	8.8
788.7496	57.3054	455.5	9.05
788.8904	59.5692	458.4	11.1
789.0313	61.8326	462.8	13.4
789.1722	64.0955	467.9	15.2
789.3132	66.3579	474.3	17.5
789.4541	68.6199	482.55	20.9
789.5951	70.8815	491.7	24.5
789.7361	73.1426	508.75	39.95
789.8771	75.4032	541.3	67.7
790.0181	77.6634	612.4	136.7
790.1592	79.9231	775.85	295.05
790.3003	82.1824	1123.8	632.95
790.4414	84.4412	1691.6	1186.65
790.5825	86.6995	2400.7	1874.75
790.7237	88.9574	3072.4	2530.6
790.8648	91.2148	3525.8	2970.05
791.006	93.4717	3715.55	3153.6
791.1472	95.7282	3747.1	3181.15
791.2885	97.9842	3717.45	3149.8
791.4297	100.2398	3664.7	3096.05
791.571	102.4949	3607.3	3035.95
791.7123	104.7495	3571.4	2995.8
791.8536	107.0036	3513.05	2935.5
791.9949	109.2573	3434.85	2859.55
792.1363	111.5105	3352.5	2775.55
792.2777	113.7632	3243.75	2663.75
792.4191	116.0154	3151.1	2558.9
792.5605	118.2672	3032.85	2447.35
792.7019	120.5185	2926.3	2340.45
792.8434	122.7693	2843.6	2251.1
792.9849	125.0197	2760.85	2163.8
793.1264	127.2696	2676.85	2077.45
793.2679	129.519	2645.5	2042.2
793.4094	131.7679	2621.35	2020.65
793.551	134.0163	2595.55	1991.15
793.6926	136.2642	2588.65	1981
793.8342	138.5117	2576.9	1958.05
793.9758	140.7587	2540.45	1924.25
794.1175	143.0052	2490	1872.15
794.2591	145.2512	2454.45	1833.35
794.4008	147.4967	2391.1	1772.55
794.5425	149.7417	2357.9	1735.55
794.6842	151.9863	2331.95	1707.15
794.826	154.2304	2326.4	1696.4
794.9677	156.4739	2327.85	1692
795.1095	158.717	2335.4	1699.65
795.2513	160.9596	2358.55	1715.65
795.3931	163.2017	2375.3	1736.7
795.535	165.4433	2384.7	1741
795.6768	167.6844	2373.5	1726.35
795.8187	169.925	2347.7	1698.75
795.9606	172.1651	2292.5	1636.5
796.1025	174.4047	2240.3	1583.05
796.2445	176.6439	2194.8	1537.2
796.3864	178.8825	2170.6	1510.7
796.5284	181.1206	2160.2	1499
796.6704	183.3582	2153.25	1484.4
796.8124	185.5954	2152.45	1483.45
796.9544	187.832	2149.95	1473.5
797.0965	190.0681	2157.2	1480.05
797.2386	192.3037	2152.05	1470.1
797.3806	194.5388	2166.9	1482.9
797.5228	196.7734	2169.5	1483
797.6649	199.0075	2186.45	1500.65
797.807	201.2411	2204.2	1516.4
797.9492	203.4742	2231.65	1543.75
798.0914	205.7068	2265.25	1570.85
798.2336	207.9389	2284.9	1588.5
798.3758	210.1704	2289.25	1604.7
798.518	212.4015	2290.9	1615.4
798.6603	214.632	2273.05	1600.9
798.8025	216.862	2287.05	1617.4
798.9448	219.0915	2288.4	1614.95
799.0871	221.3205	2313.1	1635.55
799.2294	223.549	2310.5	1639.85
799.3718	225.777	2310.95	1641.75
799.5141	228.0044	2311.75	1631.45
799.6565	230.2314	2301.1	1617.8
799.7989	232.4578	2287.95	1603.15
799.9413	234.6837	2274.25	1580.75
800.0837	236.909	2261.5	1567.7
800.2262	239.1339	2271.6	1550.45
800.3687	241.3582	2252.9	1549.35
800.5111	243.582	2282.3	1547.35
800.6536	245.8053	2283.9	1558.55
800.7961	248.0281	2272.25	1554.4
800.9387	250.2503	2279.15	1558.4
801.0812	252.472	2295.3	1573.7
801.2238	254.6932	2312.45	1590.9
801.3664	256.9139	2319.55	1595.25
801.509	259.134	2334.85	1606.65
801.6516	261.3536	2347.25	1623.65
801.7942	263.5727	2392.7	1665.65
801.9369	265.7912	2452.1	1727.95
802.0795	268.0092	2504.65	1782.45
802.2222	270.2267	2561.35	1837.8
802.3649	272.4436	2606.35	1875.7
802.5076	274.6601	2643.1	1900.5
802.6504	276.8759	2659.05	1925
802.7931	279.0913	2677.3	1939.65
802.9359	281.3061	2695.4	1959.2
803.0787	283.5204	2725.6	1983.05
803.2215	285.7341	2733.05	1987.5
803.3643	287.9473	2758.8	2014.1
803.5071	290.16	2750.35	2002.8
803.6499	292.3721	2723.85	1981.7
803.7928	294.5837	2686.3	1941.55
803.9357	296.7947	2667.8	1925.9
804.0786	299.0052	2653.8	1909.5
804.2215	301.2152	2635.4	1886.8
804.3644	303.4246	2630.85	1888.85
804.5074	305.6334	2603.2	1862.35
804.6503	307.8418	2578.8	1831.05
804.7933	310.0495	2546.6	1797.8
804.9363	312.2568	2520.55	1769.5
805.0793	314.4635	2468.1	1714.55
805.2223	316.6696	2426.7	1671.4
805.3653	318.8752	2383.65	1619
805.5084	321.0802	2347.85	1592.25
805.6514	323.2847	2344.7	1587
805.7945	325.4887	2359.55	1602.6
805.9376	327.692	2381.25	1621.9
806.0807	329.8949	2420.8	1657.15
806.2238	332.0972	2451.25	1688.7
806.367	334.2989	2479.85	1713.05
806.5101	336.5001	2472.3	1705.05
806.6533	338.7007	2443.8	1677.35
806.7965	340.9008	2397.1	1628.35
806.9397	343.1003	2329.85	1560.1
807.0829	345.2992	2300.25	1530.45
807.2261	347.4976	2258.85	1484.6
807.3693	349.6955	2228.2	1451.85
807.5126	351.8927	2212.65	1435
807.6559	354.0895	2203.25	1415.05
807.7991	356.2856	2186.5	1408.4
807.9424	358.4812	2177.3	1396.5
808.0857	360.6763	2176.7	1395.35
808.2291	362.8707	2167.7	1382.35
808.3724	365.0646	2178.65	1392.2
808.5158	367.258	2195.95	1408.1
808.6591	369.4508	2204.05	1415.25
808.8025	371.643	2232.75	1442.4
808.9459	373.8346	2255.2	1463.3
809.0893	376.0257	2293.1	1499.65
809.2327	378.2162	2314.7	1519.8
809.3762	380.4062	2324.6	1527.25
809.5196	382.5956	2302.8	1508.3
809.6631	384.7844	2253.4	1466.3
809.8066	386.9726	2230.25	1442.75
809.9501	389.1603	2196.5	1415.35
810.0936	391.3474	2212.75	1397.35
810.2371	393.5339	2195.6	1409.2
810.3806	395.7199	2184.6	1397.25
810.5241	397.9052	2208.6	1424.05
810.6677	400.09	2250.4	1463.3
810.8113	402.2743	2294.6	1505.5
810.9548	404.4579	2340.35	1551.8
811.0984	406.641	2392	1599.35
811.2421	408.8235	2418.15	1624.85
811.3857	411.0054	2467	1674.75
811.5293	413.1868	2541.3	1740.25
811.673	415.3675	2590	1786.1
811.8166	417.5477	2574.8	1771
811.9603	419.7273	2532.5	1727.7
812.104	421.9064	2439.95	1626.1
812.2477	424.0848	2379	1571.3
812.3914	426.2627	2322.35	1515.95
812.5351	428.4399	2259.35	1455.95
812.6788	430.6166	2211	1402.35
812.8226	432.7928	2164.65	1352.4
812.9663	434.9683	2118.5	1307.15
813.1101	437.1432	2090.1	1275.8
813.2539	439.3176	2081.2	1275.9
813.3977	441.4914	2068.6	1258.95
813.5415	443.6645	2059.85	1251.35
813.6853	445.8371	2072.05	1260.6
813.8291	448.0091	2072.3	1260.6
813.973	450.1806	2068.1	1254.45
814.1168	452.3514	2065.05	1251.55
814.2607	454.5216	2067.95	1244.4
814.4046	456.6913	2060.8	1242.2
814.5485	458.8603	2070.05	1254.4
814.6924	461.0288	2066	1252.05
814.8363	463.1967	2066.75	1252.6
814.9802	465.3639	2057.45	1242.25
815.1241	467.5306	2063.35	1248.85
815.2681	469.6967	2048.7	1233.55
815.412	471.8622	2036.1	1218.9
815.556	474.0271	2037.75	1222.65
815.7	476.1914	2036.3	1215.3
815.844	478.3551	2036.95	1221
815.988	480.5182	2041.7	1221.4
816.132	482.6807	2033.25	1216.75
816.276	484.8426	2055.3	1241.15
816.4201	487.0039	2108.65	1292.35
816.5641	489.1647	2157	1336.55
816.7082	491.3248	2197.75	1375.7
816.8522	493.4843	2212.9	1392
816.9963	495.6432	2205.85	1383.25
817.1404	497.8015	2182	1355.8
817.2845	499.9592	2129.85	1303.05
817.4286	502.1163	2090.3	1264
817.5727	504.2728	2036.8	1211.7
817.7168	506.4287	2018.85	1196.4
817.861	508.5839	2002.4	1178.25
818.0051	510.7386	1996.25	1169.95
818.1493	512.8927	2003.6	1168.1
818.2935	515.0461	2008.55	1179.2
818.4377	517.199	2036.2	1207.9
818.5818	519.3512	2073.65	1244.85
818.726	521.5029	2135.9	1301.05
818.8703	523.6539	2199.05	1367.3
819.0145	525.8043	2198.45	1365.9
819.1587	527.9541	2148.8	1312.7
819.303	530.1033	2083.55	1249.4
819.4472	532.2519	2032.85	1198.15
819.5915	534.3999	2009	1172.65
819.7357	536.5472	2007	1169.5
819.88	538.694	2006.4	1172.45
820.0243	540.8401	2028.8	1191.5
820.1686	542.9856	2045.6	1204.85
820.3129	545.1305	2059	1219.45
820.4572	547.2748	2070.8	1232.05
820.6016	549.4185	2082.6	1239.1
820.7459	551.5615	2092.4	1251.05
820.8902	553.704	2103.95	1263.45
821.0346	555.8458	2116.5	1277.45
821.1789	557.987	2139.75	1301.95
821.3233	560.1276	2160.9	1318.15
821.4677	562.2675	2222	1380.9
821.6121	564.4069	2273.85	1434.2
821.7565	566.5456	2310.45	1473.1
821.9009	568.6837	2295.5	1456.25
822.0453	570.8212	2226.15	1388.6
822.1897	572.958	2152.45	1311.4
822.3342	575.0942	2103.2	1260.6
822.4786	577.2299	2069.35	1229.35
822.6231	579.3648	2041.05	1204.65
822.7675	581.4992	2021.5	1189.8
822.912	583.6329	2033.3	1198.55
823.0565	585.766	2059.15	1221.2
823.201	587.8985	2111.85	1276.1
823.3454	590.0304	2169	1316.3
823.4899	592.1616	2188.2	1340.55
823.6345	594.2922	2175.3	1326.2
823.779	596.4222	2134.05	1287.4
823.9235	598.5515	2082.05	1234.85
824.068	600.6802	2035.8	1188.45
824.2126	602.8083	1986.7	1136.95
824.3571	604.9358	1988.8	1141.9
824.5017	607.0626	1976.3	1127.65
824.6462	609.1888	1993.85	1142.8
824.7908	611.3144	2016.45	1163.85
824.9354	613.4393	2061.05	1212.4
825.08	615.5636	2097.55	1247.65
825.2246	617.6873	2151.3	1301.5
825.3692	619.8103	2183.65	1331.65
825.5138	621.9327	2177.6	1324.6
825.6584	624.0544	2133.15	1284.85
825.803	626.1756	2083.75	1234.2
825.9477	628.2961	2040.75	1187.4
826.0923	630.4159	2015.55	1159.5
826.237	632.5351	2011.75	1158
826.3816	634.6537	2009.8	1154.6
826.5263	636.7716	1988.85	1128.3
826.6709	638.8889	1996.85	1140.1
826.8156	641.0056	1995.7	1138.3
826.9603	643.1216	2001.15	1143
827.105	645.237	2002	1144.55
827.2497	647.3518	1976.65	1122.6
827.3944	649.4659	1964.1	1110.35
827.5391	651.5793	1946.3	1090.85
827.6838	653.6922	1923.7	1069.5
827.8285	655.8043	1916.8	1060.85
827.9733	657.9159	1910.4	1053.15
828.118	660.0268	1901.85	1043.15
828.2627	662.137	1894.95	1036
828.4075	664.2466	1904.75	1039.5
828.5522	666.3556	1899.6	1037.6
828.697	668.4639	1892	1031.3
828.8418	670.5716	1879.05	1020.85
828.9865	672.6786	1880.05	1020.1
829.1313	674.785	1877.4	1011.85
829.2761	676.8907	1868.45	1005.3
829.4209	678.9958	1872.7	1013.05
829.5657	681.1002	1873.2	1010.75
829.7105	683.204	1866.55	998.45
829.8553	685.3072	1872.8	1010.45
830.0001	687.4097	1869.45	1005.35
830.1449	689.5115	1862.2	995.3
830.2898	691.6127	1862.35	999.5
830.4346	693.7132	1862.8	999.55
830.5794	695.8131	1884.45	996.55
830.7243	697.9123	1877.4	1011.7
830.8691	700.0109	1885.9	1017.45
831.014	702.1089	1887.25	1023.55
831.1588	704.2061	1904.95	1041.25
831.3037	706.3028	1927.75	1058.6
831.4486	708.3987	1935.55	1067.9
831.5935	710.4941	1948.9	1083.25
831.7383	712.5887	1963.05	1094.5
831.8832	714.6827	1947.8	1078.7
832.0281	716.7761	1950.85	1084.3
832.173	718.8688	1951.25	1084
832.3179	720.9608	1952.8	1082.7
832.4628	723.0522	1973.55	1099.15
832.6077	725.1429	1979.8	1110.25
832.7527	727.233	2036.25	1165.45
832.8976	729.3224	2094.3	1224.1
833.0425	731.4112	2138.25	1266.55
833.1874	733.4993	2156.1	1283.3
833.3324	735.5867	2086.1	1214.3
833.4773	737.6735	2030.15	1158.45
833.6222	739.7596	1978.6	1105.15
833.7672	741.845	1941.75	1070.55
833.9122	743.9298	1934.9	1060.35
834.0571	746.014	1950.25	1079.55
834.2021	748.0974	1958.5	1082.8
834.347	750.1802	1955.9	1082.25
834.492	752.2624	1945	1071.5
834.637	754.3439	1936.1	1060
834.782	756.4247	1934.95	1051.25
834.9269	758.5048	1929.8	1055.25
835.0719	760.5843	1962.65	1085.85
835.2169	762.6631	1988.45	1113.4
835.3619	764.7413	2050	1174.2
835.5069	766.8188	2124.3	1247.05
835.6519	768.8956	2200.6	1326.15
835.7969	770.9718	2265.15	1391.6
835.9419	773.0473	2256.9	1381.2
836.0869	775.1221	2236.1	1361.6
836.232	777.1962	2214.7	1338.7
836.377	779.2697	2280.25	1402.45
836.522	781.3426	2371.1	1475.1
836.667	783.4147	2415.75	1538.5
836.8121	785.4862	2400.7	1525.4
836.9571	787.557	2308.35	1430.8
837.1021	789.6271	2194.3	1314.95
837.2472	791.6966	2062.9	1183.4
837.3922	793.7654	1979.4	1099.75
837.5373	795.8335	1930.85	1054.4
837.6823	797.901	1899.7	1021.65
837.8274	799.9678	1886.15	1005.55
837.9724	802.0339	1890	1012.1
838.1175	804.0993	1898.3	1010.95
838.2626	806.1641	1884.75	1004.75
838.4076	808.2282	1865	987.65
838.5527	810.2916	1851.75	970.15
838.6978	812.3544	1831.1	951.85
838.8428	814.4164	1824.95	948.3
838.9879	816.4778	1837	955.45
839.133	818.5385	1846.9	964.8
839.2781	820.5986	1881.5	999
839.4232	822.658	1926.4	1043.1
839.5682	824.7166	1984.1	1104.8
839.7133	826.7747	2076.25	1195.7
839.8584	828.832	2155	1275.7
840.0035	830.8886	2209.1	1327.45
840.1486	832.9446	2242.5	1358.45
840.2937	834.9999	2202.6	1323.7
840.4388	837.0545	2133.95	1246.95
840.5839	839.1085	2059.1	1175.4
840.729	841.1618	1984.25	1098.85
840.8741	843.2143	1932	1045.55
841.0192	845.2662	1891	1009.65
841.1643	847.3175	1878	994.75
841.3095	849.368	1851.05	969.05
841.4546	851.4179	1874.7	990.5
841.5997	853.467	1864.2	981.6
841.7448	855.5155	1867.3	982.2
841.8899	857.5633	1878.15	996.05
842.0351	859.6105	1852.95	971.25
842.1802	861.6569	1862.5	979.5
842.3253	863.7027	1843.8	957.25
842.4704	865.7478	1827.25	940.75
842.6156	867.7922	1822.85	938.55
842.7607	869.8359	1814.15	925.4
842.9058	871.8789	1808.45	922.15
843.0509	873.9212	1850.6	933.25
843.1961	875.9629	1820.45	932.95
843.3412	878.0039	1834.35	948.4
843.4863	880.0441	1839.9	955
843.6315	882.0837	1870.7	984.8
843.7766	884.1226	1881.3	994.65
843.9218	886.1609	1919.1	1033.65
844.0669	888.1984	1976.35	1092.75
844.212	890.2352	2008.55	1124.6
844.3572	892.2714	2019.35	1130.7
844.5023	894.3069	1998.15	1109.4
844.6475	896.3416	1952.95	1068.5
844.7926	898.3757	1892.6	1004.95
844.9377	900.4091	1884.75	995.4
845.0829	902.4418	1893.8	1000.8
845.228	904.4739	1899.9	1008.95
845.3732	906.5052	1909.6	1022
845.5183	908.5358	1904.85	1016.85
845.6635	910.5658	1885.3	994.15
845.8086	912.595	1849.5	963.25
845.9538	914.6236	1821.25	932.85
846.0989	916.6515	1795.45	904.95
846.2441	918.6786	1771.3	879.45
846.3892	920.7051	1757.8	865.9
846.5344	922.7309	1760.6	872
846.6795	924.756	1763.55	871.65
846.8246	926.7804	1769.7	877.95
846.9698	928.8041	1788.2	896
847.1149	930.8272	1799.05	909.95
847.2601	932.8495	1810.2	916.25
847.4052	934.8711	1812.2	920.05
847.5504	936.892	1827.05	937.2
847.6955	938.9123	1846.5	952.4
847.8407	940.9318	1858.8	966.2
847.9858	942.9506	1879.9	989.2
848.131	944.9688	1871.85	981.2
848.2761	946.9862	1843	952.6
848.4213	949.003	1809.45	919.05
848.5664	951.019	1788.5	894.75
848.7115	953.0344	1776.4	884.85
848.8567	955.0491	1765.75	871.95
849.0018	957.063	1758.85	868.35
849.147	959.0763	1755	864.75
849.2921	961.0888	1754.5	860.8
849.4373	963.1007	1749.7	859.6
849.5824	965.1119	1747.5	860.25
849.7275	967.1223	1731	847.85
849.8727	969.1321	1723.6	838.9
850.0178	971.1412	1729.75	837.75
850.1629	973.1495	1726.4	835.1
850.3081	975.1572	1752.75	828.1
850.4532	977.1641	1725.55	835.65
850.5983	979.1704	1726.15	834.3
850.7435	981.1759	1732.15	836.45
850.8886	983.1808	1723.9	830.25
851.0337	985.1849	1722.35	818.8
851.1788	987.1884	1707.85	812.2
851.324	989.1911	1723.4	828.2
851.4691	991.1932	1726.05	834.3
851.6142	993.1945	1721.1	829.45
851.7593	995.1951	1720.5	828.4
851.9045	997.1951	1715.85	815.7
852.0496	999.1943	1709.1	818.25
852.1947	1001.1928	1725.15	832.75
852.3398	1003.1906	1728.65	836.5
852.4849	1005.1877	1751.55	858.2
852.63	1007.1841	1774.2	881.45
852.7751	1009.1798	1793.95	903.95
852.9202	1011.1748	1772.95	879.9
853.0653	1013.1691	1760.05	867.35
853.2104	1015.1627	1726.9	834.75
853.3555	1017.1556	1696.15	802.2
853.5006	1019.1477	1677	783.5
853.6457	1021.1392	1662.5	775.75
853.7908	1023.1299	1646.05	756.15
853.9359	1025.12	1654	766.7
854.081	1027.1093	1656.95	772.5
854.2261	1029.0979	1673.6	791.15
854.3712	1031.0859	1689.9	803.25
854.5163	1033.0731	1704.05	815.05
854.6613	1035.0596	1706.8	817.55
854.8064	1037.0454	1700.3	808
854.9515	1039.0304	1689.5	797.05
855.0965	1041.0148	1674.8	780.3
855.2416	1042.9985	1647.2	751.9
855.3867	1044.9814	1643.05	752.1
855.5317	1046.9636	1643.15	745.45
855.6768	1048.9452	1657.35	765.75
855.8219	1050.926	1665.85	774.2
855.9669	1052.9061	1671.45	781.05
856.112	1054.8855	1687.2	795
856.257	1056.8642	1676.65	781.2
856.4021	1058.8421	1677.1	783.05
856.5471	1060.8194	1669.4	775.35
856.6921	1062.7959	1674.6	781.95
856.8372	1064.7717	1673.3	778.05
856.9822	1066.7469	1672.85	777.3
857.1272	1068.7213	1681.8	785.45
857.2723	1070.695	1692	800.6
857.4173	1072.6679	1712	816.7
857.5623	1074.6402	1734.15	840.15
857.7073	1076.6117	1740	839.2
857.8523	1078.5826	1708.1	810.85
857.9973	1080.5527	1678.7	782.15
858.1423	1082.5221	1656.25	762.1
858.2873	1084.4908	1635.55	742.15
858.4323	1086.4587	1615.15	720.25
858.5773	1088.426	1605.9	707.55
858.7223	1090.3925	1607.7	707.8
858.8673	1092.3584	1612.4	715.6
859.0123	1094.3235	1615.4	720.3
859.1573	1096.2879	1639.25	743.75
859.3022	1098.2515	1663.7	769.2
859.4472	1100.2145	1692.55	796.8
859.5922	1102.1767	1722.75	828.1
859.7371	1104.1382	1767.05	874.3
859.8821	1106.099	1817.3	923.9
860.027	1108.0591	1854.3	959.9
860.172	1110.0185	1901.85	1005.25
860.3169	1111.9771	1929.6	1033.85
860.4619	1113.9351	1978.85	1082.6
860.6068	1115.8923	2021.45	1127.7
860.7517	1117.8488	2050.25	1154.15
860.8967	1119.8045	1993.9	1099.5
861.0416	1121.7596	1911.2	1017.15
861.1865	1123.7139	1826.85	936.75
861.3314	1125.6675	1767.35	874.1
861.4763	1127.6204	1772.2	878.8
861.6212	1129.5726	1789.55	892.35
861.7661	1131.524	1778.85	881.95
861.911	1133.4748	1746.45	851
862.0559	1135.4248	1697.1	800.25
862.2008	1137.3741	1639.7	746.05
862.3457	1139.3226	1623.3	727.15
862.4905	1141.2705	1626.8	733
862.6354	1143.2176	1634.8	734.15
862.7803	1145.164	1650.05	753.25
862.9251	1147.1097	1633.4	737.65
863.07	1149.0546	1617.35	720.3
863.2148	1150.9989	1590.95	695.9
863.3597	1152.9424	1585.8	690.7
863.5045	1154.8852	1563.1	667.8
863.6493	1156.8272	1561.4	664.6
863.7942	1158.7686	1571.55	669.35
863.939	1160.7092	1560.7	662.4
864.0838	1162.6491	1558.4	660.35
864.2286	1164.5883	1580	683.65
864.3734	1166.5267	1590.65	692.85
864.5182	1168.4644	1611.5	715.6
864.663	1170.4014	1652.8	755.45
864.8078	1172.3377	1688.7	794
864.9526	1174.2732	1730.75	836.85
865.0974	1176.2081	1827.35	933.8
865.2421	1178.1421	1939.5	1039.7
865.3869	1180.0755	2033.4	1137.35
865.5317	1182.0082	2087.25	1193.3
865.6764	1183.9401	2061.9	1164.05
865.8212	1185.8713	1962.3	1069.7
865.9659	1187.8017	1842.5	949.45
866.1106	1189.7315	1752.7	865.45
866.2554	1191.6605	1711.9	794.5
866.4001	1193.5888	1643	753.05
866.5448	1195.5163	1618.45	725.9
866.6895	1197.4432	1599.5	705.65
866.8342	1199.3693	1587.85	690.95
866.9789	1201.2947	1582.1	683.8
867.1236	1203.2193	1561.25	664.55
867.2683	1205.1432	1559.4	664.5
867.413	1207.0664	1558.6	663.05
867.5576	1208.9889	1559.95	661.05
867.7023	1210.9106	1561.35	663.2
867.847	1212.8316	1567.65	674.05
867.9916	1214.7519	1585.65	680.8
868.1363	1216.6715	1597.6	702.65
868.2809	1218.5903	1605	708.95
868.4255	1220.5084	1619.75	724.85
868.5701	1222.4257	1631.3	736
868.7148	1224.3424	1641.85	747.6
868.8594	1226.2583	1671.65	770.5
869.004	1228.1735	1690.55	794.25
869.1486	1230.0879	1722.95	824.15
869.2932	1232.0016	1774.7	878.4
869.4377	1233.9146	1809.85	912.35
869.5823	1235.8269	1815.6	920.35
869.7269	1237.7384	1822.4	927.25
869.8715	1239.6492	1825.1	928.7
870.016	1241.5592	1845.85	948.6
870.1606	1243.4686	1898.6	1004.15
870.3051	1245.3772	1969.65	1074.95
870.4496	1247.285	2050.75	1154.5
870.5941	1249.1922	2122.2	1225.55
870.7387	1251.0986	2203.3	1306.55
870.8832	1253.0042	2253.65	1358.4
871.0277	1254.9092	2345.85	1449.25
