Software Version:	3.9.2.0
Unit SN:	10000200
Spectrometer SN:	6960
Date:	3/8/2024 2:02:46 PM
Data Line Index:	25
Spectral Points:	2048
Integration time (ms):	125
Averages:	20
Delay (ms):	30000
Sequence Number:	1
Processing:	dark subtract
Laser Power (mW):	300
Laser Current (mA):	822
Laser Diode Temp (C):	25
Laser Case Temp (C):	26.2
System Temp (C):	26.2
Spectrometer Temp (C):	24.1
CCD Temp (C):	0.009
Secondary Temp (C):	20.007
Heatsink Temp (C):	20.681
CCDPCB Temp (C):	36.251
SecondaryPCB Temp (C):	30.416

Wavelength	RamanShift	Raw Counts	Dark Subtracted
787.061	30.1047	461.65	56.15
787.2016	32.3739	461.6	58.7
787.3422	34.6426	470.85	64.35
787.4828	36.9109	479.2	69.95
787.6235	39.1787	484.35	74.2
787.7642	41.4461	496.6	79.7
787.9049	43.7131	501.25	82.55
788.0456	45.9796	511.25	88.95
788.1863	48.2456	519.6	93.75
788.3271	50.5112	529.9	99.05
788.4679	52.7764	543.7	109.2
788.6087	55.0411	553.65	114.45
788.7496	57.3054	567.05	121.9
788.8904	59.5692	577.9	132.2
789.0313	61.8326	586.7	139.45
789.1722	64.0955	598.4	145.7
789.3132	66.3579	619.15	162.25
789.4541	68.6199	641.2	180.4
789.5951	70.8815	676.3	208.85
789.7361	73.1426	763.65	294.15
789.8771	75.4032	969.45	495.6
790.0181	77.6634	1497.6	1019.6
790.1592	79.9231	2737.2	2252.6
790.3003	82.1824	5467.05	4963
790.4414	84.4412	10338.6	9807.5
790.5825	86.6995	17025.9	16458.1
790.7237	88.9574	23547.25	22946.55
790.8648	91.2148	28053.55	27438.15
791.006	93.4717	30142	29510.95
791.1472	95.7282	30661.05	30022.65
791.2885	97.9842	30617.6	29976.4
791.4297	100.2398	30132.5	29486.45
791.571	102.4949	29580.7	28931.75
791.7123	104.7495	28864.1	28210.85
791.8536	107.0036	28043.65	27391.25
791.9949	109.2573	27320.25	26669.05
792.1363	111.5105	26587.55	25933
792.2777	113.7632	25895.6	25238
792.4191	116.0154	25290.45	24624.2
792.5605	118.2672	24854.1	24189.8
792.7019	120.5185	24385.1	23720.6
792.8434	122.7693	24059.25	23388.4
792.9849	125.0197	23746.85	23076.15
793.1264	127.2696	23508.85	22834
793.2679	129.519	23381.9	22701.3
793.4094	131.7679	23155.95	22473.6
793.551	134.0163	23065.2	22380.9
793.6926	136.2642	22844.8	22157.85
793.8342	138.5117	22655.05	21962.75
793.9758	140.7587	22441.65	21748.55
794.1175	143.0052	22268.4	21574.1
794.2591	145.2512	22047.8	21355.4
794.4008	147.4967	21842.7	21144.85
794.5425	149.7417	21702.3	21003.6
794.6842	151.9863	21598.5	20896.2
794.826	154.2304	21574.9	20866.2
794.9677	156.4739	21390.55	20675.6
795.1095	158.717	21326.6	20615.35
795.2513	160.9596	21213.2	20494.9
795.3931	163.2017	20990.35	20273.75
795.535	165.4433	20693	19975.3
795.6768	167.6844	20379.65	19657.25
795.8187	169.925	20101.7	19375.5
795.9606	172.1651	19721.8	18996.1
796.1025	174.4047	19457.9	18727.85
796.2445	176.6439	19183.85	18450.55
796.3864	178.8825	18972.5	18239.65
796.5284	181.1206	18844.1	18100.75
796.6704	183.3582	18720.5	17972.55
796.8124	185.5954	18579.6	17833.25
796.9544	187.832	18509.15	17757.1
797.0965	190.0681	18503.1	17745.85
797.2386	192.3037	18503.05	17745.7
797.3806	194.5388	18525.75	17765
797.5228	196.7734	18578.95	17816.2
797.6649	199.0075	18667.8	17907.8
797.807	201.2411	18828.55	18063.8
797.9492	203.4742	18882.3	18112.5
798.0914	205.7068	19043.15	18268.25
798.2336	207.9389	19178.6	18409.9
798.3758	210.1704	19366.65	18602.35
798.518	212.4015	19463.2	18714.7
798.6603	214.632	19663.75	18912.55
798.8025	216.862	19862.85	19113.85
798.9448	219.0915	20028	19279
799.0871	221.3205	20264.05	19508.05
799.2294	223.549	20536.6	19785.9
799.3718	225.777	20862.85	20110.75
799.5141	228.0044	21299.9	20542.4
799.6565	230.2314	21733.95	20972.9
799.7989	232.4578	22109.15	21346.8
799.9413	234.6837	22516.85	21748.95
800.0837	236.909	22772.05	22001.95
800.2262	239.1339	22747.85	21953.5
800.3687	241.3582	22542.1	21760.05
800.5111	243.582	22225.5	21411.1
800.6536	245.8053	21891.3	21089.9
800.7961	248.0281	21600.4	20809.05
800.9387	250.2503	21348.9	20552.2
801.0812	252.472	21218.7	20422.05
801.2238	254.6932	21168.75	20372.95
801.3664	256.9139	21084.6	20286.3
801.509	259.134	21112.8	20311.7
801.6516	261.3536	21098.4	20297.05
801.7942	263.5727	21165.05	20360.35
801.9369	265.7912	21135.1	20333.6
802.0795	268.0092	21165.65	20367.5
802.2222	270.2267	21120.35	20318.55
802.3649	272.4436	21109.85	20306.7
802.5076	274.6601	21099.1	20286.75
802.6504	276.8759	21018.5	20209.65
802.7931	279.0913	21000.45	20194.3
802.9359	281.3061	20926.35	20112.2
803.0787	283.5204	21013.6	20198.85
803.2215	285.7341	21107.25	20289.35
803.3643	287.9473	21336.35	20506.55
803.5071	290.16	21569.95	20750.7
803.6499	292.3721	21857.5	21046.25
803.7928	294.5837	22328.9	21509.8
803.9357	296.7947	22646.75	21830.4
804.0786	299.0052	22885.5	22062.85
804.2215	301.2152	22783.2	21964.7
804.3644	303.4246	22485.8	21668.15
804.5074	305.6334	21904.3	21089.1
804.6503	307.8418	21404.35	20588.95
804.7933	310.0495	20997.9	20173.95
804.9363	312.2568	20676.5	19852.05
805.0793	314.4635	20464.45	19638.15
805.2223	316.6696	20412.3	19584.9
805.3653	318.8752	20359.6	19523.7
805.5084	321.0802	20432.15	19604.15
805.6514	323.2847	20545.05	19712.5
805.7945	325.4887	20586.25	19752.2
805.9376	327.692	20523.9	19691.7
806.0807	329.8949	20479.2	19644.25
806.2238	332.0972	20231	19397.45
806.367	334.2989	19963.05	19126.5
806.5101	336.5001	19699.8	18861.35
806.6533	338.7007	19503.1	18661.95
806.7965	340.9008	19394.15	18549.3
806.9397	343.1003	19260.8	18419.45
807.0829	345.2992	19228.15	18380.6
807.2261	347.4976	19218.9	18378.75
807.3693	349.6955	19222.5	18372.95
807.5126	351.8927	19352.15	18501.5
807.6559	354.0895	19299.35	18435.5
807.7991	356.2856	19376.15	18526.1
807.9424	358.4812	19349.95	18499.15
808.0857	360.6763	19408.35	18554.75
808.2291	362.8707	19403.3	18547.75
808.3724	365.0646	19481.35	18626.3
808.5158	367.258	19490.2	18637.7
808.6591	369.4508	19499.2	18639.4
808.8025	371.643	19619.4	18758.65
808.9459	373.8346	19604.4	18741
809.0893	376.0257	19606.6	18741.45
809.2327	378.2162	19512.65	18653.4
809.3762	380.4062	19417.85	18557.5
809.5196	382.5956	19279.7	18425.25
809.6631	384.7844	19218.25	18365.75
809.8066	386.9726	19053.5	18203.6
809.9501	389.1603	19050.45	18199.8
810.0936	391.3474	19050.5	18174.4
810.2371	393.5339	19023.85	18164.25
810.3806	395.7199	18995.5	18139.75
810.5241	397.9052	19020.65	18162.2
810.6677	400.09	19050.15	18195
810.8113	402.2743	19133.3	18279.8
810.9548	404.4579	19220	18361.9
811.0984	406.641	19382.8	18526.75
811.2421	408.8235	19626.4	18765.2
811.3857	411.0054	19957.5	19095.9
811.5293	413.1868	20424.5	19561.45
811.673	415.3675	20736.3	19865.3
811.8166	417.5477	20946.9	20073.1
811.9603	419.7273	20988.2	20115.95
812.104	421.9064	20885.25	20004.85
812.2477	424.0848	20768.75	19897.4
812.3914	426.2627	20560.25	19689.05
812.5351	428.4399	20281.45	19408.8
812.6788	430.6166	19955.35	19076.55
812.8226	432.7928	19568.9	18696.25
812.9663	434.9683	19250.55	18378.35
813.1101	437.1432	19022.45	18151.05
813.2539	439.3176	18857.15	17991.75
813.3977	441.4914	18741.5	17877.75
813.5415	443.6645	18751.65	17880.6
813.6853	445.8371	18683.85	17810.4
813.8291	448.0091	18651.7	17781.35
813.973	450.1806	18585.6	17716.5
814.1168	452.3514	18545.2	17676.3
814.2607	454.5216	18578.45	17695.8
814.4046	456.6913	18497.25	17622.25
814.5485	458.8603	18555.25	17684.4
814.6924	461.0288	18621.45	17755
814.8363	463.1967	18628.75	17763.75
814.9802	465.3639	18791.15	17920.3
815.1241	467.5306	18884.4	18012.65
815.2681	469.6967	19015.8	18149.4
815.412	471.8622	19180.95	18313.9
815.556	474.0271	19361	18493.75
815.7	476.1914	19433.05	18556.2
815.844	478.3551	19425.4	18548.05
815.988	480.5182	19430.25	18561.85
816.132	482.6807	19473.9	18609.65
816.276	484.8426	19552.1	18692.05
816.4201	487.0039	19829.7	18966.35
816.5641	489.1647	20274.75	19401.25
816.7082	491.3248	20708	19833.9
816.8522	493.4843	20900.5	20030.55
816.9963	495.6432	20894.35	20019.9
817.1404	497.8015	20830.1	19949.35
817.2845	499.9592	20886.2	19996.9
817.4286	502.1163	20841.6	19956.95
817.5727	504.2728	20609.15	19728.5
817.7168	506.4287	20285.65	19416.25
817.861	508.5839	19888.45	19019.3
818.0051	510.7386	19555.15	18681.3
818.1493	512.8927	19418.4	18537.25
818.2935	515.0461	19308.1	18424.75
818.4377	517.199	19271.55	18388.35
818.5818	519.3512	19252.9	18362.9
818.726	521.5029	19362.2	18473.9
818.8703	523.6539	19391.25	18505.35
819.0145	525.8043	19473.85	18589.65
819.1587	527.9541	19498.95	18609.35
819.303	530.1033	19530.4	18647.95
819.4472	532.2519	19539.5	18654.35
819.5915	534.3999	19708.75	18822.85
819.7357	536.5472	19940.75	19054.1
819.88	538.694	20426.15	19544.95
820.0243	540.8401	21066.95	20177.55
820.1686	542.9856	21578.65	20680.85
820.3129	545.1305	21769.8	20868.45
820.4572	547.2748	21651.7	20746.4
820.6016	549.4185	21278.75	20376.7
820.7459	551.5615	20943.3	20041.7
820.8902	553.704	20814.65	19913.1
821.0346	555.8458	20708.1	19812.05
821.1789	557.987	20801.4	19904.35
821.3233	560.1276	20773.6	19875.65
821.4677	562.2675	20805.65	19908.55
821.6121	564.4069	20839.05	19942.45
821.7565	566.5456	20857.25	19960.9
821.9009	568.6837	20788.15	19894.15
822.0453	570.8212	20505.95	19612.1
822.1897	572.958	20213.75	19317.75
822.3342	575.0942	19919	19026.15
822.4786	577.2299	19689.25	18800
822.6231	579.3648	19676.9	18795.25
822.7675	581.4992	19725.7	18856.95
822.912	583.6329	19991.1	19123.55
823.0565	585.766	20186.7	19310.4
823.201	587.8985	20323.8	19444.2
823.3454	590.0304	20371.15	19469.95
823.4899	592.1616	20293.75	19397.35
823.6345	594.2922	20219.45	19318.45
823.779	596.4222	20082.9	19180.15
823.9235	598.5515	19914.65	19010.5
824.068	600.6802	19760.65	18853.75
824.2126	602.8083	19546.35	18644.35
824.3571	604.9358	19512	18611.9
824.5017	607.0626	19454.35	18547.5
824.6462	609.1888	19416.25	18503.85
824.7908	611.3144	19405.95	18494.6
824.9354	613.4393	19308.25	18398.15
825.08	615.5636	19214.9	18308.05
825.2246	617.6873	19130.2	18224.4
825.3692	619.8103	19114.05	18203.8
825.5138	621.9327	19015	18109.5
825.6584	624.0544	18975.3	18076.2
825.803	626.1756	18962.6	18061.55
825.9477	628.2961	18943.3	18036.7
826.0923	630.4159	18852.8	17941.1
826.237	632.5351	18880.3	17970.65
826.3816	634.6537	18815.3	17905.5
826.5263	636.7716	18815.15	17901.95
826.6709	638.8889	18844.9	17929.75
826.8156	641.0056	18885.2	17967.5
826.9603	643.1216	18882.2	17967.7
827.105	645.237	18939.2	18029.6
827.2497	647.3518	18902.05	17998.2
827.3944	649.4659	18935.65	18038.6
827.5391	651.5793	18980	18080.5
827.6838	653.6922	18952.2	18045.85
827.8285	655.8043	18959.7	18052.05
827.9733	657.9159	18959.65	18053.6
828.118	660.0268	18908.05	18000.75
828.2627	662.137	18829.8	17919.15
828.4075	664.2466	18800.85	17885.35
828.5522	666.3556	18847.95	17930.1
828.697	668.4639	18844.9	17935.5
828.8418	670.5716	18905.25	18000.2
828.9865	672.6786	18968.55	18052.4
829.1313	674.785	18999.9	18084.25
829.2761	676.8907	19094.65	18184.5
829.4209	678.9958	19179.75	18272.75
829.5657	681.1002	19146.85	18235.4
829.7105	683.204	19168.4	18245.9
829.8553	685.3072	19134.85	18213.85
830.0001	687.4097	19073.9	18158.9
830.1449	689.5115	19034.5	18117.85
830.2898	691.6127	19001.75	18086.4
830.4346	693.7132	18948	18035.75
830.5794	695.8131	18927.2	17995.2
830.7243	697.9123	18924.75	18001.95
830.8691	700.0109	18934.4	18012.9
831.014	702.1089	18909.7	17992.3
831.1588	704.2061	18924.85	18007.25
831.3037	706.3028	18964.05	18043.3
831.4486	708.3987	19016.55	18094.85
831.5935	710.4941	19132.45	18216.35
831.7383	712.5887	19278.9	18360.25
831.8832	714.6827	19611.3	18688.85
832.0281	716.7761	19958.05	19044.35
832.173	718.8688	20323.95	19405
832.3179	720.9608	20564.7	19639.25
832.4628	723.0522	20624.65	19693.8
832.6077	725.1429	20442.75	19522.2
832.7527	727.233	20222.4	19299.25
832.8976	729.3224	19939.95	19019.05
833.0425	731.4112	19687.95	18766.75
833.1874	733.4993	19482.5	18558.6
833.3324	735.5867	19331.05	18412.3
833.4773	737.6735	19236.55	18315.45
833.6222	739.7596	19154.45	18233.2
833.7672	741.845	19172.4	18251.35
833.9122	743.9298	19134.6	18211.95
834.0571	746.014	19144.55	18220.75
834.2021	748.0974	19185.4	18256.35
834.347	750.1802	19136.3	18207.8
834.492	752.2624	19156.35	18230.45
834.637	754.3439	19159.75	18230
834.782	756.4247	19284.5	18353.35
834.9269	758.5048	19397.15	18468.15
835.0719	760.5843	19631.15	18701.85
835.2169	762.6631	19911.6	18983.6
835.3619	764.7413	20350.3	19420.25
835.5069	766.8188	20968.4	20040.5
835.6519	768.8956	21387.55	20459.45
835.7969	770.9718	21731.3	20803.95
835.9419	773.0473	21581.7	20654.8
836.0869	775.1221	21288.4	20361.15
836.232	777.1962	20949.95	20021.7
836.377	779.2697	20755.55	19823.9
836.522	781.3426	20806.15	19859.65
836.667	783.4147	21034.15	20104.4
836.8121	785.4862	21343.6	20415.7
836.9571	787.557	21369.5	20435.2
837.1021	789.6271	21044.7	20113.2
837.2472	791.6966	20504.85	19574.95
837.3922	793.7654	19987.45	19056.55
837.5373	795.8335	19711.2	18781
837.6823	797.901	19495.05	18567.3
837.8274	799.9678	19435.4	18502.65
837.9724	802.0339	19432.9	18500.5
838.1175	804.0993	19524.8	18582.25
838.2626	806.1641	19506.8	18570.85
838.4076	808.2282	19474.55	18546.2
838.5527	810.2916	19425.9	18496.6
838.6978	812.3544	19321.6	18396
838.8428	814.4164	19245.7	18318.3
838.9879	816.4778	19280.55	18345.55
839.133	818.5385	19214.3	18278.9
839.2781	820.5986	19325.8	18392.15
839.4232	822.658	19456.8	18519.95
839.5682	824.7166	19534.35	18598.7
839.7133	826.7747	19808.4	18876
839.8584	828.832	20031.95	19099.2
840.0035	830.8886	20115.8	19177.8
840.1486	832.9446	20306.15	19371.5
840.2937	834.9999	20322.15	19388.05
840.4388	837.0545	20411.65	19469.3
840.5839	839.1085	20373.1	19435.85
840.729	841.1618	20354.4	19416.85
840.8741	843.2143	20312.9	19378.2
841.0192	845.2662	20197.8	19259.2
841.1643	847.3175	20197.7	19263.65
841.3095	849.368	20038.55	19106.1
841.4546	851.4179	19951.4	19017.55
841.5997	853.467	19837.4	18902.3
841.7448	855.5155	19734.4	18797.4
841.8899	857.5633	19645.9	18706.05
842.0351	859.6105	19531.75	18594.65
842.1802	861.6569	19466.15	18531.45
842.3253	863.7027	19450.65	18512.25
842.4704	865.7478	19444.2	18508.2
842.6156	867.7922	19490.9	18550.3
842.7607	869.8359	19532.5	18595.2
842.9058	871.8789	19672.75	18735.75
843.0509	873.9212	19860.9	18894.35
843.1961	875.9629	19988.3	19051.05
843.3412	878.0039	20198.8	19263.45
843.4863	880.0441	20254.5	19319.45
843.6315	882.0837	20277.7	19341.15
843.7766	884.1226	20253.9	19320.6
843.9218	886.1609	20134.55	19197
844.0669	888.1984	20082.8	19149.3
844.212	890.2352	20102.5	19164.95
844.3572	892.2714	20097.55	19157.5
844.5023	894.3069	20103.15	19165.3
844.6475	896.3416	19969.2	19028.95
844.7926	898.3757	19973.15	19034.7
844.9377	900.4091	19986.2	19045.25
845.0829	902.4418	20006.15	19060.35
845.228	904.4739	19969.3	19022.4
845.3732	906.5052	20044.35	19102
845.5183	908.5358	19914.5	18972.75
845.6635	910.5658	19789.65	18844.6
845.8086	912.595	19633.45	18688.45
845.9538	914.6236	19497.1	18555.8
846.0989	916.6515	19461.6	18520.25
846.2441	918.6786	19423.75	18483.75
846.3892	920.7051	19519.95	18577.05
846.5344	922.7309	19671.85	18729.8
846.6795	924.756	19661	18718.9
846.8246	926.7804	19799.5	18857.25
846.9698	928.8041	19731.6	18788.45
847.1149	930.8272	19778.25	18834.75
847.2601	932.8495	19720	18774.65
847.4052	934.8711	19642.15	18695.45
847.5504	936.892	19524.05	18581.45
847.6955	938.9123	19368.5	18423.85
847.8407	940.9318	19291.85	18351.5
847.9858	942.9506	19176.35	18235.65
848.131	944.9688	19075.5	18136.2
848.2761	946.9862	19027.1	18082.7
848.4213	949.003	18940.7	17998.15
848.5664	951.019	18948.95	18004.6
848.7115	953.0344	18973.4	18030
848.8567	955.0491	19010.8	18067.05
849.0018	957.063	19113.25	18168.2
849.147	959.0763	19246.5	18303.55
849.2921	961.0888	19280.6	18339.95
849.4373	963.1007	19362.1	18424
849.5824	965.1119	19446.35	18511.4
849.7275	967.1223	19438.35	18509.55
849.8727	969.1321	19441.7	18515.05
850.0178	971.1412	19525.8	18589.65
850.1629	973.1495	19547.35	18610
850.3081	975.1572	19608.7	18611.5
850.4532	977.1641	19676	18737.2
850.5983	979.1704	19598.55	18656.45
850.7435	981.1759	19571.15	18623.2
850.8886	983.1808	19664.2	18723.15
851.0337	985.1849	19777	18821.95
851.1788	987.1884	19914.65	18974.25
851.324	989.1911	20086.8	19145.6
851.4691	991.1932	20218.35	19276.2
851.6142	993.1945	20250.6	19309.8
851.7593	995.1951	20176	19232.75
851.9045	997.1951	20180.7	19235.6
852.0496	999.1943	20100.15	19159.8
852.1947	1001.1928	20038.2	19095.45
852.3398	1003.1906	20024.2	19083.75
852.4849	1005.1877	20062.7	19117.25
852.63	1007.1841	20052.5	19110.1
852.7751	1009.1798	19947.6	19006.8
852.9202	1011.1748	19761.75	18821.6
853.0653	1013.1691	19598.6	18655.2
853.2104	1015.1627	19390.9	18447
853.3555	1017.1556	19141.75	18203.35
853.5006	1019.1477	19066.3	18129.05
853.6457	1021.1392	18945.1	18014.9
853.7908	1023.1299	18888.9	17958.75
853.9359	1025.12	18947.4	18019.4
854.081	1027.1093	18965.9	18051.6
854.2261	1029.0979	19088.6	18175.7
854.3712	1031.0859	19128	18207.5
854.5163	1033.0731	19119.9	18194.15
854.6613	1035.0596	19065.1	18130.25
854.8064	1037.0454	18879.8	17943.45
854.9515	1039.0304	18803.65	17864.75
855.0965	1041.0148	18624.65	17689.1
855.2416	1042.9985	18565	17623.35
855.3867	1044.9814	18575.1	17634.95
855.5317	1046.9636	18491.4	17551.2
855.6768	1048.9452	18456.45	17519.75
855.8219	1050.926	18484.35	17546.4
855.9669	1052.9061	18471.9	17534.75
856.112	1054.8855	18463.25	17523.3
856.257	1056.8642	18519.2	17579.75
856.4021	1058.8421	18570.15	17624.4
856.5471	1060.8194	18585.5	17642.55
856.6921	1062.7959	18624.95	17684.85
856.8372	1064.7717	18646.55	17706.65
856.9822	1066.7469	18661.7	17722.85
857.1272	1068.7213	18644.75	17702.75
857.2723	1070.695	18657.3	17717.15
857.4173	1072.6679	18577.4	17636.05
857.5623	1074.6402	18571.4	17629.5
857.7073	1076.6117	18555.95	17612.9
857.8523	1078.5826	18526.4	17583.65
857.9973	1080.5527	18561.45	17617.4
858.1423	1082.5221	18644.6	17702.95
858.2873	1084.4908	18836.7	17901.75
858.4323	1086.4587	18986.95	18050.2
858.5773	1088.426	19132.65	18193.7
858.7223	1090.3925	19139.8	18191.95
858.8673	1092.3584	19051.25	18107.1
859.0123	1094.3235	18942.65	18005.1
859.1573	1096.2879	18899.4	17957.8
859.3022	1098.2515	18870.3	17932.95
859.4472	1100.2145	18930.65	17993.95
859.5922	1102.1767	19036.65	18096.45
859.7371	1104.1382	19165.95	18231.55
859.8821	1106.099	19360.95	18422.4
860.027	1108.0591	19595.35	18659.5
860.172	1110.0185	19718.6	18777.85
860.3169	1111.9771	19784.1	18846.45
860.4619	1113.9351	19523.05	18585.9
860.6068	1115.8923	19231.85	18287.9
860.7517	1117.8488	18923.05	17983.85
860.8967	1119.8045	18673.2	17735.5
861.0416	1121.7596	18555.95	17620.65
861.1865	1123.7139	18438.4	17501.45
861.3314	1125.6675	18439	17500.55
861.4763	1127.6204	18553.75	17617.2
861.6212	1129.5726	18522.45	17581.4
861.7661	1131.524	18514.2	17575.35
861.911	1133.4748	18511.1	17570.5
862.0559	1135.4248	18476.75	17536.75
862.2008	1137.3741	18433.9	17496.9
862.3457	1139.3226	18436.25	17497.85
862.4905	1141.2705	18391.8	17450.75
862.6354	1143.2176	18286	17343.3
862.7803	1145.164	18309.25	17369.45
862.9251	1147.1097	18293.15	17349.9
863.07	1149.0546	18310.7	17371.9
863.2148	1150.9989	18205.7	17265.45
863.3597	1152.9424	18102	17163.35
863.5045	1154.8852	17963.35	17024.15
863.6493	1156.8272	17851.85	16914.8
863.7942	1158.7686	17760.9	16813.05
863.939	1160.7092	17753.7	16810.95
864.0838	1162.6491	17704.85	16761.45
864.2286	1164.5883	17789.5	16852.6
864.3734	1166.5267	17886.85	16947
864.5182	1168.4644	17993.75	17056.15
864.663	1170.4014	18198.6	17257.4
864.8078	1172.3377	18462.3	17527
864.9526	1174.2732	18663.25	17725.9
865.0974	1176.2081	18931.55	17996.1
865.2421	1178.1421	19146.65	18204.45
865.3869	1180.0755	19394.95	18458.35
865.5317	1182.0082	19447.4	18512.2
