Software Version:	3.9.2.0
Unit SN:	10000200
Spectrometer SN:	6960
Date:	3/8/2024 11:48:29 AM
Data Line Index:	25
Spectral Points:	2048
Integration time (ms):	125
Averages:	20
Delay (ms):	30000
Sequence Number:	1
Processing:	dark subtract
Laser Power (mW):	300
Laser Current (mA):	822
Laser Diode Temp (C):	25.1
Laser Case Temp (C):	25.4
System Temp (C):	25.3
Spectrometer Temp (C):	23.1
CCD Temp (C):	0.005
Secondary Temp (C):	20.001
Heatsink Temp (C):	19.935
CCDPCB Temp (C):	34.606
SecondaryPCB Temp (C):	27.681

Wavelength	RamanShift	Raw Counts	Dark Subtracted
787.061	30.1047	413.75	5.85
787.2016	32.3739	412.85	5.8
787.3422	34.6426	414.85	6.2
787.4828	36.9109	416.1	4.4
787.6235	39.1787	419.95	5.95
787.7642	41.4461	424.95	6.7
787.9049	43.7131	428.85	6.2
788.0456	45.9796	433.15	7.3
788.1863	48.2456	436.75	9.65
788.3271	50.5112	443.1	9.7
788.4679	52.7764	444.1	9.25
788.6087	55.0411	449.1	9.6
788.7496	57.3054	455.9	11.3
788.8904	59.5692	457.75	11.7
789.0313	61.8326	460.9	11.2
789.1722	64.0955	467.3	14.5
789.3132	66.3579	474.05	16.45
789.4541	68.6199	479.6	18.95
789.5951	70.8815	492.05	25.05
789.7361	73.1426	509.85	39.4
789.8771	75.4032	541.3	68.3
790.0181	77.6634	608.15	130.5
790.1592	79.9231	773.05	291.6
790.3003	82.1824	1113.55	623.95
790.4414	84.4412	1665.6	1160.2
790.5825	86.6995	2372.95	1847.2
790.7237	88.9574	3052.6	2511.8
790.8648	91.2148	3504.55	2953
791.006	93.4717	3691.7	3135.5
791.1472	95.7282	3699.6	3139
791.2885	97.9842	3687.45	3121.6
791.4297	100.2398	3632.05	3067.05
791.571	102.4949	3588.75	3017.55
791.7123	104.7495	3545.1	2970.4
791.8536	107.0036	3495.8	2919.05
791.9949	109.2573	3413.75	2839.35
792.1363	111.5105	3321	2742.9
792.2777	113.7632	3209.5	2629.75
792.4191	116.0154	3124.75	2533.55
792.5605	118.2672	3010.4	2424.75
792.7019	120.5185	2907.1	2321.4
792.8434	122.7693	2820.85	2232.65
792.9849	125.0197	2739.7	2146.45
793.1264	127.2696	2665.75	2070.15
793.2679	129.519	2631.4	2030.8
793.4094	131.7679	2608.7	2007.4
793.551	134.0163	2592.35	1990.3
793.6926	136.2642	2576.05	1966.6
793.8342	138.5117	2563.5	1945.4
793.9758	140.7587	2528.3	1916
794.1175	143.0052	2482.85	1867.55
794.2591	145.2512	2440.3	1825.3
794.4008	147.4967	2388.55	1774.6
794.5425	149.7417	2346.2	1726.7
794.6842	151.9863	2328.35	1705
794.826	154.2304	2310.85	1683.15
794.9677	156.4739	2307.7	1672.65
795.1095	158.717	2312.7	1676.3
795.2513	160.9596	2357.3	1719.5
795.3931	163.2017	2366.4	1727.75
795.535	165.4433	2375.7	1735.85
795.6768	167.6844	2362.55	1718.5
795.8187	169.925	2338.6	1694.35
795.9606	172.1651	2285.9	1638.35
796.1025	174.4047	2238.05	1584.45
796.2445	176.6439	2187.45	1532.95
796.3864	178.8825	2172.35	1514.15
796.5284	181.1206	2154.4	1491.3
796.6704	183.3582	2146.5	1478.05
796.8124	185.5954	2144.75	1479.2
796.9544	187.832	2150.65	1479.6
797.0965	190.0681	2147.9	1475.1
797.2386	192.3037	2158.35	1481.35
797.3806	194.5388	2164.45	1483.4
797.5228	196.7734	2174.35	1492.85
797.6649	199.0075	2176.5	1492.1
797.807	201.2411	2198.25	1514.7
797.9492	203.4742	2223.3	1540.3
798.0914	205.7068	2245.7	1554.85
798.2336	207.9389	2262.6	1568.6
798.3758	210.1704	2276.3	1585.5
798.518	212.4015	2284.8	1605.45
798.6603	214.632	2277.65	1608.2
798.8025	216.862	2278.35	1609.6
798.9448	219.0915	2289.65	1620
799.0871	221.3205	2300.1	1625
799.2294	223.549	2301.95	1631.95
799.3718	225.777	2311.6	1642.5
799.5141	228.0044	2305.6	1630.2
799.6565	230.2314	2288.95	1610.4
799.7989	232.4578	2279.95	1597.95
799.9413	234.6837	2281.45	1593
800.0837	236.909	2266.9	1574.3
800.2262	239.1339	2269.25	1552.55
800.3687	241.3582	2264.05	1560.7
800.5111	243.582	2284.9	1551.4
800.6536	245.8053	2282.05	1565.8
800.7961	248.0281	2275.35	1562.8
800.9387	250.2503	2291.2	1568.8
801.0812	252.472	2280.65	1559.85
801.2238	254.6932	2299.45	1579.75
801.3664	256.9139	2311.6	1591
801.509	259.134	2324.5	1599
801.6516	261.3536	2336.35	1614.8
801.7942	263.5727	2390.15	1667.6
801.9369	265.7912	2428.9	1704.95
802.0795	268.0092	2490.35	1763.5
802.2222	270.2267	2549	1820.55
802.3649	272.4436	2590.25	1862.4
802.5076	274.6601	2636.25	1897.75
802.6504	276.8759	2648.6	1916.05
802.7931	279.0913	2667.95	1935.8
802.9359	281.3061	2688.5	1952.35
803.0787	283.5204	2711.6	1970.25
803.2215	285.7341	2735.3	1993.5
803.3643	287.9473	2755.95	2012.85
803.5071	290.16	2756.7	2012.85
803.6499	292.3721	2701.55	1963.05
803.7928	294.5837	2684.45	1945
803.9357	296.7947	2638.3	1895.85
804.0786	299.0052	2641.35	1900.2
804.2215	301.2152	2630.45	1887.6
804.3644	303.4246	2606.85	1864.55
804.5074	305.6334	2594.2	1852.75
804.6503	307.8418	2579.4	1832.6
804.7933	310.0495	2554.6	1806.65
804.9363	312.2568	2522.75	1776.45
805.0793	314.4635	2467	1718.8
805.2223	316.6696	2419.65	1667.85
805.3653	318.8752	2387.5	1628.55
805.5084	321.0802	2345.45	1592.3
805.6514	323.2847	2346.9	1591.25
805.7945	325.4887	2358.5	1603.5
805.9376	327.692	2378.1	1622.4
806.0807	329.8949	2407.7	1650.25
806.2238	332.0972	2444.5	1686.05
806.367	334.2989	2458.5	1696.55
806.5101	336.5001	2462.6	1699.6
806.6533	338.7007	2429.05	1664.1
806.7965	340.9008	2407.25	1641.1
806.9397	343.1003	2331.7	1563.5
807.0829	345.2992	2293.4	1525.75
807.2261	347.4976	2262.5	1494.85
807.3693	349.6955	2222.75	1449.9
807.5126	351.8927	2215.45	1440.05
807.6559	354.0895	2202.05	1419.7
807.7991	356.2856	2182.9	1408.45
807.9424	358.4812	2175.55	1397.65
808.0857	360.6763	2179.55	1402.8
808.2291	362.8707	2170.4	1387.9
808.3724	365.0646	2169.45	1387.4
808.5158	367.258	2180.05	1397.3
808.6591	369.4508	2203.05	1415
808.8025	371.643	2219.9	1432.55
808.9459	373.8346	2263.65	1475
809.0893	376.0257	2279.75	1491.75
809.2327	378.2162	2306	1515.45
809.3762	380.4062	2309.15	1515.9
809.5196	382.5956	2289.35	1499.45
809.6631	384.7844	2256.2	1472.1
809.8066	386.9726	2216.8	1428.75
809.9501	389.1603	2183.65	1399.6
810.0936	391.3474	2204.5	1387.25
810.2371	393.5339	2171.35	1384.45
810.3806	395.7199	2191.9	1406.2
810.5241	397.9052	2219	1433.8
810.6677	400.09	2251.9	1466.9
810.8113	402.2743	2294.3	1507.65
810.9548	404.4579	2331.8	1544.2
811.0984	406.641	2373.7	1584.1
811.2421	408.8235	2422.55	1634.15
811.3857	411.0054	2461.2	1670.35
811.5293	413.1868	2525.25	1727.05
811.673	415.3675	2580.95	1783.3
811.8166	417.5477	2580.5	1783.75
811.9603	419.7273	2515.1	1713.15
812.104	421.9064	2444.35	1638.35
812.2477	424.0848	2376.05	1572.35
812.3914	426.2627	2313.5	1509
812.5351	428.4399	2269.25	1465.2
812.6788	430.6166	2207.35	1399.15
812.8226	432.7928	2163.2	1353.6
812.9663	434.9683	2130.6	1320.5
813.1101	437.1432	2097.05	1283.35
813.2539	439.3176	2077.45	1270.25
813.3977	441.4914	2064.95	1256.5
813.5415	443.6645	2070.5	1262.05
813.6853	445.8371	2063.55	1253.3
813.8291	448.0091	2066.4	1255.5
813.973	450.1806	2063.05	1254.75
814.1168	452.3514	2057.65	1244.6
814.2607	454.5216	2062.85	1245.35
814.4046	456.6913	2057	1241.35
814.5485	458.8603	2066.5	1252.35
814.6924	461.0288	2066.05	1256
814.8363	463.1967	2057.3	1246.65
814.9802	465.3639	2063.75	1251.25
815.1241	467.5306	2066.8	1250.05
815.2681	469.6967	2045.45	1230.6
815.412	471.8622	2054.45	1241.25
815.556	474.0271	2050.45	1236
815.7	476.1914	2052.3	1232.05
815.844	478.3551	2041.3	1224.65
815.988	480.5182	2036.55	1222.25
816.132	482.6807	2045.25	1230.95
816.276	484.8426	2056.15	1243.1
816.4201	487.0039	2095	1278.25
816.5641	489.1647	2138.5	1322.25
816.7082	491.3248	2198.25	1380
816.8522	493.4843	2207.3	1390.6
816.9963	495.6432	2202.5	1386.7
817.1404	497.8015	2173.85	1351.45
817.2845	499.9592	2127.8	1303.25
817.4286	502.1163	2082.05	1258
817.5727	504.2728	2034.45	1208.95
817.7168	506.4287	2020	1200.55
817.861	508.5839	2007.25	1186.95
818.0051	510.7386	1994.25	1170.8
818.1493	512.8927	1997.95	1160.75
818.2935	515.0461	2005.45	1180.65
818.4377	517.199	2029	1200.5
818.5818	519.3512	2066.85	1238.4
818.726	521.5029	2138	1304.9
818.8703	523.6539	2187.5	1357.6
819.0145	525.8043	2199.7	1367.75
819.1587	527.9541	2142.75	1307.75
819.303	530.1033	2077.5	1245.85
819.4472	532.2519	2037.45	1205.4
819.5915	534.3999	2009.5	1173.95
819.7357	536.5472	1997.25	1165.4
819.88	538.694	1999.35	1169.9
820.0243	540.8401	2027.3	1195.95
820.1686	542.9856	2037.2	1201
820.3129	545.1305	2057.3	1213.85
820.4572	547.2748	2070.25	1228.85
820.6016	549.4185	2071.9	1232.3
820.7459	551.5615	2076.75	1238.2
820.8902	553.704	2102.8	1264.8
821.0346	555.8458	2113.1	1276.6
821.1789	557.987	2131.3	1296.6
821.3233	560.1276	2162.3	1323.3
821.4677	562.2675	2209.05	1369.35
821.6121	564.4069	2273.3	1434.05
821.7565	566.5456	2303.05	1465.7
821.9009	568.6837	2298.4	1460.6
822.0453	570.8212	2227	1387.7
822.1897	572.958	2153.15	1311.65
822.3342	575.0942	2105.75	1267.75
822.4786	577.2299	2067.25	1228.05
822.6231	579.3648	2039	1205.55
822.7675	581.4992	2009.95	1180.45
822.912	583.6329	2026.1	1196.1
823.0565	585.766	2060.55	1223.7
823.201	587.8985	2108.75	1275.75
823.3454	590.0304	2158.85	1305.7
823.4899	592.1616	2174.55	1329.65
823.6345	594.2922	2173.4	1329.55
823.779	596.4222	2132.3	1288.1
823.9235	598.5515	2083.8	1237.8
824.068	600.6802	2033.35	1189.5
824.2126	602.8083	1994.2	1148.2
824.3571	604.9358	1979.15	1133.85
824.5017	607.0626	1975.9	1126.7
824.6462	609.1888	1985.35	1133.8
824.7908	611.3144	2018.6	1166.25
824.9354	613.4393	2049.5	1198.9
825.08	615.5636	2096.95	1248.8
825.2246	617.6873	2152.2	1300.15
825.3692	619.8103	2173.5	1320.95
825.5138	621.9327	2164.35	1311.8
825.6584	624.0544	2129.2	1280.85
825.803	626.1756	2063	1214
825.9477	628.2961	2028.45	1178.6
826.0923	630.4159	2010.45	1158.85
826.237	632.5351	2008.9	1160.2
826.3816	634.6537	2007.2	1153.5
826.5263	636.7716	1992.3	1136.35
826.6709	638.8889	1990.4	1132.5
826.8156	641.0056	1988.45	1133.45
826.9603	643.1216	1993.75	1138.3
827.105	645.237	1995.3	1137.8
827.2497	647.3518	1972.75	1118.35
827.3944	649.4659	1953.85	1101.35
827.5391	651.5793	1932.45	1079.9
827.6838	653.6922	1934.15	1080
827.8285	655.8043	1920.25	1067.55
827.9733	657.9159	1906.55	1051.35
828.118	660.0268	1893.3	1036.85
828.2627	662.137	1885.7	1027.9
828.4075	664.2466	1890.25	1030.75
828.5522	666.3556	1900.55	1039.05
828.697	668.4639	1887.8	1027.65
828.8418	670.5716	1877.55	1019.8
828.9865	672.6786	1879.65	1019.6
829.1313	674.785	1869.2	1008.65
829.2761	676.8907	1876.15	1016.75
829.4209	678.9958	1867.8	1009.75
829.5657	681.1002	1861.15	999.55
829.7105	683.204	1870.3	1007.45
829.8553	685.3072	1864.05	1001.4
830.0001	687.4097	1861.5	1002.4
830.1449	689.5115	1861.6	994.8
830.2898	691.6127	1855.4	995.95
830.4346	693.7132	1853.65	993.25
830.5794	695.8131	1879.05	995.2
830.7243	697.9123	1873.65	1009.65
830.8691	700.0109	1867.7	1000.65
831.014	702.1089	1885.25	1021
831.1588	704.2061	1894.15	1030
831.3037	706.3028	1913.65	1048.15
831.4486	708.3987	1932.5	1067
831.5935	710.4941	1950.5	1086.35
831.7383	712.5887	1944.3	1080.9
831.8832	714.6827	1952.95	1084.55
832.0281	716.7761	1947.45	1085.05
832.173	718.8688	1942.4	1075.85
832.3179	720.9608	1948.65	1076.95
832.4628	723.0522	1967.95	1096.2
832.6077	725.1429	1991.2	1122.45
832.7527	727.233	2019.3	1151.2
832.8976	729.3224	2088.4	1219.9
833.0425	731.4112	2140.25	1272.35
833.1874	733.4993	2136.65	1265.15
833.3324	735.5867	2100.05	1228.85
833.4773	737.6735	2017.45	1148.1
833.6222	739.7596	1964.5	1093.65
833.7672	741.845	1944.2	1076.05
833.9122	743.9298	1944.95	1072.95
834.0571	746.014	1935.2	1066.7
834.2021	748.0974	1959.2	1085.65
834.347	750.1802	1949.9	1077.1
834.492	752.2624	1934.9	1063.7
834.637	754.3439	1931.5	1058.55
834.782	756.4247	1942.75	1058.8
834.9269	758.5048	1933.6	1063.75
835.0719	760.5843	1948.4	1072.75
835.2169	762.6631	1984.15	1109.75
835.3619	764.7413	2044.25	1171.15
835.5069	766.8188	2127.1	1254.15
835.6519	768.8956	2198.8	1324.15
835.7969	770.9718	2252.3	1378.7
835.9419	773.0473	2244.9	1371.8
836.0869	775.1221	2218.35	1345.75
836.232	777.1962	2203.9	1332.3
836.377	779.2697	2263.2	1387.95
836.522	781.3426	2372.4	1479.4
836.667	783.4147	2413.75	1538.85
836.8121	785.4862	2397.95	1523.5
836.9571	787.557	2292.5	1415.75
837.1021	789.6271	2179.8	1303.15
837.2472	791.6966	2068.35	1190.6
837.3922	793.7654	1977.6	1101.4
837.5373	795.8335	1927.55	1051.4
837.6823	797.901	1897.25	1019.2
837.8274	799.9678	1891.35	1011.95
837.9724	802.0339	1892.1	1015.9
838.1175	804.0993	1907.55	1021.9
838.2626	806.1641	1882.7	1005.8
838.4076	808.2282	1868.75	990.15
838.5527	810.2916	1843.7	962.85
838.6978	812.3544	1832.35	955.55
838.8428	814.4164	1825	948.35
838.9879	816.4778	1836.8	957.75
839.133	818.5385	1845.95	966.45
839.2781	820.5986	1877.1	996.85
839.4232	822.658	1932.7	1049.9
839.5682	824.7166	1990.5	1111.35
839.7133	826.7747	2076.85	1196.75
839.8584	828.832	2157.75	1277.05
840.0035	830.8886	2211.7	1328.65
840.1486	832.9446	2225.05	1342.7
840.2937	834.9999	2198	1319
840.4388	837.0545	2116.15	1233.95
840.5839	839.1085	2044.65	1164.3
840.729	841.1618	1973.4	1087.45
840.8741	843.2143	1926.5	1046.95
841.0192	845.2662	1887.25	1003.05
841.1643	847.3175	1874.05	992.1
841.3095	849.368	1864.85	983.65
841.4546	851.4179	1868.55	987.55
841.5997	853.467	1866.3	985.25
841.7448	855.5155	1865.6	984.8
841.8899	857.5633	1870.05	988.7
842.0351	859.6105	1862.25	980.5
842.1802	861.6569	1846.7	965.45
842.3253	863.7027	1828.6	942.45
842.4704	865.7478	1834.9	951.85
842.6156	867.7922	1814.9	932.45
842.7607	869.8359	1817.4	934.95
842.9058	871.8789	1809.9	925.35
843.0509	873.9212	1843.5	929.25
843.1961	875.9629	1828.1	944.15
843.3412	878.0039	1831.6	948.25
843.4863	880.0441	1836.6	956.45
843.6315	882.0837	1857.3	973.45
843.7766	884.1226	1887.1	998.6
843.9218	886.1609	1921.15	1037.85
844.0669	888.1984	1965.25	1079.65
844.212	890.2352	2014.4	1130.05
844.3572	892.2714	2012.85	1120.85
844.5023	894.3069	1988.65	1099.65
844.6475	896.3416	1944.55	1056.35
844.7926	898.3757	1897.45	1011.05
844.9377	900.4091	1887.85	1001.95
845.0829	902.4418	1881.35	990.4
845.228	904.4739	1896.2	1007.95
845.3732	906.5052	1914.35	1024.85
845.5183	908.5358	1900.25	1012.5
845.6635	910.5658	1885.4	997.75
845.8086	912.595	1858.4	971.3
845.9538	914.6236	1802.5	914.1
846.0989	916.6515	1789.45	902.9
846.2441	918.6786	1767.2	877.2
846.3892	920.7051	1758.2	869.4
846.5344	922.7309	1756.45	872.2
846.6795	924.756	1757.35	868.4
846.8246	926.7804	1779.75	891.35
846.9698	928.8041	1782.95	893.15
847.1149	930.8272	1798.25	910.25
847.2601	932.8495	1806.6	916.6
847.4052	934.8711	1813.7	921.55
847.5504	936.892	1818.55	930.75
847.6955	938.9123	1841.3	953.8
847.8407	940.9318	1859.1	972.75
847.9858	942.9506	1869.15	983.2
848.131	944.9688	1862.85	972.5
848.2761	946.9862	1834.85	945.9
848.4213	949.003	1803.15	913.55
848.5664	951.019	1783.6	893.9
848.7115	953.0344	1764.5	874.55
848.8567	955.0491	1744.25	856.55
849.0018	957.063	1744.3	853.9
849.147	959.0763	1742.45	854.95
849.2921	961.0888	1749.6	858.15
849.4373	963.1007	1745.7	856.65
849.5824	965.1119	1740.8	856.55
849.7275	967.1223	1728.25	845.4
849.8727	969.1321	1722.25	838.35
850.0178	971.1412	1725.75	839.95
850.1629	973.1495	1728.5	841.4
850.3081	975.1572	1747.65	826.4
850.4532	977.1641	1718.3	828.35
850.5983	979.1704	1725.1	835.2
850.7435	981.1759	1722.1	828.3
850.8886	983.1808	1712.25	818.05
851.0337	985.1849	1725.1	825.8
851.1788	987.1884	1704.8	813.4
851.324	989.1911	1712.25	821.65
851.4691	991.1932	1723.2	833.8
851.6142	993.1945	1721.8	831.15
851.7593	995.1951	1715.7	824.3
851.9045	997.1951	1716.85	818.95
852.0496	999.1943	1713.5	823.4
852.1947	1001.1928	1713.65	821.65
852.3398	1003.1906	1727.85	834.65
852.4849	1005.1877	1747.15	854.95
852.63	1007.1841	1771.9	883.7
852.7751	1009.1798	1782.15	891.2
852.9202	1011.1748	1770.9	881.95
853.0653	1013.1691	1757.1	863.9
853.2104	1015.1627	1715.9	821.8
853.3555	1017.1556	1690.5	798.55
853.5006	1019.1477	1672.55	779.95
853.6457	1021.1392	1667.85	777.25
853.7908	1023.1299	1657.25	768.35
853.9359	1025.12	1643.5	756.2
854.081	1027.1093	1659.3	776.55
854.2261	1029.0979	1667.85	789.2
854.3712	1031.0859	1694.45	811.7
854.5163	1033.0731	1715.9	828.95
854.6613	1035.0596	1712.95	826.3
854.8064	1037.0454	1698.15	806.8
854.9515	1039.0304	1687.8	797.05
855.0965	1041.0148	1661.7	770.8
855.2416	1042.9985	1645.1	750.75
855.3867	1044.9814	1642.45	750.6
855.5317	1046.9636	1638.95	746.15
855.6768	1048.9452	1636	747.1
855.8219	1050.926	1655.2	763.3
855.9669	1052.9061	1666.7	777.95
856.112	1054.8855	1662.95	770
856.257	1056.8642	1671.85	779.1
856.4021	1058.8421	1680.6	785.8
856.5471	1060.8194	1674.9	781.15
856.6921	1062.7959	1672.8	779.75
856.8372	1064.7717	1673.35	779.25
856.9822	1066.7469	1670.65	778.7
857.1272	1068.7213	1682.95	788.25
857.2723	1070.695	1687.85	796.1
857.4173	1072.6679	1707.05	814.65
857.5623	1074.6402	1725	834.3
857.7073	1076.6117	1736.3	839.9
857.8523	1078.5826	1708.9	815.5
857.9973	1080.5527	1678.85	784.1
858.1423	1082.5221	1644.7	751.45
858.2873	1084.4908	1623.1	730.7
858.4323	1086.4587	1609.05	716
858.5773	1088.426	1609.55	715.65
858.7223	1090.3925	1602.45	706.25
858.8673	1092.3584	1602.45	708.8
859.0123	1094.3235	1614.5	724.25
859.1573	1096.2879	1634.4	742.45
859.3022	1098.2515	1653.55	759.5
859.4472	1100.2145	1678.35	785.1
859.5922	1102.1767	1708.95	812.1
859.7371	1104.1382	1761.6	869
859.8821	1106.099	1810.6	916.15
860.027	1108.0591	1847.15	954.2
860.172	1110.0185	1887.35	991.8
860.3169	1111.9771	1915.65	1024.55
860.4619	1113.9351	1976.45	1082.05
860.6068	1115.8923	2020.05	1125.6
860.7517	1117.8488	2043	1146.3
860.8967	1119.8045	1985.3	1091.35
861.0416	1121.7596	1900	1003.15
861.1865	1123.7139	1804.65	912.9
861.3314	1125.6675	1764.4	873.7
861.4763	1127.6204	1761.15	868.4
861.6212	1129.5726	1777.8	881.9
861.7661	1131.524	1770.95	877.55
861.911	1133.4748	1741.5	848.95
862.0559	1135.4248	1689.7	796.3
862.2008	1137.3741	1641.6	748.15
862.3457	1139.3226	1616.4	722.75
862.4905	1141.2705	1614.15	720.2
862.6354	1143.2176	1628.95	729.3
862.7803	1145.164	1627.75	733.1
862.9251	1147.1097	1635.6	741.3
863.07	1149.0546	1610	714.9
863.2148	1150.9989	1583.25	686.2
863.3597	1152.9424	1570.2	677.05
863.5045	1154.8852	1556.25	662.7
863.6493	1156.8272	1549.85	658.05
863.7942	1158.7686	1556.4	654.45
863.939	1160.7092	1561.3	664.65
864.0838	1162.6491	1555.9	658.5
864.2286	1164.5883	1576.7	682.2
864.3734	1166.5267	1597.75	704.2
864.5182	1168.4644	1611.55	719.45
864.663	1170.4014	1641.65	744.05
864.8078	1172.3377	1672.6	779.3
864.9526	1174.2732	1723.7	831.35
865.0974	1176.2081	1818.75	925.55
865.2421	1178.1421	1934.05	1036.45
865.3869	1180.0755	2030.9	1141.3
865.5317	1182.0082	2083.55	1188.8
865.6764	1183.9401	2049.65	1156.5
865.8212	1185.8713	1963.05	1070.85
865.9659	1187.8017	1834.8	944.7
866.1106	1189.7315	1740.95	853.25
866.2554	1191.6605	1692.7	777.2
866.4001	1193.5888	1638.65	748.1
866.5448	1195.5163	1611.45	719.95
866.6895	1197.4432	1597.35	703
866.8342	1199.3693	1582.45	690.1
866.9789	1201.2947	1570.85	674.25
867.1236	1203.2193	1562.45	666.65
867.2683	1205.1432	1559.5	666.3
867.413	1207.0664	1553.35	659.7
867.5576	1208.9889	1551.6	652.8
867.7023	1210.9106	1553.1	657.85
867.847	1212.8316	1562.75	669.8
867.9916	1214.7519	1575.75	673
868.1363	1216.6715	1581.9	687.95
868.2809	1218.5903	1605.45	710.05
868.4255	1220.5084	1609.25	716.85
868.5701	1222.4257	1617.45	722.7
868.7148	1224.3424	1636.05	743
868.8594	1226.2583	1655.25	759.75
869.004	1228.1735	1682.35	786.75
869.1486	1230.0879	1724.45	829.6
869.2932	1232.0016	1756.25	863.65
869.4377	1233.9146	1788.85	890.2
869.5823	1235.8269	1797.75	904.75
869.7269	1237.7384	1820.7	924.55
869.8715	1239.6492	1819.7	925.75
870.016	1241.5592	1836.55	940.55
870.1606	1243.4686	1884.65	990.15
870.3051	1245.3772	1949.65	1053.7
870.4496	1247.285	2026.45	1132.65
870.5941	1249.1922	2098.05	1202.35
870.7387	1251.0986	2185.3	1292.3
