Software Version:	3.9.2.0
Unit SN:	10000200
Spectrometer SN:	6960
Date:	3/8/2024 1:08:22 PM
Data Line Index:	25
Spectral Points:	2048
Integration time (ms):	125
Averages:	20
Delay (ms):	30000
Sequence Number:	1
Processing:	dark subtract
Laser Power (mW):	305
Laser Current (mA):	822
Laser Diode Temp (C):	25
Laser Case Temp (C):	26.2
System Temp (C):	26.1
Spectrometer Temp (C):	24
CCD Temp (C):	0.007
Secondary Temp (C):	20.003
Heatsink Temp (C):	20.966
CCDPCB Temp (C):	36.073
SecondaryPCB Temp (C):	30.171

Wavelength	RamanShift	Raw Counts	Dark Subtracted
787.061	30.1047	456.05	47.25
787.2016	32.3739	458.2	51.25
787.3422	34.6426	464.1	54.7
787.4828	36.9109	471.8	60.35
787.6235	39.1787	476.55	62.55
787.7642	41.4461	485.65	66.2
787.9049	43.7131	493.3	72.8
788.0456	45.9796	501.15	77.45
788.1863	48.2456	513.3	85.95
788.3271	50.5112	521.4	89
788.4679	52.7764	531.6	97.5
788.6087	55.0411	543.7	104.15
788.7496	57.3054	555.05	109.5
788.8904	59.5692	560.6	113.65
789.0313	61.8326	571.85	121.75
789.1722	64.0955	584.2	128.95
789.3132	66.3579	600.7	141.25
789.4541	68.6199	621.45	159.25
789.5951	70.8815	656.65	188.7
789.7361	73.1426	734.45	265.3
789.8771	75.4032	951.85	478.3
790.0181	77.6634	1450.8	971.25
790.1592	79.9231	2656.55	2170.85
790.3003	82.1824	5246.65	4744.95
790.4414	84.4412	9912.5	9380.7
790.5825	86.6995	16286.6	15719.9
790.7237	88.9574	22540.15	21946.95
790.8648	91.2148	26850.25	26234.05
791.006	93.4717	28806.8	28178.7
791.1472	95.7282	29120.25	28484.25
791.2885	97.9842	28897.9	28259.65
791.4297	100.2398	28268.7	27625.15
791.571	102.4949	27530.85	26883.25
791.7123	104.7495	26697.3	26048.95
791.8536	107.0036	25845.2	25192.35
791.9949	109.2573	25063.25	24416.15
792.1363	111.5105	24253.05	23603.7
792.2777	113.7632	23548.65	22895.75
792.4191	116.0154	22971.5	22309
792.5605	118.2672	22530.2	21873.4
792.7019	120.5185	22108.85	21446.65
792.8434	122.7693	21788.55	21123.95
792.9849	125.0197	21482.8	20810.8
793.1264	127.2696	21212.15	20539.6
793.2679	129.519	21034.6	20356.1
793.4094	131.7679	20786.4	20107.7
793.551	134.0163	20591.5	19910.3
793.6926	136.2642	20279.95	19595.4
793.8342	138.5117	20022.4	19326
793.9758	140.7587	19659.05	18972.65
794.1175	143.0052	19377.45	18687.6
794.2591	145.2512	19091.35	18396
794.4008	147.4967	18842.6	18147.95
794.5425	149.7417	18633.4	17940.15
794.6842	151.9863	18464.9	17766.95
794.826	154.2304	18397.15	17689.9
794.9677	156.4739	18222.7	17513.25
795.1095	158.717	18148.2	17433.85
795.2513	160.9596	18001.9	17284.9
795.3931	163.2017	17752.9	17033.15
795.535	165.4433	17454.3	16736.35
795.6768	167.6844	17105	16383.35
795.8187	169.925	16835.05	16114.4
795.9606	172.1651	16439.35	15716.9
796.1025	174.4047	16184.4	15454.1
796.2445	176.6439	15937.05	15206.4
796.3864	178.8825	15704.65	14971.45
796.5284	181.1206	15563.3	14823.25
796.6704	183.3582	15401.5	14654.95
796.8124	185.5954	15308.35	14562.45
796.9544	187.832	15240.25	14490.6
797.0965	190.0681	15211.9	14459.5
797.2386	192.3037	15228.6	14475.65
797.3806	194.5388	15209.2	14450.6
797.5228	196.7734	15254.6	14492.1
797.6649	199.0075	15311.7	14551.5
797.807	201.2411	15483.45	14723.3
797.9492	203.4742	15514.2	14753.35
798.0914	205.7068	15701.1	14932.15
798.2336	207.9389	15818.3	15049.55
798.3758	210.1704	15974.4	15212.05
798.518	212.4015	16094.4	15342.2
798.6603	214.632	16214.35	15469.1
798.8025	216.862	16395.45	15649.8
798.9448	219.0915	16527.3	15783.3
799.0871	221.3205	16714.05	15967.15
799.2294	223.549	16890.45	16146.2
799.3718	225.777	17088.75	16343.5
799.5141	228.0044	17320.85	16565.3
799.6565	230.2314	17604.5	16855.8
799.7989	232.4578	17919	17162.35
799.9413	234.6837	18149.15	17384.9
800.0837	236.909	18302.45	17535.7
800.2262	239.1339	18306.2	17515.2
800.3687	241.3582	18152.1	17373.5
800.5111	243.582	17968.9	17159.25
800.6536	245.8053	17734.95	16943.9
800.7961	248.0281	17556.9	16769.05
800.9387	250.2503	17442.05	16645.4
801.0812	252.472	17421.85	16624.25
801.2238	254.6932	17468.1	16675.25
801.3664	256.9139	17458.25	16663.15
801.509	259.134	17580.25	16778.4
801.6516	261.3536	17704.1	16906.15
801.7942	263.5727	17904	17105.9
801.9369	265.7912	18021.5	17222.1
802.0795	268.0092	18230.05	17429.9
802.2222	270.2267	18300.05	17498.8
802.3649	272.4436	18322.85	17521.5
802.5076	274.6601	18299.55	17488
802.6504	276.8759	18208.25	17404.4
802.7931	279.0913	18159.1	17350.95
802.9359	281.3061	18045.25	17236.9
803.0787	283.5204	18048.1	17234.65
803.2215	285.7341	18073.2	17254.8
803.3643	287.9473	18153.1	17328.55
803.5071	290.16	18291.55	17472.25
803.6499	292.3721	18516.35	17710.8
803.7928	294.5837	18842.55	18027.2
803.9357	296.7947	19149.9	18335.2
804.0786	299.0052	19364.25	18547
804.2215	301.2152	19243.75	18424.2
804.3644	303.4246	18959.4	18145.35
804.5074	305.6334	18507.6	17692.6
804.6503	307.8418	18088.35	17270.1
804.7933	310.0495	17659.45	16839.85
804.9363	312.2568	17292.4	16474.6
805.0793	314.4635	16971.25	16148.2
805.2223	316.6696	16803.05	15976.65
805.3653	318.8752	16650.1	15817.05
805.5084	321.0802	16654.1	15826.1
805.6514	323.2847	16719.25	15887.85
805.7945	325.4887	16762.7	15928.5
805.9376	327.692	16712.6	15879.4
806.0807	329.8949	16654	15823.4
806.2238	332.0972	16416.2	15581.55
806.367	334.2989	16191.7	15352.75
806.5101	336.5001	15905.7	15069.55
806.6533	338.7007	15729	14888.8
806.7965	340.9008	15622.15	14784.95
806.9397	343.1003	15482.3	14646.65
807.0829	345.2992	15399.5	14556.95
807.2261	347.4976	15317.25	14477.55
807.3693	349.6955	15320.7	14471.7
807.5126	351.8927	15326.25	14483
807.6559	354.0895	15301.6	14443.4
807.7991	356.2856	15287.95	14438.9
807.9424	358.4812	15300.95	14452.3
808.0857	360.6763	15347.55	14496.5
808.2291	362.8707	15295.65	14440.5
808.3724	365.0646	15353.5	14496.4
808.5158	367.258	15373.35	14515.45
808.6591	369.4508	15406.55	14544.25
808.8025	371.643	15560.9	14702.05
808.9459	373.8346	15601.6	14739.05
809.0893	376.0257	15621.45	14754.95
809.2327	378.2162	15591.65	14726.8
809.3762	380.4062	15553.6	14693.4
809.5196	382.5956	15424.1	14564.45
809.6631	384.7844	15292.65	14438.3
809.8066	386.9726	15200	14348.35
809.9501	389.1603	15101.7	14249.3
810.0936	391.3474	15086.9	14197.8
810.2371	393.5339	15043.05	14181.8
810.3806	395.7199	14988.75	14133.3
810.5241	397.9052	15034.35	14179.8
810.6677	400.09	15105.25	14251.7
810.8113	402.2743	15228.55	14373.95
810.9548	404.4579	15356.45	14497.3
811.0984	406.641	15518.9	14661.3
811.2421	408.8235	15731.3	14871.85
811.3857	411.0054	15963.9	15098.35
811.5293	413.1868	16291.2	15421.2
811.673	415.3675	16502.4	15630.1
811.8166	417.5477	16618.25	15749.2
811.9603	419.7273	16636.15	15763.55
812.104	421.9064	16538.45	15664.4
812.2477	424.0848	16442.7	15575.7
812.3914	426.2627	16238.95	15370
812.5351	428.4399	15978.8	15105.4
812.6788	430.6166	15622.8	14751.6
812.8226	432.7928	15288.45	14411.9
812.9663	434.9683	14990.7	14117.7
813.1101	437.1432	14765.85	13896.6
813.2539	439.3176	14606.15	13739.7
813.3977	441.4914	14452.25	13587.3
813.5415	443.6645	14432.95	13563.1
813.6853	445.8371	14390.65	13520.75
813.8291	448.0091	14350.4	13478.85
813.973	450.1806	14345.25	13472.85
814.1168	452.3514	14309	13439.45
814.2607	454.5216	14344.25	13466.6
814.4046	456.6913	14306.35	13428.85
814.5485	458.8603	14331.25	13457.85
814.6924	461.0288	14383	13516.75
814.8363	463.1967	14389.45	13527.85
814.9802	465.3639	14472.45	13605.15
815.1241	467.5306	14527.3	13657.7
815.2681	469.6967	14603.9	13734.75
815.412	471.8622	14685.4	13819.05
815.556	474.0271	14790.75	13918.6
815.7	476.1914	14851.65	13975.95
815.844	478.3551	14868.55	13993.65
815.988	480.5182	14892.85	14019.95
816.132	482.6807	14958.1	14088.35
816.276	484.8426	15081.1	14222.25
816.4201	487.0039	15380.7	14515.4
816.5641	489.1647	15802.1	14928.6
816.7082	491.3248	16175.1	15298.2
816.8522	493.4843	16332.55	15463.35
816.9963	495.6432	16326.45	15455.85
817.1404	497.8015	16167.85	15285.3
817.2845	499.9592	16134.9	15244.9
817.4286	502.1163	16007.45	15121.7
817.5727	504.2728	15726.05	14847.45
817.7168	506.4287	15481.3	14612.9
817.861	508.5839	15089.75	14216.8
818.0051	510.7386	14822.65	13941.4
818.1493	512.8927	14708.15	13819.3
818.2935	515.0461	14601.75	13719.9
818.4377	517.199	14662.45	13772.6
818.5818	519.3512	14760.85	13874.05
818.726	521.5029	14930.7	14040.65
818.8703	523.6539	15116.4	14231.25
819.0145	525.8043	15184.4	14299.1
819.1587	527.9541	15171.55	14279.7
819.303	530.1033	15063.7	14177.8
819.4472	532.2519	14989	14105.65
819.5915	534.3999	15027.75	14141.7
819.7357	536.5472	15216.9	14329.5
819.88	538.694	15566.3	14683.35
820.0243	540.8401	16009.35	15123.2
820.1686	542.9856	16350.85	15453.4
820.3129	545.1305	16477.2	15572.3
820.4572	547.2748	16412.1	15504.2
820.6016	549.4185	16070.6	15164.85
820.7459	551.5615	15846.95	14944.65
820.8902	553.704	15794.45	14893.75
821.0346	555.8458	15780.35	14881.9
821.1789	557.987	15897	15000
821.3233	560.1276	16003.5	15103.85
821.4677	562.2675	16237.8	15340.15
821.6121	564.4069	16537.5	15638.45
821.7565	566.5456	16748.5	15852.5
821.9009	568.6837	16803.65	15910.85
822.0453	570.8212	16437.8	15544.2
822.1897	572.958	15909.45	15014.05
822.3342	575.0942	15466.8	14574.9
822.4786	577.2299	15159.9	14269
822.6231	579.3648	15005.25	14126.2
822.7675	581.4992	15020.6	14150.65
822.912	583.6329	15165.1	14295.65
823.0565	585.766	15392	14517.4
823.201	587.8985	15529.75	14648.25
823.3454	590.0304	15572.3	14657.4
823.4899	592.1616	15511.2	14614.35
823.6345	594.2922	15407.85	14507.9
823.779	596.4222	15238.85	14335.45
823.9235	598.5515	15038.1	14132.8
824.068	600.6802	14870.3	13964.95
824.2126	602.8083	14685.55	13789.3
824.3571	604.9358	14678.85	13774.95
824.5017	607.0626	14643.55	13738.6
824.6462	609.1888	14686.95	13776.25
824.7908	611.3144	14745.25	13837.15
824.9354	613.4393	14779.8	13870.75
825.08	615.5636	14809.3	13901.5
825.2246	617.6873	14756.6	13849.5
825.3692	619.8103	14717.55	13810.7
825.5138	621.9327	14531.55	13622.6
825.6584	624.0544	14418.55	13515.05
825.803	626.1756	14305.55	13404.1
825.9477	628.2961	14234.85	13325.6
826.0923	630.4159	14170.3	13261.5
826.237	632.5351	14130	13220.5
826.3816	634.6537	14111.25	13199.05
826.5263	636.7716	14105.9	13191.4
826.6709	638.8889	14122.2	13204.75
826.8156	641.0056	14168.85	13252.75
826.9603	643.1216	14149.7	13232.9
827.105	645.237	14110.85	13198.65
827.2497	647.3518	14047.75	13143.75
827.3944	649.4659	14071.2	13169.85
827.5391	651.5793	14020.4	13114.4
827.6838	653.6922	13992.95	13088.7
827.8285	655.8043	14019.25	13111.5
827.9733	657.9159	13989.1	13082.25
828.118	660.0268	13956.5	13051.25
828.2627	662.137	13953.7	13044.9
828.4075	664.2466	13956.55	13039.85
828.5522	666.3556	13943.45	13029.8
828.697	668.4639	13873.8	12960.3
828.8418	670.5716	13906.05	13001.65
828.9865	672.6786	13906.15	12994.75
829.1313	674.785	13914.45	12998.75
829.2761	676.8907	13942.05	13027.95
829.4209	678.9958	14027.2	13117.2
829.5657	681.1002	14001.75	13089.15
829.7105	683.204	13981.75	13060.55
829.8553	685.3072	13936.9	13021.35
830.0001	687.4097	13876.6	12957.9
830.1449	689.5115	13892.6	12972.75
830.2898	691.6127	13841.65	12929.55
830.4346	693.7132	13809.6	12896.15
830.5794	695.8131	13823.45	12896.85
830.7243	697.9123	13815.45	12894.75
830.8691	700.0109	13818.3	12892.8
831.014	702.1089	13858.4	12938.05
831.1588	704.2061	13898.2	12979.2
831.3037	706.3028	13916.8	12997.85
831.4486	708.3987	13983.65	13061.9
831.5935	710.4941	14039.35	13120.6
831.7383	712.5887	14145.7	13227.5
831.8832	714.6827	14302.9	13379.8
832.0281	716.7761	14550.3	13635.4
832.173	718.8688	14829.25	13913.45
832.3179	720.9608	15000.65	14074.45
832.4628	723.0522	15118.7	14188.85
832.6077	725.1429	15035	14110.25
832.7527	727.233	14955.5	14035.4
832.8976	729.3224	14894.45	13974.75
833.0425	731.4112	14706.6	13782.95
833.1874	733.4993	14514.75	13593.6
833.3324	735.5867	14370.55	13446.85
833.4773	737.6735	14197.3	13272.5
833.6222	739.7596	14081.45	13155.8
833.7672	741.845	13982.55	13061.35
833.9122	743.9298	13916.75	12994.3
834.0571	746.014	13915.95	12992.45
834.2021	748.0974	13914.7	12984.8
834.347	750.1802	13892.85	12964.95
834.492	752.2624	13900.4	12971.4
834.637	754.3439	13955.7	13024.25
834.782	756.4247	14078	13142.35
834.9269	758.5048	14224.4	13294.7
835.0719	760.5843	14488.3	13560
835.2169	762.6631	14855.6	13929.2
835.3619	764.7413	15376.6	14451.5
835.5069	766.8188	16023.65	15091.75
835.6519	768.8956	16553.1	15623.9
835.7969	770.9718	16887.25	15962.4
835.9419	773.0473	16751.75	15827.25
836.0869	775.1221	16430	15503.7
836.232	777.1962	16116.95	15187.85
836.377	779.2697	15987.95	15057.9
836.522	781.3426	16025	15086.9
836.667	783.4147	16212.05	15284.25
836.8121	785.4862	16406.55	15478.75
836.9571	787.557	16344.25	15412.45
837.1021	789.6271	15893.55	14957
837.2472	791.6966	15375.8	14443.1
837.3922	793.7654	14766.65	13835.35
837.5373	795.8335	14446.1	13517.55
837.6823	797.901	14188.15	13254.8
837.8274	799.9678	14056.55	13120.6
837.9724	802.0339	14007.25	13075.4
838.1175	804.0993	14007.05	13061.4
838.2626	806.1641	13965.75	13031
838.4076	808.2282	13904.65	12974.65
838.5527	810.2916	13843.2	12911.15
838.6978	812.3544	13771.15	12845.25
838.8428	814.4164	13695	12763.8
838.9879	816.4778	13725.75	12789.95
839.133	818.5385	13765.8	12828.85
839.2781	820.5986	13901.9	12966.9
839.4232	822.658	14049.65	13115.9
839.5682	824.7166	14290.15	13359.05
839.7133	826.7747	14682.65	13751
839.8584	828.832	15042.65	14107.55
840.0035	830.8886	15317.4	14379.45
840.1486	832.9446	15495.3	14558.9
840.2937	834.9999	15408.7	14475.15
840.4388	837.0545	15241.5	14305.7
840.5839	839.1085	15052.35	14114.85
840.729	841.1618	14877.1	13937.2
840.8741	843.2143	14756.05	13818.35
841.0192	845.2662	14600.3	13664.85
841.1643	847.3175	14501.15	13565.55
841.3095	849.368	14391.7	13455.05
841.4546	851.4179	14298.3	13359.65
841.5997	853.467	14166.15	13231.2
841.7448	855.5155	14058.85	13122.85
841.8899	857.5633	13994.55	13057.65
842.0351	859.6105	13896.55	12960.45
842.1802	861.6569	13845.5	12905.65
842.3253	863.7027	13784.95	12844.15
842.4704	865.7478	13763.55	12825.35
842.6156	867.7922	13746.45	12808.7
842.7607	869.8359	13735.5	12799.9
842.9058	871.8789	13817.05	12878.6
843.0509	873.9212	13972.15	12999.75
843.1961	875.9629	14069.15	13128.25
843.3412	878.0039	14230.45	13288.6
843.4863	880.0441	14340.2	13404.05
843.6315	882.0837	14376.45	13438.2
843.7766	884.1226	14354.65	13414.65
843.9218	886.1609	14302.55	13365.15
844.0669	888.1984	14340	13403.25
844.212	890.2352	14416.1	13479.1
844.3572	892.2714	14392.25	13448.4
844.5023	894.3069	14344.25	13403.65
844.6475	896.3416	14248.95	13310.25
844.7926	898.3757	14158.45	13216.7
844.9377	900.4091	14110.55	13167.35
845.0829	902.4418	14129.4	13185.35
845.228	904.4739	14173.85	13229.55
845.3732	906.5052	14201.7	13259.45
845.5183	908.5358	14094.9	13153.25
845.6635	910.5658	13969.6	13024.9
845.8086	912.595	13770.5	12830.2
845.9538	914.6236	13569.8	12632.15
846.0989	916.6515	13475.8	12534.5
846.2441	918.6786	13445.3	12500.05
846.3892	920.7051	13479.9	12533.9
846.5344	922.7309	13575.35	12636.4
846.6795	924.756	13626.2	12682.4
846.8246	926.7804	13706.95	12765.55
846.9698	928.8041	13649.15	12705.9
847.1149	930.8272	13706.55	12765.65
847.2601	932.8495	13695.95	12750
847.4052	934.8711	13691.65	12744.15
847.5504	936.892	13582.35	12639.4
847.6955	938.9123	13517.45	12574.15
847.8407	940.9318	13457.55	12516.35
847.9858	942.9506	13424.25	12481.3
848.131	944.9688	13327.4	12386.05
848.2761	946.9862	13248.9	12309.05
848.4213	949.003	13099.05	12154.35
848.5664	951.019	13083.85	12141.35
848.7115	953.0344	13037.8	12095.15
848.8567	955.0491	13077.1	12132.6
849.0018	957.063	13137.5	12197.55
849.147	959.0763	13247.85	12307.65
849.2921	961.0888	13285.85	12343.75
849.4373	963.1007	13340.2	12400.05
849.5824	965.1119	13358	12424.45
849.7275	967.1223	13375.25	12446.7
849.8727	969.1321	13362.75	12436.4
850.0178	971.1412	13411.7	12478.7
850.1629	973.1495	13399.15	12463.8
850.3081	975.1572	13448.1	12461.95
850.4532	977.1641	13475.9	12534.9
850.5983	979.1704	13440	12493.55
850.7435	981.1759	13412.45	12466.95
850.8886	983.1808	13467.8	12522.55
851.0337	985.1849	13516	12559.35
851.1788	987.1884	13624.9	12681
851.324	989.1911	13733.4	12789.85
851.4691	991.1932	13845.7	12902.85
851.6142	993.1945	13875	12933.55
851.7593	995.1951	13809.9	12869.15
851.9045	997.1951	13820.2	12872.1
852.0496	999.1943	13769.3	12826.7
852.1947	1001.1928	13730.4	12787.3
852.3398	1003.1906	13745.8	12803.9
852.4849	1005.1877	13835.8	12892.45
852.63	1007.1841	13870.15	12929.65
852.7751	1009.1798	13828.15	12884.55
852.9202	1011.1748	13718.1	12776.2
853.0653	1013.1691	13551.35	12610.4
853.2104	1015.1627	13344.5	12403.15
853.3555	1017.1556	13105.5	12167.35
853.5006	1019.1477	12996.25	12055.6
853.6457	1021.1392	12879.25	11943.15
853.7908	1023.1299	12868.8	11937.25
853.9359	1025.12	12875.05	11948.05
854.081	1027.1093	12932.45	12018.4
854.2261	1029.0979	13043.65	12133.1
854.3712	1031.0859	13097.1	12177
854.5163	1033.0731	13122.9	12191.35
854.6613	1035.0596	13103.85	12170.7
854.8064	1037.0454	12936.1	12001.7
854.9515	1039.0304	12855.25	11911.55
855.0965	1041.0148	12724.55	11785.85
855.2416	1042.9985	12598.8	11653.65
855.3867	1044.9814	12594.6	11656.2
855.5317	1046.9636	12511.5	11574.25
855.6768	1048.9452	12518.5	11578
855.8219	1050.926	12540.55	11601.55
855.9669	1052.9061	12523.55	11584.5
856.112	1054.8855	12546.15	11604.25
856.257	1056.8642	12598.15	11658.85
856.4021	1058.8421	12661.75	11714.95
856.5471	1060.8194	12697.9	11753.35
856.6921	1062.7959	12724.25	11782.55
856.8372	1064.7717	12771	11828.25
856.9822	1066.7469	12827.4	11884.7
857.1272	1068.7213	12864.4	11922.7
857.2723	1070.695	12901.3	11960.15
857.4173	1072.6679	12903	11962.9
857.5623	1074.6402	12903.6	11963.7
857.7073	1076.6117	12868.8	11925
857.8523	1078.5826	12806.2	11865.3
857.9973	1080.5527	12721.3	11778.8
858.1423	1082.5221	12718.6	11777.65
858.2873	1084.4908	12802.85	11865
858.4323	1086.4587	12898.5	11957.05
858.5773	1088.426	12967.5	12027.5
858.7223	1090.3925	12968.7	12020.65
858.8673	1092.3584	12990.65	12051.2
859.0123	1094.3235	12962.1	12024.65
859.1573	1096.2879	12925.9	11988.05
859.3022	1098.2515	13004.65	12067.3
859.4472	1100.2145	13134.75	12195.1
859.5922	1102.1767	13254.1	12313.2
859.7371	1104.1382	13468.05	12528.55
859.8821	1106.099	13671.75	12728.45
860.027	1108.0591	13913	12970.15
860.172	1110.0185	14034.85	13094
860.3169	1111.9771	14075.1	13134.4
860.4619	1113.9351	13965.35	13022.3
860.6068	1115.8923	13770.05	12832.05
860.7517	1117.8488	13528.75	12586.9
860.8967	1119.8045	13304.5	12366.4
861.0416	1121.7596	13189.75	12250.75
861.1865	1123.7139	13090.65	12153.3
861.3314	1125.6675	13053.85	12113.75
861.4763	1127.6204	13132.7	12191.85
861.6212	1129.5726	13072.1	12129.45
861.7661	1131.524	13026.7	12086.55
861.911	1133.4748	12948.35	12008.15
862.0559	1135.4248	12837.2	11899.25
862.2008	1137.3741	12730.8	11795.4
862.3457	1139.3226	12659.3	11719.4
862.4905	1141.2705	12613.6	11671.9
862.6354	1143.2176	12512.7	11568.7
862.7803	1145.164	12492.35	11552
862.9251	1147.1097	12437.45	11498.95
863.07	1149.0546	12412.35	11472.7
863.2148	1150.9989	12347.7	11409.3
863.3597	1152.9424	12218	11275.7
863.5045	1154.8852	12079.9	11139.2
863.6493	1156.8272	12008.9	11069.35
863.7942	1158.7686	11993.4	11047.05
863.939	1160.7092	11988.55	11047.7
864.0838	1162.6491	12013.2	11068.1
864.2286	1164.5883	12104.1	11161.95
864.3734	1166.5267	12206.75	11263.6
864.5182	1168.4644	12358.05	11420.4
864.663	1170.4014	12533.75	11595.4
864.8078	1172.3377	12789	11852.35
864.9526	1174.2732	13070.9	12132.3
865.0974	1176.2081	13453.85	12516.5
865.2421	1178.1421	13788.1	12846.55
865.3869	1180.0755	14200.25	13267.1
865.5317	1182.0082	14431.95	13495.05
