Software Version:	3.9.2.0
Unit SN:	10000200
Spectrometer SN:	6960
Date:	3/8/2024 1:39:54 PM
Data Line Index:	25
Spectral Points:	2048
Integration time (ms):	125
Averages:	20
Delay (ms):	30000
Sequence Number:	1
Processing:	dark subtract
Laser Power (mW):	305
Laser Current (mA):	822
Laser Diode Temp (C):	25.1
Laser Case Temp (C):	26.2
System Temp (C):	26.2
Spectrometer Temp (C):	24.2
CCD Temp (C):	0.01
Secondary Temp (C):	20.006
Heatsink Temp (C):	20.944
CCDPCB Temp (C):	36.318
SecondaryPCB Temp (C):	30.705

Wavelength	RamanShift	Raw Counts	Dark Subtracted
787.061	30.1047	462.8	54.55
787.2016	32.3739	461.7	57.2
787.3422	34.6426	469.55	61.4
787.4828	36.9109	475.35	67.6
787.6235	39.1787	481.55	69
787.7642	41.4461	493.9	76.5
787.9049	43.7131	500.4	80.3
788.0456	45.9796	510.85	88.75
788.1863	48.2456	520.85	92.45
788.3271	50.5112	530.15	97.35
788.4679	52.7764	542.2	107.65
788.6087	55.0411	551.7	111.8
788.7496	57.3054	561	117.1
788.8904	59.5692	572.05	126.2
789.0313	61.8326	581.6	132.55
789.1722	64.0955	595.8	145.85
789.3132	66.3579	615.25	156.5
789.4541	68.6199	633.3	171.35
789.5951	70.8815	670.3	205.05
789.7361	73.1426	752.45	282.45
789.8771	75.4032	960.5	486.5
790.0181	77.6634	1479	999.25
790.1592	79.9231	2699.6	2212.6
790.3003	82.1824	5363.15	4858.95
790.4414	84.4412	10173.2	9637.7
790.5825	86.6995	16759.65	16185.15
790.7237	88.9574	23194	22589.35
790.8648	91.2148	27660.5	27029.05
791.006	93.4717	29758.75	29110.9
791.1472	95.7282	30222.3	29569
791.2885	97.9842	30162.55	29506.3
791.4297	100.2398	29571.15	28911.4
791.571	102.4949	28983.7	28320.35
791.7123	104.7495	28228.25	27561.2
791.8536	107.0036	27437.45	26770.85
791.9949	109.2573	26670.7	26002.5
792.1363	111.5105	25988.35	25317.35
792.2777	113.7632	25303.65	24631.8
792.4191	116.0154	24714.1	24031.3
792.5605	118.2672	24295.95	23618.45
792.7019	120.5185	23868.85	23191.05
792.8434	122.7693	23490.25	22814.4
792.9849	125.0197	23252.05	22571.25
793.1264	127.2696	22980.85	22290.2
793.2679	129.519	22844	22150.75
793.4094	131.7679	22647.7	21954.7
793.551	134.0163	22499.2	21801.3
793.6926	136.2642	22268.6	21563.75
793.8342	138.5117	22086.7	21383.55
793.9758	140.7587	21846.25	21140.6
794.1175	143.0052	21637.6	20928.4
794.2591	145.2512	21377.25	20670.65
794.4008	147.4967	21159.9	20448.6
794.5425	149.7417	20994.55	20280.75
794.6842	151.9863	20881.8	20165.35
794.826	154.2304	20841.65	20118.8
794.9677	156.4739	20693.8	19965.85
795.1095	158.717	20644.9	19913.6
795.2513	160.9596	20504	19772.1
795.3931	163.2017	20262.3	19527
795.535	165.4433	19998.75	19263.1
795.6768	167.6844	19651.05	18913.95
795.8187	169.925	19340.15	18598.25
795.9606	172.1651	19011.95	18274.6
796.1025	174.4047	18733.55	17989.25
796.2445	176.6439	18471.95	17726.1
796.3864	178.8825	18270.85	17520.2
796.5284	181.1206	18143.3	17387.7
796.6704	183.3582	17961.3	17207.35
796.8124	185.5954	17889.4	17130.45
796.9544	187.832	17850.8	17087.9
797.0965	190.0681	17823.15	17059.25
797.2386	192.3037	17818.7	17050.15
797.3806	194.5388	17794.25	17023.15
797.5228	196.7734	17878	17101.95
797.6649	199.0075	17976.75	17200.1
797.807	201.2411	18103.75	17324
797.9492	203.4742	18202.55	17423.6
798.0914	205.7068	18373.65	17588.75
798.2336	207.9389	18467.1	17684.05
798.3758	210.1704	18637.95	17863.9
798.518	212.4015	18724.65	17963.1
798.6603	214.632	18908.1	18143.8
798.8025	216.862	19141.7	18378.85
798.9448	219.0915	19281.95	18516
799.0871	221.3205	19484.45	18716.75
799.2294	223.549	19722.85	18959.95
799.3718	225.777	20029.45	19265.65
799.5141	228.0044	20352.8	19579.7
799.6565	230.2314	20780.5	20010.6
799.7989	232.4578	21193.5	20422.25
799.9413	234.6837	21519.85	20740.75
800.0837	236.909	21736.1	20949.7
800.2262	239.1339	21708.15	20899.2
800.3687	241.3582	21556.35	20759.25
800.5111	243.582	21214.75	20392.7
800.6536	245.8053	20951.5	20139
800.7961	248.0281	20670.6	19866.5
800.9387	250.2503	20446.4	19636.65
801.0812	252.472	20359.15	19547.75
801.2238	254.6932	20339.85	19526.8
801.3664	256.9139	20313	19502.2
801.509	259.134	20397.55	19577.15
801.6516	261.3536	20365.25	19554.1
801.7942	263.5727	20499.2	19684.3
801.9369	265.7912	20473.75	19660.5
802.0795	268.0092	20561.25	19742.4
802.2222	270.2267	20544.9	19729
802.3649	272.4436	20573.85	19754.3
802.5076	274.6601	20532.15	19705.4
802.6504	276.8759	20426.25	19605
802.7931	279.0913	20414.55	19593.15
802.9359	281.3061	20341.8	19519.4
803.0787	283.5204	20419.3	19589.15
803.2215	285.7341	20460.8	19629.25
803.3643	287.9473	20636.1	19790.05
803.5071	290.16	20851.35	20021
803.6499	292.3721	21133.7	20308.85
803.7928	294.5837	21548.85	20718.2
803.9357	296.7947	21881.3	21053.5
804.0786	299.0052	22077.05	21243.05
804.2215	301.2152	21950.5	21117.2
804.3644	303.4246	21620.8	20795.45
804.5074	305.6334	21110.85	20281.05
804.6503	307.8418	20649.15	19819.2
804.7933	310.0495	20268.5	19429.7
804.9363	312.2568	19956.95	19122.8
805.0793	314.4635	19749.45	18906.5
805.2223	316.6696	19600.3	18757.15
805.3653	318.8752	19513.75	18665.35
805.5084	321.0802	19588.45	18747.7
805.6514	323.2847	19663.4	18818.55
805.7945	325.4887	19745.7	18902.7
805.9376	327.692	19709.4	18860
806.0807	329.8949	19615.55	18765.45
806.2238	332.0972	19367.25	18520.1
806.367	334.2989	19081.25	18227.95
806.5101	336.5001	18827.6	17978.85
806.6533	338.7007	18668.8	17818.6
806.7965	340.9008	18544.75	17686.3
806.9397	343.1003	18448.05	17592.85
807.0829	345.2992	18407.6	17552.95
807.2261	347.4976	18353.8	17499.3
807.3693	349.6955	18373.05	17515.45
807.5126	351.8927	18471.5	17610.3
807.6559	354.0895	18440.7	17568.7
807.7991	356.2856	18482.25	17621.85
807.9424	358.4812	18463.2	17597.7
808.0857	360.6763	18525.55	17659.1
808.2291	362.8707	18505.95	17636
808.3724	365.0646	18547.75	17674.9
808.5158	367.258	18566.95	17691.85
808.6591	369.4508	18605.6	17730.8
808.8025	371.643	18703.8	17826.4
808.9459	373.8346	18703.05	17825.65
809.0893	376.0257	18695.2	17819.3
809.2327	378.2162	18634.2	17757.8
809.3762	380.4062	18550.75	17677.9
809.5196	382.5956	18411.4	17539.2
809.6631	384.7844	18335.8	17468.7
809.8066	386.9726	18233.2	17362.9
809.9501	389.1603	18185.65	17319.3
810.0936	391.3474	18160.15	17261.8
810.2371	393.5339	18152.25	17282.25
810.3806	395.7199	18086.7	17221.3
810.5241	397.9052	18138.1	17270.75
810.6677	400.09	18113.05	17246.45
810.8113	402.2743	18245.2	17380.65
810.9548	404.4579	18325.6	17459.1
811.0984	406.641	18527.3	17652.45
811.2421	408.8235	18721.35	17851.1
811.3857	411.0054	19062.7	18182.85
811.5293	413.1868	19441.65	18560.5
811.673	415.3675	19722.95	18841.75
811.8166	417.5477	19914.2	19031.1
811.9603	419.7273	19925.65	19043
812.104	421.9064	19830.6	18940.55
812.2477	424.0848	19722.9	18843
812.3914	426.2627	19530.8	18650.65
812.5351	428.4399	19270.7	18390.85
812.6788	430.6166	18895.7	18005.1
812.8226	432.7928	18548.25	17659.55
812.9663	434.9683	18277.2	17390.1
813.1101	437.1432	18047.45	17159.5
813.2539	439.3176	17870.85	16992.9
813.3977	441.4914	17771.15	16895.75
813.5415	443.6645	17776.8	16900.7
813.6853	445.8371	17719.35	16832.95
813.8291	448.0091	17667.15	16783.7
813.973	450.1806	17610.25	16727.9
814.1168	452.3514	17568.85	16687.8
814.2607	454.5216	17556.3	16663.2
814.4046	456.6913	17477.15	16596.75
814.5485	458.8603	17552.95	16670.9
814.6924	461.0288	17639	16764.6
814.8363	463.1967	17646.35	16769.85
814.9802	465.3639	17792.1	16909.6
815.1241	467.5306	17841.4	16960.3
815.2681	469.6967	17964.4	17087.45
815.412	471.8622	18107.35	17229.25
815.556	474.0271	18272.95	17393.8
815.7	476.1914	18339.35	17451.3
815.844	478.3551	18326.2	17439.65
815.988	480.5182	18356.55	17472.35
816.132	482.6807	18349.05	17470.85
816.276	484.8426	18466	17598.6
816.4201	487.0039	18757.3	17885.55
816.5641	489.1647	19167.85	18280.4
816.7082	491.3248	19614.25	18730.1
816.8522	493.4843	19750.65	18867.5
816.9963	495.6432	19772.05	18887.05
817.1404	497.8015	19662.3	18769.2
817.2845	499.9592	19710.1	18814.05
817.4286	502.1163	19618.05	18721.95
817.5727	504.2728	19369.6	18481.15
817.7168	506.4287	19067.75	18188.85
817.861	508.5839	18678.05	17802.55
818.0051	510.7386	18384.4	17499.8
818.1493	512.8927	18220.1	17330.3
818.2935	515.0461	18147.95	17258.05
818.4377	517.199	18101.35	17207.15
818.5818	519.3512	18151.35	17252.75
818.726	521.5029	18232.6	17332.3
818.8703	523.6539	18345.7	17447.95
819.0145	525.8043	18410.9	17513.65
819.1587	527.9541	18425.95	17525.35
819.303	530.1033	18384.75	17487.25
819.4472	532.2519	18384.05	17490.75
819.5915	534.3999	18534.2	17633.95
819.7357	536.5472	18776.6	17880.8
819.88	538.694	19181.15	18286.9
820.0243	540.8401	19733	18838.9
820.1686	542.9856	20197.2	19290.7
820.3129	545.1305	20368.9	19455.35
820.4572	547.2748	20277	19364.9
820.6016	549.4185	19914.9	18996.35
820.7459	551.5615	19590.65	18679.9
820.8902	553.704	19487.7	18578.25
821.0346	555.8458	19441.6	18538
821.1789	557.987	19513.3	18609.35
821.3233	560.1276	19504.3	18599.5
821.4677	562.2675	19597.2	18687.85
821.6121	564.4069	19728.2	18821.3
821.7565	566.5456	19788.75	18883.2
821.9009	568.6837	19736.65	18835.6
822.0453	570.8212	19433.9	18530.4
822.1897	572.958	19048.3	18141.4
822.3342	575.0942	18758.95	17856.75
822.4786	577.2299	18538.7	17638.95
822.6231	579.3648	18476.15	17589.1
822.7675	581.4992	18527.55	17650.85
822.912	583.6329	18674.9	17794.95
823.0565	585.766	18905.2	18021.05
823.201	587.8985	19085	18190.3
823.3454	590.0304	19075.2	18151.1
823.4899	592.1616	19014.6	18103.15
823.6345	594.2922	18959.2	18046.65
823.779	596.4222	18774.3	17860.7
823.9235	598.5515	18611.4	17698
824.068	600.6802	18421.95	17509.5
824.2126	602.8083	18263	17354.8
824.3571	604.9358	18218.95	17314.2
824.5017	607.0626	18169.4	17255.9
824.6462	609.1888	18167.85	17253.35
824.7908	611.3144	18155.1	17234.45
824.9354	613.4393	18083.4	17165.8
825.08	615.5636	18043.3	17125.95
825.2246	617.6873	17962.85	17045.75
825.3692	619.8103	17910.35	16993.95
825.5138	621.9327	17815.15	16898.6
825.6584	624.0544	17719.15	16809.1
825.803	626.1756	17716.2	16804.95
825.9477	628.2961	17652.6	16735.65
826.0923	630.4159	17618.25	16698.7
826.237	632.5351	17641.25	16726.15
826.3816	634.6537	17522.05	16603.8
826.5263	636.7716	17503.2	16582.3
826.6709	638.8889	17555.15	16629.25
826.8156	641.0056	17614.4	16691.3
826.9603	643.1216	17566.5	16642.4
827.105	645.237	17619.35	16697.65
827.2497	647.3518	17577.1	16664.35
827.3944	649.4659	17653.3	16745
827.5391	651.5793	17616.85	16707.75
827.6838	653.6922	17560.3	16648.75
827.8285	655.8043	17610.7	16694.95
827.9733	657.9159	17595.95	16679.45
828.118	660.0268	17500.5	16587.7
828.2627	662.137	17470.4	16551.15
828.4075	664.2466	17473.5	16551.55
828.5522	666.3556	17468.95	16544.7
828.697	668.4639	17429.65	16506.4
828.8418	670.5716	17501.4	16589.2
828.9865	672.6786	17560.5	16640.05
829.1313	674.785	17596.7	16673.5
829.2761	676.8907	17655.95	16737.25
829.4209	678.9958	17730.95	16815.65
829.5657	681.1002	17694.05	16773.35
829.7105	683.204	17715.45	16783.4
829.8553	685.3072	17653.5	16727.8
830.0001	687.4097	17604.25	16679.05
830.1449	689.5115	17584.85	16660.75
830.2898	691.6127	17572.9	16651.9
830.4346	693.7132	17504.5	16588.35
830.5794	695.8131	17519.5	16585.3
830.7243	697.9123	17499.8	16572.6
830.8691	700.0109	17449.55	16516.95
831.014	702.1089	17503.6	16577.95
831.1588	704.2061	17491.9	16565.05
831.3037	706.3028	17513.1	16583.7
831.4486	708.3987	17618.65	16686.45
831.5935	710.4941	17630.75	16703.75
831.7383	712.5887	17796.8	16868.2
831.8832	714.6827	18084.85	17155.25
832.0281	716.7761	18369.55	17448.25
832.173	718.8688	18710.8	17788.1
832.3179	720.9608	18969.05	18037.5
832.4628	723.0522	19007.7	18069.25
832.6077	725.1429	18831.65	17900.3
832.7527	727.233	18651.45	17722.7
832.8976	729.3224	18482.6	17553.8
833.0425	731.4112	18242.65	17311.55
833.1874	733.4993	18019.95	17092
833.3324	735.5867	17871.3	16940
833.4773	737.6735	17741.3	16807.2
833.6222	739.7596	17685.25	16753.6
833.7672	741.845	17630.45	16699.25
833.9122	743.9298	17615.8	16686.55
834.0571	746.014	17620.3	16690.4
834.2021	748.0974	17617.85	16679.95
834.347	750.1802	17621.4	16686.3
834.492	752.2624	17622.15	16682.55
834.637	754.3439	17667.35	16728.95
834.782	756.4247	17704.65	16761.3
834.9269	758.5048	17844.5	16909.05
835.0719	760.5843	18064.1	17127.4
835.2169	762.6631	18363.3	17421.9
835.3619	764.7413	18849.45	17913.05
835.5069	766.8188	19489.5	18555.25
835.6519	768.8956	19931.15	18991.5
835.7969	770.9718	20246.15	19310.95
835.9419	773.0473	20124.8	19191.7
836.0869	775.1221	19792.55	18854.35
836.232	777.1962	19431.55	18498.05
836.377	779.2697	19255.75	18319.8
836.522	781.3426	19294.1	18343.1
836.667	783.4147	19522.35	18584.95
836.8121	785.4862	19804.5	18868.7
836.9571	787.557	19782.05	18843.3
837.1021	789.6271	19469.05	18530.2
837.2472	791.6966	18970.25	18031.05
837.3922	793.7654	18392.6	17452.4
837.5373	795.8335	18088.85	17154
837.6823	797.901	17883.55	16945.95
837.8274	799.9678	17815.5	16877.15
837.9724	802.0339	17770.8	16828.35
838.1175	804.0993	17833.8	16882.75
838.2626	806.1641	17836.6	16893.6
838.4076	808.2282	17804.35	16865.6
838.5527	810.2916	17707.4	16765
838.6978	812.3544	17609.8	16675.85
838.8428	814.4164	17545.8	16611.4
838.9879	816.4778	17573.25	16631.5
839.133	818.5385	17587.65	16644.7
839.2781	820.5986	17675.8	16732.4
839.4232	822.658	17792.75	16850.7
839.5682	824.7166	17968.55	17025.3
839.7133	826.7747	18242.2	17305.9
839.8584	828.832	18448.9	17508.8
840.0035	830.8886	18614.8	17668.1
840.1486	832.9446	18750.05	17809.2
840.2937	834.9999	18762.75	17822.7
840.4388	837.0545	18736.05	17790.55
840.5839	839.1085	18694.55	17747.6
840.729	841.1618	18613.5	17665.85
840.8741	843.2143	18575.35	17634.2
841.0192	845.2662	18453.35	17511.85
841.1643	847.3175	18434.95	17490.75
841.3095	849.368	18287.8	17345.1
841.4546	851.4179	18177.8	17238.85
841.5997	853.467	18061.6	17118.9
841.7448	855.5155	17991.45	17046.3
841.8899	857.5633	17868.6	16923.8
842.0351	859.6105	17744.75	16801.6
842.1802	861.6569	17689.85	16741.6
842.3253	863.7027	17669.2	16723.95
842.4704	865.7478	17653.85	16707.85
842.6156	867.7922	17636.8	16691.75
842.7607	869.8359	17752.35	16806.2
842.9058	871.8789	17820.3	16874.9
843.0509	873.9212	18005.7	17025.3
843.1961	875.9629	18106.55	17161.7
843.3412	878.0039	18298.35	17352.3
843.4863	880.0441	18349.65	17406.55
843.6315	882.0837	18411.4	17469.15
843.7766	884.1226	18327.8	17383.9
843.9218	886.1609	18278.4	17333
844.0669	888.1984	18227.75	17281.8
844.212	890.2352	18302.2	17354.65
844.3572	892.2714	18239.15	17290.05
844.5023	894.3069	18236.45	17288.05
844.6475	896.3416	18123.75	17172.9
844.7926	898.3757	18112.9	17168.85
844.9377	900.4091	18111.7	17162.2
845.0829	902.4418	18117.05	17161.1
845.228	904.4739	18104.9	17154.05
845.3732	906.5052	18147.5	17197.25
845.5183	908.5358	18064.3	17114.85
845.6635	910.5658	17906.35	16955.1
845.8086	912.595	17722.05	16772.85
845.9538	914.6236	17582.65	16636.3
846.0989	916.6515	17561.85	16608.7
846.2441	918.6786	17495.35	16543.45
846.3892	920.7051	17566.2	16611.95
846.5344	922.7309	17689	16740.3
846.6795	924.756	17742.45	16792.8
846.8246	926.7804	17884.45	16934.2
846.9698	928.8041	17787.8	16840.35
847.1149	930.8272	17828.15	16876.9
847.2601	932.8495	17775.3	16824.35
847.4052	934.8711	17727.65	16778.05
847.5504	936.892	17623.2	16670.9
847.6955	938.9123	17485.75	16534.9
847.8407	940.9318	17382.55	16434.2
847.9858	942.9506	17268.05	16317.45
848.131	944.9688	17199.8	16248.1
848.2761	946.9862	17151.4	16202.3
848.4213	949.003	17049.75	16097.85
848.5664	951.019	17025	16076.7
848.7115	953.0344	17031.75	16081.35
848.8567	955.0491	17069.9	16117.3
849.0018	957.063	17142.6	16192.4
849.147	959.0763	17279.9	16328.05
849.2921	961.0888	17319.2	16369.9
849.4373	963.1007	17423.6	16477.45
849.5824	965.1119	17485.2	16545.45
849.7275	967.1223	17461.9	16530.7
849.8727	969.1321	17482.15	16548.65
850.0178	971.1412	17523.9	16586.8
850.1629	973.1495	17539.15	16596.05
850.3081	975.1572	17624.15	16625.75
850.4532	977.1641	17629.4	16679.3
850.5983	979.1704	17555.05	16604.35
850.7435	981.1759	17554.5	16600.6
850.8886	983.1808	17653.85	16701.9
851.0337	985.1849	17742.65	16780.55
851.1788	987.1884	17843.5	16893.1
851.324	989.1911	18000.65	17050.3
851.4691	991.1932	18129.45	17185.7
851.6142	993.1945	18167.35	17218.5
851.7593	995.1951	18095.95	17147.65
851.9045	997.1951	18086.5	17129.95
852.0496	999.1943	17968.95	17022.65
852.1947	1001.1928	17939	16990.1
852.3398	1003.1906	17945.45	16999.1
852.4849	1005.1877	17975.25	17022.6
852.63	1007.1841	17984.45	17032.9
852.7751	1009.1798	17923.05	16974.8
852.9202	1011.1748	17746.4	16801.25
853.0653	1013.1691	17588.15	16639.55
853.2104	1015.1627	17355.2	16403.7
853.3555	1017.1556	17140.65	16195.35
853.5006	1019.1477	17050.3	16105.5
853.6457	1021.1392	16938.95	15998.5
853.7908	1023.1299	16895.9	15959.6
853.9359	1025.12	16916.8	15985.1
854.081	1027.1093	16965.85	16049.05
854.2261	1029.0979	17056.95	16142.55
854.3712	1031.0859	17131.15	16210.65
854.5163	1033.0731	17123.95	16192.8
854.6613	1035.0596	17068.1	16129.55
854.8064	1037.0454	16923.3	15982
854.9515	1039.0304	16834.35	15890.55
855.0965	1041.0148	16646.8	15699.9
855.2416	1042.9985	16553.05	15603.35
855.3867	1044.9814	16563.2	15615.75
855.5317	1046.9636	16471.7	15524.55
855.6768	1048.9452	16489.9	15544.3
855.8219	1050.926	16507.45	15563.65
855.9669	1052.9061	16498	15555.4
856.112	1054.8855	16492.45	15547.65
856.257	1056.8642	16551	15606.1
856.4021	1058.8421	16582.9	15628
856.5471	1060.8194	16605.5	15659.65
856.6921	1062.7959	16634.9	15690.5
856.8372	1064.7717	16655.55	15710.45
856.9822	1066.7469	16713.25	15763.8
857.1272	1068.7213	16741	15793.85
857.2723	1070.695	16733.45	15787.5
857.4173	1072.6679	16671.8	15718.85
857.5623	1074.6402	16635.7	15689.45
857.7073	1076.6117	16638.95	15687.45
857.8523	1078.5826	16583.35	15637.35
857.9973	1080.5527	16601.35	15650.65
858.1423	1082.5221	16639.1	15692.95
858.2873	1084.4908	16796.4	15850.35
858.4323	1086.4587	16955.3	16010.15
858.5773	1088.426	17063.6	16120.3
858.7223	1090.3925	17063.3	16113.75
858.8673	1092.3584	17076.1	16129
859.0123	1094.3235	16895.5	15947.9
859.1573	1096.2879	16876.35	15930.65
859.3022	1098.2515	16880.75	15935.65
859.4472	1100.2145	16994.85	16048.45
859.5922	1102.1767	17063.5	16114.25
859.7371	1104.1382	17254.85	16311.65
859.8821	1106.099	17451.25	16503.45
860.027	1108.0591	17639.7	16694.95
860.172	1110.0185	17827.15	16879.5
860.3169	1111.9771	17812.9	16867.5
860.4619	1113.9351	17608.45	16659.4
860.6068	1115.8923	17358.3	16411.3
860.7517	1117.8488	17087.25	16142.5
860.8967	1119.8045	16816.1	15873.05
861.0416	1121.7596	16704.15	15761.4
861.1865	1123.7139	16629.6	15689.15
861.3314	1125.6675	16622.5	15679.45
861.4763	1127.6204	16711.35	15769.55
861.6212	1129.5726	16663.2	15720.8
861.7661	1131.524	16664.15	15719.7
861.911	1133.4748	16623.95	15679.5
862.0559	1135.4248	16532.35	15583.8
862.2008	1137.3741	16508.05	15560.95
862.3457	1139.3226	16442.95	15493.05
862.4905	1141.2705	16422.65	15477.1
862.6354	1143.2176	16277.2	15328.8
862.7803	1145.164	16325	15379.9
862.9251	1147.1097	16317.45	15372.45
863.07	1149.0546	16291.9	15341.4
863.2148	1150.9989	16191.65	15244.1
863.3597	1152.9424	16074.5	15128.85
863.5045	1154.8852	15953.85	15009.7
863.6493	1156.8272	15887.15	14943.4
863.7942	1158.7686	15851.4	14895.7
863.939	1160.7092	15808.05	14862.05
864.0838	1162.6491	15759.3	14814.5
864.2286	1164.5883	15884.1	14939.95
864.3734	1166.5267	15971.05	15025.9
864.5182	1168.4644	16090.9	15147.45
864.663	1170.4014	16246.55	15301.65
864.8078	1172.3377	16512.45	15572.4
864.9526	1174.2732	16743.15	15803.5
865.0974	1176.2081	17014.25	16071.45
865.2421	1178.1421	17297.05	16351.3
865.3869	1180.0755	17556.1	16615.45
865.5317	1182.0082	17678.45	16737.25
