Software Version:	3.9.2.0
Unit SN:	10000200
Spectrometer SN:	6960
Date:	3/8/2024 11:36:30 AM
Data Line Index:	25
Spectral Points:	2048
Integration time (ms):	125
Averages:	20
Delay (ms):	30000
Sequence Number:	1
Processing:	dark subtract
Laser Power (mW):	300
Laser Current (mA):	822
Laser Diode Temp (C):	25
Laser Case Temp (C):	25.2
System Temp (C):	25.1
Spectrometer Temp (C):	23
CCD Temp (C):	-0.003
Secondary Temp (C):	20.008
Heatsink Temp (C):	19.884
CCDPCB Temp (C):	34.917
SecondaryPCB Temp (C):	27.625

Wavelength	RamanShift	Raw Counts	Dark Subtracted
787.061	30.1047	416.45	7.45
787.2016	32.3739	413.6	5.4
787.3422	34.6426	414.15	5.3
787.4828	36.9109	416.7	6.85
787.6235	39.1787	420.25	6.65
787.7642	41.4461	426.45	7.4
787.9049	43.7131	430.9	6.75
788.0456	45.9796	434.35	9.55
788.1863	48.2456	438.6	10.65
788.3271	50.5112	440.3	8.8
788.4679	52.7764	446.9	13.5
788.6087	55.0411	450.5	9
788.7496	57.3054	457.35	11.75
788.8904	59.5692	462.8	16.8
789.0313	61.8326	461.95	14.1
789.1722	64.0955	467.7	15
789.3132	66.3579	475.75	18.15
789.4541	68.6199	481.1	18.9
789.5951	70.8815	492.45	27.15
789.7361	73.1426	511.35	41.1
789.8771	75.4032	547.65	74.7
790.0181	77.6634	625.6	150.5
790.1592	79.9231	802.95	323.2
790.3003	82.1824	1180.2	693.75
790.4414	84.4412	1786.25	1287.85
790.5825	86.6995	2571.85	2060.65
790.7237	88.9574	3299.6	2780.85
790.8648	91.2148	3801.35	3274.15
791.006	93.4717	4000.9	3465.95
791.1472	95.7282	4028.4	3489.95
791.2885	97.9842	4013.9	3474.1
791.4297	100.2398	3940.75	3398.95
791.571	102.4949	3880.65	3337.25
791.7123	104.7495	3843.1	3294.2
791.8536	107.0036	3797.15	3248.85
791.9949	109.2573	3725.3	3178.15
792.1363	111.5105	3621.2	3070.15
792.2777	113.7632	3532.9	2978.3
792.4191	116.0154	3415.75	2852.7
792.5605	118.2672	3294.9	2735.3
792.7019	120.5185	3201.8	2640.1
792.8434	122.7693	3068.7	2506.7
792.9849	125.0197	2981.05	2412.7
793.1264	127.2696	2895.9	2325.7
793.2679	129.519	2866.85	2294.85
793.4094	131.7679	2834.4	2257.7
793.551	134.0163	2798.75	2221.75
793.6926	136.2642	2790.75	2209
793.8342	138.5117	2776.95	2191.95
793.9758	140.7587	2752.3	2168.05
794.1175	143.0052	2702.1	2112.5
794.2591	145.2512	2650.7	2059.9
794.4008	147.4967	2592.4	2002.1
794.5425	149.7417	2549.05	1954.2
794.6842	151.9863	2530.2	1934.9
794.826	154.2304	2506.25	1904.35
794.9677	156.4739	2509.25	1902.55
795.1095	158.717	2506.35	1898.9
795.2513	160.9596	2547.55	1935.7
795.3931	163.2017	2572.35	1956.95
795.535	165.4433	2571.2	1953.9
795.6768	167.6844	2569.8	1951.4
795.8187	169.925	2541.5	1920.9
795.9606	172.1651	2487.8	1866.75
796.1025	174.4047	2447.25	1817.75
796.2445	176.6439	2387.4	1759.8
796.3864	178.8825	2368.55	1733.55
796.5284	181.1206	2350.7	1715.5
796.6704	183.3582	2331.3	1690.2
796.8124	185.5954	2327.1	1682.2
796.9544	187.832	2317.4	1670.65
797.0965	190.0681	2332.5	1684.75
797.2386	192.3037	2343.8	1693.3
797.3806	194.5388	2354.1	1696.65
797.5228	196.7734	2352.15	1696.45
797.6649	199.0075	2374.2	1714.8
797.807	201.2411	2388.5	1732.05
797.9492	203.4742	2422.15	1761.85
798.0914	205.7068	2448.3	1781.2
798.2336	207.9389	2471.3	1804.4
798.3758	210.1704	2488.7	1826.35
798.518	212.4015	2482.05	1831.1
798.6603	214.632	2485.8	1840.2
798.8025	216.862	2488.8	1845.45
798.9448	219.0915	2494.2	1849.05
799.0871	221.3205	2512.65	1863.65
799.2294	223.549	2522.65	1878.85
799.3718	225.777	2518.1	1871.8
799.5141	228.0044	2512.2	1858.75
799.6565	230.2314	2503.6	1852.8
799.7989	232.4578	2476.25	1820.8
799.9413	234.6837	2481.6	1816.05
800.0837	236.909	2461	1794.25
800.2262	239.1339	2473.7	1781.8
800.3687	241.3582	2459	1782.5
800.5111	243.582	2472.15	1764.4
800.6536	245.8053	2473.8	1779.95
800.7961	248.0281	2469.05	1781.3
800.9387	250.2503	2482.3	1789.85
801.0812	252.472	2491.4	1797.95
801.2238	254.6932	2511.65	1817.45
801.3664	256.9139	2498.9	1804
801.509	259.134	2527.9	1824.9
801.6516	261.3536	2543.5	1846.85
801.7942	263.5727	2601.75	1903.35
801.9369	265.7912	2650.75	1948.8
802.0795	268.0092	2711.5	2010.6
802.2222	270.2267	2779.25	2078.45
802.3649	272.4436	2818.1	2117.1
802.5076	274.6601	2865.45	2152.15
802.6504	276.8759	2894.65	2183.6
802.7931	279.0913	2924.5	2212.05
802.9359	281.3061	2933.2	2223
803.0787	283.5204	2952.85	2237.15
803.2215	285.7341	2984.15	2267.55
803.3643	287.9473	2996.4	2277.6
803.5071	290.16	3005.5	2285.75
803.6499	292.3721	2958.9	2245.35
803.7928	294.5837	2922.15	2206.05
803.9357	296.7947	2890.85	2173.85
804.0786	299.0052	2875.1	2156
804.2215	301.2152	2869.65	2146.4
804.3644	303.4246	2854.75	2139.55
804.5074	305.6334	2830.75	2113.7
804.6503	307.8418	2806.75	2083.15
804.7933	310.0495	2780	2056.9
804.9363	312.2568	2735.75	2012.35
805.0793	314.4635	2697.95	1974.4
805.2223	316.6696	2647.1	1916.45
805.3653	318.8752	2590.9	1854.1
805.5084	321.0802	2557.45	1830.25
805.6514	323.2847	2555.15	1824
805.7945	325.4887	2562.9	1832.85
805.9376	327.692	2575.2	1840.7
806.0807	329.8949	2627.75	1892.05
806.2238	332.0972	2664.05	1928.35
806.367	334.2989	2699.75	1958.75
806.5101	336.5001	2687.8	1948.2
806.6533	338.7007	2672.9	1932.4
806.7965	340.9008	2608.6	1865.8
806.9397	343.1003	2554.5	1812.55
807.0829	345.2992	2497.75	1753.2
807.2261	347.4976	2448.1	1702.2
807.3693	349.6955	2424.25	1676.95
807.5126	351.8927	2412.1	1660.15
807.6559	354.0895	2397.15	1635.55
807.7991	356.2856	2374.75	1620.95
807.9424	358.4812	2355.65	1602.1
808.0857	360.6763	2363.2	1609.55
808.2291	362.8707	2359.1	1602.95
808.3724	365.0646	2348.5	1587.2
808.5158	367.258	2368.75	1607.05
808.6591	369.4508	2389.6	1623.85
808.8025	371.643	2414.5	1647.6
808.9459	373.8346	2461.45	1691.85
809.0893	376.0257	2488.35	1716.8
809.2327	378.2162	2514.2	1746.7
809.3762	380.4062	2536.35	1767.45
809.5196	382.5956	2491.3	1723
809.6631	384.7844	2459.65	1695.25
809.8066	386.9726	2407.95	1645
809.9501	389.1603	2390.8	1627.65
810.0936	391.3474	2382.55	1588.65
810.2371	393.5339	2357.55	1594.95
810.3806	395.7199	2377.9	1612
810.5241	397.9052	2404.35	1643.2
810.6677	400.09	2450.4	1684.35
810.8113	402.2743	2499.65	1733.8
810.9548	404.4579	2537.2	1771.75
811.0984	406.641	2592.3	1822.35
811.2421	408.8235	2629.55	1858.95
811.3857	411.0054	2679.5	1905.3
811.5293	413.1868	2749	1971.4
811.673	415.3675	2812.8	2035.8
811.8166	417.5477	2792.7	2013.55
811.9603	419.7273	2743	1962
812.104	421.9064	2645.05	1853.9
812.2477	424.0848	2578.65	1793.25
812.3914	426.2627	2521.1	1738.75
812.5351	428.4399	2457.8	1674.9
812.6788	430.6166	2399.05	1612.35
812.8226	432.7928	2347.6	1559.1
812.9663	434.9683	2296.2	1505.65
813.1101	437.1432	2275	1484.4
813.2539	439.3176	2252.05	1461.75
813.3977	441.4914	2235.4	1445.95
813.5415	443.6645	2233.2	1442.05
813.6853	445.8371	2241.45	1451.75
813.8291	448.0091	2238.9	1449.7
813.973	450.1806	2230.45	1438.45
814.1168	452.3514	2224.3	1431.85
814.2607	454.5216	2240.75	1436.5
814.4046	456.6913	2230.8	1435.6
814.5485	458.8603	2226.75	1435.05
814.6924	461.0288	2234.9	1442.65
814.8363	463.1967	2234.75	1442.1
814.9802	465.3639	2240.25	1442.3
815.1241	467.5306	2228.4	1431.9
815.2681	469.6967	2220.5	1423.45
815.412	471.8622	2210.5	1413.55
815.556	474.0271	2210.85	1414.7
815.7	476.1914	2211.3	1412.15
815.844	478.3551	2205.35	1405
815.988	480.5182	2200.9	1404.65
816.132	482.6807	2208	1409.85
816.276	484.8426	2230.45	1435.25
816.4201	487.0039	2270.2	1472.05
816.5641	489.1647	2340.7	1539.6
816.7082	491.3248	2375.3	1574.4
816.8522	493.4843	2400.2	1599.6
816.9963	495.6432	2388.05	1584.55
817.1404	497.8015	2365.75	1558.2
817.2845	499.9592	2301.95	1495.85
817.4286	502.1163	2260.75	1453.5
817.5727	504.2728	2201.85	1393.7
817.7168	506.4287	2175.35	1370.4
817.861	508.5839	2152.2	1348.15
818.0051	510.7386	2148.25	1340.4
818.1493	512.8927	2161.95	1345.5
818.2935	515.0461	2174.2	1363.35
818.4377	517.199	2187.8	1378.4
818.5818	519.3512	2241.4	1432.45
818.726	521.5029	2318.2	1501.3
818.8703	523.6539	2374.55	1563.35
819.0145	525.8043	2382.35	1567
819.1587	527.9541	2321.5	1506.15
819.303	530.1033	2252.85	1438.6
819.4472	532.2519	2197.95	1383.4
819.5915	534.3999	2176.5	1359.6
819.7357	536.5472	2172.75	1358.4
819.88	538.694	2164.35	1349.45
820.0243	540.8401	2193.9	1378.75
820.1686	542.9856	2211.15	1392.05
820.3129	545.1305	2219.5	1398.3
820.4572	547.2748	2240.55	1420.25
820.6016	549.4185	2245.9	1422.4
820.7459	551.5615	2254.5	1433.15
820.8902	553.704	2263.55	1442.8
821.0346	555.8458	2278.35	1461.4
821.1789	557.987	2302.9	1483.05
821.3233	560.1276	2335.65	1514.35
821.4677	562.2675	2393.65	1574.45
821.6121	564.4069	2470.5	1649.8
821.7565	566.5456	2517.35	1697.05
821.9009	568.6837	2494.9	1674.3
822.0453	570.8212	2408.2	1587.9
822.1897	572.958	2325	1500.8
822.3342	575.0942	2259.55	1437.75
822.4786	577.2299	2226.25	1401.2
822.6231	579.3648	2195.95	1373.15
822.7675	581.4992	2168.7	1349.35
822.912	583.6329	2169.7	1352.15
823.0565	585.766	2230.1	1410.55
823.201	587.8985	2277.1	1454.45
823.3454	590.0304	2341.85	1504.45
823.4899	592.1616	2351.3	1520.7
823.6345	594.2922	2361.95	1532.2
823.779	596.4222	2313.7	1483.9
823.9235	598.5515	2242	1412.05
824.068	600.6802	2188.5	1360.85
824.2126	602.8083	2144	1314.8
824.3571	604.9358	2135.15	1305.85
824.5017	607.0626	2131.25	1300.6
824.6462	609.1888	2137.15	1303.35
824.7908	611.3144	2179.25	1347.65
824.9354	613.4393	2207.3	1372.9
825.08	615.5636	2262.2	1428.6
825.2246	617.6873	2308.55	1475.75
825.3692	619.8103	2360.95	1525.2
825.5138	621.9327	2352.2	1517.25
825.6584	624.0544	2312.9	1480.15
825.803	626.1756	2241.3	1409.4
825.9477	628.2961	2190.85	1354.75
826.0923	630.4159	2163.75	1327.75
826.237	632.5351	2164.8	1329.05
826.3816	634.6537	2160.35	1323.55
826.5263	636.7716	2136.15	1297.85
826.6709	638.8889	2141.05	1302.3
826.8156	641.0056	2143.55	1305.6
826.9603	643.1216	2148.6	1309.8
827.105	645.237	2155.35	1315.6
827.2497	647.3518	2128.9	1291.05
827.3944	649.4659	2109.45	1273.3
827.5391	651.5793	2080	1241.5
827.6838	653.6922	2069.45	1231.5
827.8285	655.8043	2056.3	1215.95
827.9733	657.9159	2036.95	1195.85
828.118	660.0268	2030.95	1186.45
828.2627	662.137	2033.45	1191.15
828.4075	664.2466	2026.55	1182.15
828.5522	666.3556	2039.65	1194.45
828.697	668.4639	2025.5	1181.2
828.8418	670.5716	2020.4	1179.65
828.9865	672.6786	2009.9	1166
829.1313	674.785	2013	1167.05
829.2761	676.8907	2005	1161.35
829.4209	678.9958	1990.6	1149.55
829.5657	681.1002	2001.35	1154.7
829.7105	683.204	2011.35	1161.75
829.8553	685.3072	2001	1154.8
830.0001	687.4097	1996.45	1150.15
830.1449	689.5115	1997.95	1150.2
830.2898	691.6127	1992.75	1149.3
830.4346	693.7132	1992.5	1144.6
830.5794	695.8131	1999.65	1137.75
830.7243	697.9123	1991.55	1143.8
830.8691	700.0109	1993.6	1143.75
831.014	702.1089	2009.9	1161.2
831.1588	704.2061	2036.7	1188.4
831.3037	706.3028	2064.5	1214.05
831.4486	708.3987	2074.2	1224.05
831.5935	710.4941	2090.3	1240.55
831.7383	712.5887	2082.85	1231.1
831.8832	714.6827	2094.5	1237.7
832.0281	716.7761	2085.55	1236.05
832.173	718.8688	2082.7	1231.35
832.3179	720.9608	2089.2	1234.05
832.4628	723.0522	2100.55	1245.7
832.6077	725.1429	2129.25	1275.35
832.7527	727.233	2161.55	1308
832.8976	729.3224	2237.45	1385.1
833.0425	731.4112	2291.3	1436.9
833.1874	733.4993	2302.45	1446.75
833.3324	735.5867	2246.6	1391.75
833.4773	737.6735	2160.1	1305.1
833.6222	739.7596	2105.55	1249.95
833.7672	741.845	2070.15	1214.75
833.9122	743.9298	2064.95	1205.6
834.0571	746.014	2068	1213.6
834.2021	748.0974	2090.85	1232.75
834.347	750.1802	2080.8	1226.65
834.492	752.2624	2078.6	1222.85
834.637	754.3439	2076.05	1217.55
834.782	756.4247	2065.85	1199.75
834.9269	758.5048	2063.3	1204.55
835.0719	760.5843	2085.8	1226.65
835.2169	762.6631	2116.35	1256.85
835.3619	764.7413	2184.35	1326.05
835.5069	766.8188	2276.15	1416.35
835.6519	768.8956	2374	1513.5
835.7969	770.9718	2428.45	1572
835.9419	773.0473	2417.15	1558.25
836.0869	775.1221	2376.95	1517.95
836.232	777.1962	2371.1	1511.45
836.377	779.2697	2421.35	1560.55
836.522	781.3426	2555.45	1678.7
836.667	783.4147	2613.05	1752.15
836.8121	785.4862	2605.05	1746.7
836.9571	787.557	2502.15	1639.4
837.1021	789.6271	2350.55	1489.55
837.2472	791.6966	2223	1363.85
837.3922	793.7654	2113.6	1250.55
837.5373	795.8335	2056.1	1193.05
837.6823	797.901	2010.15	1149.25
837.8274	799.9678	2019.5	1156.45
837.9724	802.0339	2000.35	1139.3
838.1175	804.0993	2027.65	1156.7
838.2626	806.1641	2004.05	1139.75
838.4076	808.2282	1977.55	1116.85
838.5527	810.2916	1960	1095.1
838.6978	812.3544	1952.4	1090.5
838.8428	814.4164	1943.6	1081.5
838.9879	816.4778	1954.9	1090.6
839.133	818.5385	1971.15	1108.25
839.2781	820.5986	2001.15	1137.5
839.4232	822.658	2057.9	1190.1
839.5682	824.7166	2124.85	1259.85
839.7133	826.7747	2228	1365.95
839.8584	828.832	2317.55	1452.25
840.0035	830.8886	2382.7	1514.95
840.1486	832.9446	2413.8	1547.25
840.2937	834.9999	2368.35	1507.1
840.4388	837.0545	2295.55	1427
840.5839	839.1085	2196.9	1328.05
840.729	841.1618	2117.2	1245.85
840.8741	843.2143	2060.65	1191.6
841.0192	845.2662	2010.25	1145.45
841.1643	847.3175	2004.85	1140.45
841.3095	849.368	1986.8	1121.9
841.4546	851.4179	1986.9	1119.95
841.5997	853.467	1986.15	1120.8
841.7448	855.5155	1989.7	1122.05
841.8899	857.5633	1990	1121.55
842.0351	859.6105	1983.15	1117.65
842.1802	861.6569	1974.2	1105.6
842.3253	863.7027	1960.45	1089.75
842.4704	865.7478	1944.7	1076.3
842.6156	867.7922	1946.65	1076.65
842.7607	869.8359	1918.75	1049.35
842.9058	871.8789	1920.9	1051.55
843.0509	873.9212	1944.7	1043.8
843.1961	875.9629	1927.65	1057.9
843.3412	878.0039	1943.2	1073.1
843.4863	880.0441	1965.6	1097
843.6315	882.0837	1980.25	1108.5
843.7766	884.1226	2006.85	1135.25
843.9218	886.1609	2043.4	1174.9
844.0669	888.1984	2102.4	1233.85
844.212	890.2352	2146.65	1275.4
844.3572	892.2714	2154	1282.15
844.5023	894.3069	2127.3	1256.1
844.6475	896.3416	2072.75	1201
844.7926	898.3757	2026.6	1154
844.9377	900.4091	2000.05	1129.65
845.0829	902.4418	2009.15	1133.55
845.228	904.4739	2029.55	1154.1
845.3732	906.5052	2047.65	1175.2
845.5183	908.5358	2038.25	1164.8
845.6635	910.5658	2017.35	1142.65
845.8086	912.595	1961.75	1088.35
845.9538	914.6236	1933.9	1059.8
846.0989	916.6515	1902.45	1032.85
846.2441	918.6786	1872.3	996.35
846.3892	920.7051	1875.65	1002.4
846.5344	922.7309	1871.45	997.75
846.6795	924.756	1872.1	998.2
846.8246	926.7804	1890.8	1016.1
846.9698	928.8041	1889.25	1015.3
847.1149	930.8272	1909.8	1036.05
847.2601	932.8495	1911.8	1036.2
847.4052	934.8711	1932.35	1054.5
847.5504	936.892	1931.75	1056.85
847.6955	938.9123	1958.2	1084
847.8407	940.9318	1988.55	1113.25
847.9858	942.9506	2002.7	1128.35
848.131	944.9688	1985.7	1111.45
848.2761	946.9862	1968	1093.95
848.4213	949.003	1927.95	1053.95
848.5664	951.019	1903.8	1029.2
848.7115	953.0344	1884.3	1010.4
848.8567	955.0491	1864.5	987.45
849.0018	957.063	1857.5	980.75
849.147	959.0763	1863	987.35
849.2921	961.0888	1856.35	978.85
849.4373	963.1007	1864.85	989.55
849.5824	965.1119	1850.85	976.25
849.7275	967.1223	1838.25	966.35
849.8727	969.1321	1830.85	957.5
850.0178	971.1412	1836.35	963.55
850.1629	973.1495	1826.45	952.1
850.3081	975.1572	1850.1	942.25
850.4532	977.1641	1830.3	954.4
850.5983	979.1704	1832.4	952.95
850.7435	981.1759	1826.05	944.9
850.8886	983.1808	1823	944.65
851.0337	985.1849	1819.4	931.55
851.1788	987.1884	1814.85	937.2
851.324	989.1911	1814.05	932.65
851.4691	991.1932	1820.45	940.7
851.6142	993.1945	1824.75	946.1
851.7593	995.1951	1816.3	939.95
851.9045	997.1951	1822.75	939.45
852.0496	999.1943	1817.35	938.85
852.1947	1001.1928	1818.15	937.1
852.3398	1003.1906	1830.25	951.7
852.4849	1005.1877	1848.15	968.55
852.63	1007.1841	1878.4	1000.65
852.7751	1009.1798	1895.95	1018.65
852.9202	1011.1748	1881.55	1004
853.0653	1013.1691	1860.2	983.2
853.2104	1015.1627	1823.1	943.8
853.3555	1017.1556	1793.65	916.15
853.5006	1019.1477	1773.15	895.15
853.6457	1021.1392	1754	880.05
853.7908	1023.1299	1744.35	869.2
853.9359	1025.12	1735.2	858.65
854.081	1027.1093	1738.5	864.25
854.2261	1029.0979	1780.95	908.6
854.3712	1031.0859	1792.75	919.4
854.5163	1033.0731	1817.35	939.7
854.6613	1035.0596	1808.85	932.15
854.8064	1037.0454	1801.55	921.4
854.9515	1039.0304	1787.95	909.05
855.0965	1041.0148	1759.8	878.6
855.2416	1042.9985	1740.25	856.3
855.3867	1044.9814	1731.45	852.85
855.5317	1046.9636	1725.15	842.1
855.6768	1048.9452	1740.4	861.35
855.8219	1050.926	1756.75	879.85
855.9669	1052.9061	1769.05	889.9
856.112	1054.8855	1776.65	896.25
856.257	1056.8642	1776.6	896.85
856.4021	1058.8421	1785.1	901.3
856.5471	1060.8194	1778.45	899.1
856.6921	1062.7959	1766.55	886.15
856.8372	1064.7717	1764.9	884.35
856.9822	1066.7469	1759.25	876.45
857.1272	1068.7213	1770	886.45
857.2723	1070.695	1790.55	911.2
857.4173	1072.6679	1812.7	930.65
857.5623	1074.6402	1837.55	960
857.7073	1076.6117	1849.3	963.8
857.8523	1078.5826	1810.55	929.6
857.9973	1080.5527	1780.4	897.4
858.1423	1082.5221	1741.9	860.6
858.2873	1084.4908	1713.35	832.2
858.4323	1086.4587	1708.05	825.75
858.5773	1088.426	1695.6	812.9
858.7223	1090.3925	1698.35	812.1
858.8673	1092.3584	1694.9	811.6
859.0123	1094.3235	1708.35	828.45
859.1573	1096.2879	1729.05	847.7
859.3022	1098.2515	1754.85	873.65
859.4472	1100.2145	1785.15	905.25
859.5922	1102.1767	1823.5	941.65
859.7371	1104.1382	1869	983.1
859.8821	1106.099	1930.25	1044.05
860.027	1108.0591	1984.4	1102.3
860.172	1110.0185	2012.15	1125.45
860.3169	1111.9771	2064.2	1182.55
860.4619	1113.9351	2103.65	1221.2
860.6068	1115.8923	2172.5	1290.5
860.7517	1117.8488	2197.4	1313.15
860.8967	1119.8045	2152.75	1271.65
861.0416	1121.7596	2051	1167.1
861.1865	1123.7139	1930.65	1050.6
861.3314	1125.6675	1882.55	1001.7
861.4763	1127.6204	1875.95	993.4
861.6212	1129.5726	1903.85	1016.6
861.7661	1131.524	1899.35	1017.45
861.911	1133.4748	1859.5	976.1
862.0559	1135.4248	1786.5	903.5
862.2008	1137.3741	1731.7	849.55
862.3457	1139.3226	1715	831.5
862.4905	1141.2705	1705.9	823.6
862.6354	1143.2176	1719.35	829.6
862.7803	1145.164	1738.45	856.05
862.9251	1147.1097	1732.2	849.35
863.07	1149.0546	1708.65	822.8
863.2148	1150.9989	1671.3	788.4
863.3597	1152.9424	1656.95	772.4
863.5045	1154.8852	1646.9	761.6
863.6493	1156.8272	1634.9	753.45
863.7942	1158.7686	1639.7	750
863.939	1160.7092	1637.9	753.1
864.0838	1162.6491	1650.15	762.3
864.2286	1164.5883	1647.1	763.55
864.3734	1166.5267	1671.75	785.25
864.5182	1168.4644	1700.55	816
864.663	1170.4014	1736.2	849.25
864.8078	1172.3377	1782.6	900.8
864.9526	1174.2732	1827	944.7
865.0974	1176.2081	1927.5	1043.4
865.2421	1178.1421	2064.1	1175.75
865.3869	1180.0755	2186.65	1304.55
865.5317	1182.0082	2251.95	1369.25
865.6764	1183.9401	2229.65	1346.85
865.8212	1185.8713	2109.45	1226.95
865.9659	1187.8017	1984.3	1099.7
866.1106	1189.7315	1866.15	986.9
866.2554	1191.6605	1812.85	905.65
866.4001	1193.5888	1740.2	858.65
866.5448	1195.5163	1706.9	826.2
866.6895	1197.4432	1697.35	812.05
866.8342	1199.3693	1672.95	791.6
866.9789	1201.2947	1655.4	768.5
867.1236	1203.2193	1640.2	753.85
867.2683	1205.1432	1642.05	756.75
867.413	1207.0664	1639.35	754.8
867.5576	1208.9889	1645	757.8
867.7023	1210.9106	1648.05	760.7
867.847	1212.8316	1646.3	762.9
867.9916	1214.7519	1672.55	779.75
868.1363	1216.6715	1668.1	784.05
868.2809	1218.5903	1673.75	790.85
868.4255	1220.5084	1694.8	808.65
868.5701	1222.4257	1725.75	842.65
868.7148	1224.3424	1733.05	849.4
868.8594	1226.2583	1757.45	867.95
869.004	1228.1735	1778.45	893.35
869.1486	1230.0879	1816.9	932.45
869.2932	1232.0016	1868.95	984.5
869.4377	1233.9146	1899	1011.1
869.5823	1235.8269	1924.15	1038.9
869.7269	1237.7384	1935	1050.15
869.8715	1239.6492	1927.95	1045.3
870.016	1241.5592	1955	1068.65
870.1606	1243.4686	1990.2	1105.85
870.3051	1245.3772	2077.1	1192.15
870.4496	1247.285	2171.65	1287.35
