Software Version:	3.9.2.0
Unit SN:	10000200
Spectrometer SN:	6960
Date:	3/8/2024 1:26:30 PM
Data Line Index:	25
Spectral Points:	2048
Integration time (ms):	125
Averages:	20
Delay (ms):	30000
Sequence Number:	1
Processing:	dark subtract
Laser Power (mW):	305
Laser Current (mA):	822
Laser Diode Temp (C):	25.1
Laser Case Temp (C):	26.3
System Temp (C):	26.2
Spectrometer Temp (C):	24.1
CCD Temp (C):	0.009
Secondary Temp (C):	20.01
Heatsink Temp (C):	21.366
CCDPCB Temp (C):	36.296
SecondaryPCB Temp (C):	30.749

Wavelength	RamanShift	Raw Counts	Dark Subtracted
787.061	30.1047	453.3	45.15
787.2016	32.3739	453.25	46.4
787.3422	34.6426	459.5	53.75
787.4828	36.9109	462.55	54.9
787.6235	39.1787	470.75	58.95
787.7642	41.4461	482.75	64.35
787.9049	43.7131	487.55	68.4
788.0456	45.9796	495.3	71.1
788.1863	48.2456	504.15	77.8
788.3271	50.5112	512.95	78.1
788.4679	52.7764	524.1	88.45
788.6087	55.0411	532.9	92.9
788.7496	57.3054	546.4	101.9
788.8904	59.5692	549.65	103.5
789.0313	61.8326	562.6	113.7
789.1722	64.0955	574.3	122.85
789.3132	66.3579	591.25	134.7
789.4541	68.6199	614.7	153.8
789.5951	70.8815	640.5	174.3
789.7361	73.1426	720.3	249.5
789.8771	75.4032	918.9	443.55
790.0181	77.6634	1394.7	915.65
790.1592	79.9231	2514.4	2026.65
790.3003	82.1824	4956.7	4451.6
790.4414	84.4412	9318.9	8781.3
790.5825	86.6995	15365.75	14789.55
790.7237	88.9574	21241.4	20631.8
790.8648	91.2148	25285.3	24653.8
791.006	93.4717	27107.6	26456.75
791.1472	95.7282	27439.95	26784.45
791.2885	97.9842	27267.4	26606.9
791.4297	100.2398	26643.45	25982.25
791.571	102.4949	25946.85	25280.75
791.7123	104.7495	25129.95	24460.6
791.8536	107.0036	24310.8	23643
791.9949	109.2573	23530.2	22867.45
792.1363	111.5105	22756.7	22082
792.2777	113.7632	22017.15	21342.4
792.4191	116.0154	21362.8	20681.05
792.5605	118.2672	20941.35	20263.55
792.7019	120.5185	20463.45	19780.8
792.8434	122.7693	20076.9	19396.35
792.9849	125.0197	19770.9	19084.35
793.1264	127.2696	19459.85	18768.05
793.2679	129.519	19308.05	18613.25
793.4094	131.7679	19093.85	18400.25
793.551	134.0163	18889.75	18187.75
793.6926	136.2642	18639.5	17932.8
793.8342	138.5117	18379.9	17670.3
793.9758	140.7587	18087.2	17381.05
794.1175	143.0052	17872.55	17163.1
794.2591	145.2512	17565	16853.3
794.4008	147.4967	17318.55	16608.4
794.5425	149.7417	17130.1	16419.7
794.6842	151.9863	16984.25	16264.05
794.826	154.2304	16953.05	16228.75
794.9677	156.4739	16772.55	16042.7
795.1095	158.717	16717.15	15988.05
795.2513	160.9596	16518.6	15786.45
795.3931	163.2017	16285.1	15549.7
795.535	165.4433	15994.1	15255.35
795.6768	167.6844	15620.15	14879
795.8187	169.925	15313.55	14574.25
795.9606	172.1651	14933	14189.4
796.1025	174.4047	14649.8	13905.1
796.2445	176.6439	14392.5	13647.45
796.3864	178.8825	14161.35	13409.5
796.5284	181.1206	13988.55	13228.65
796.6704	183.3582	13833.3	13072.05
796.8124	185.5954	13710.9	12948.4
796.9544	187.832	13641.55	12877.8
797.0965	190.0681	13611.55	12840.7
797.2386	192.3037	13591.55	12815.9
797.3806	194.5388	13575.65	12798.8
797.5228	196.7734	13624.9	12848.6
797.6649	199.0075	13660.8	12883.7
797.807	201.2411	13786.2	13001.15
797.9492	203.4742	13853.45	13072.9
798.0914	205.7068	13998.5	13206.6
798.2336	207.9389	14112.8	13326.9
798.3758	210.1704	14284.65	13502
798.518	212.4015	14356.35	13586.35
798.6603	214.632	14522.4	13758.25
798.8025	216.862	14716.65	13951.7
798.9448	219.0915	14835.85	14070.85
799.0871	221.3205	15050.05	14281.35
799.2294	223.549	15232.5	14469.3
799.3718	225.777	15473.55	14708.8
799.5141	228.0044	15768.25	14995.75
799.6565	230.2314	16162.35	15387.45
799.7989	232.4578	16523.35	15746.5
799.9413	234.6837	16827	16043.45
800.0837	236.909	17016.15	16228.05
800.2262	239.1339	16972.85	16161.95
800.3687	241.3582	16813.65	16016.7
800.5111	243.582	16536.6	15709.55
800.6536	245.8053	16228.05	15415.5
800.7961	248.0281	16003.05	15194.15
800.9387	250.2503	15793.65	14981.05
801.0812	252.472	15702	14890.1
801.2238	254.6932	15669.45	14855.45
801.3664	256.9139	15671.6	14858.7
801.509	259.134	15732.45	14916.25
801.6516	261.3536	15773.35	14953.15
801.7942	263.5727	15855.7	15035.05
801.9369	265.7912	15914.55	15094.6
802.0795	268.0092	16020.1	15201.9
802.2222	270.2267	16019.95	15196.15
802.3649	272.4436	16037.95	15217.9
802.5076	274.6601	16011.75	15183.4
802.6504	276.8759	15903.15	15080.15
802.7931	279.0913	15804.9	14983.6
802.9359	281.3061	15760.6	14932.65
803.0787	283.5204	15772.5	14943.05
803.2215	285.7341	15811.45	14976
803.3643	287.9473	15940.35	15096.05
803.5071	290.16	16111.6	15276.4
803.6499	292.3721	16381.4	15551.1
803.7928	294.5837	16740.4	15909
803.9357	296.7947	17068.25	16235.75
804.0786	299.0052	17274.2	16440.1
804.2215	301.2152	17184.15	16349.7
804.3644	303.4246	16863.4	16030.7
804.5074	305.6334	16342.85	15509.3
804.6503	307.8418	15849.4	15015.8
804.7933	310.0495	15422.55	14587.85
804.9363	312.2568	15080.75	14242.85
805.0793	314.4635	14836.75	13996.1
805.2223	316.6696	14655.4	13811.8
805.3653	318.8752	14574.1	13719.7
805.5084	321.0802	14597.45	13753.55
805.6514	323.2847	14685.95	13839.25
805.7945	325.4887	14731.1	13879.9
805.9376	327.692	14681.5	13829.2
806.0807	329.8949	14552.85	13704.2
806.2238	332.0972	14316.85	13471.15
806.367	334.2989	14051.35	13195.9
806.5101	336.5001	13794.15	12936.95
806.6533	338.7007	13589.65	12733.8
806.7965	340.9008	13466.5	12604.95
806.9397	343.1003	13307.5	12451.25
807.0829	345.2992	13251.8	12391.95
807.2261	347.4976	13240.45	12380
807.3693	349.6955	13173.5	12308.4
807.5126	351.8927	13222.7	12355.85
807.6559	354.0895	13222.95	12348.25
807.7991	356.2856	13209.25	12342.1
807.9424	358.4812	13208.95	12341.1
808.0857	360.6763	13213.9	12345.75
808.2291	362.8707	13199.75	12324.75
808.3724	365.0646	13234.7	12364.65
808.5158	367.258	13284.05	12411.2
808.6591	369.4508	13313.8	12439.1
808.8025	371.643	13406.4	12527.7
808.9459	373.8346	13425.65	12547.05
809.0893	376.0257	13396.9	12512.95
809.2327	378.2162	13338.45	12457.45
809.3762	380.4062	13307.3	12427.65
809.5196	382.5956	13130.95	12256
809.6631	384.7844	13005.3	12136.45
809.8066	386.9726	12938.35	12068.95
809.9501	389.1603	12864.1	11994.55
810.0936	391.3474	12803.1	11899.9
810.2371	393.5339	12788.8	11915.6
810.3806	395.7199	12745.55	11873.1
810.5241	397.9052	12768.8	11896.65
810.6677	400.09	12792.6	11918.3
810.8113	402.2743	12884.1	12009.25
810.9548	404.4579	12979.75	12104.05
811.0984	406.641	13187.3	12315.1
811.2421	408.8235	13361.9	12487.4
811.3857	411.0054	13655.3	12773.3
811.5293	413.1868	14033.3	13152.2
811.673	415.3675	14298.7	13412.35
811.8166	417.5477	14435.75	13548.2
811.9603	419.7273	14473.75	13587.95
812.104	421.9064	14376	13483.55
812.2477	424.0848	14259.85	13372.4
812.3914	426.2627	14084.3	13197
812.5351	428.4399	13795	12904.05
812.6788	430.6166	13426.75	12533.35
812.8226	432.7928	13080.65	12186.5
812.9663	434.9683	12759.35	11866.15
813.1101	437.1432	12547.85	11665.35
813.2539	439.3176	12387.35	11504.9
813.3977	441.4914	12256.85	11378.35
813.5415	443.6645	12230.35	11349.3
813.6853	445.8371	12171	11283.2
813.8291	448.0091	12135.3	11244.65
813.973	450.1806	12084.8	11201.2
814.1168	452.3514	12074.6	11185.65
814.2607	454.5216	12083.4	11186
814.4046	456.6913	12042.95	11155.2
814.5485	458.8603	12039.05	11154.05
814.6924	461.0288	12090.5	11212.8
814.8363	463.1967	12099.4	11222.45
814.9802	465.3639	12215.9	11333.3
815.1241	467.5306	12277.15	11390.05
815.2681	469.6967	12362.65	11478.15
815.412	471.8622	12492.9	11613.1
815.556	474.0271	12619.95	11733.3
815.7	476.1914	12691.7	11801.55
815.844	478.3551	12686.65	11796
815.988	480.5182	12691.95	11808.3
816.132	482.6807	12673.05	11794.1
816.276	484.8426	12841	11967.65
816.4201	487.0039	13134.65	12255.65
816.5641	489.1647	13532.4	12644.6
816.7082	491.3248	13945.75	13053.65
816.8522	493.4843	14102.7	13219.85
816.9963	495.6432	14086.7	13205.65
817.1404	497.8015	13973.1	13077.9
817.2845	499.9592	13930.95	13028.45
817.4286	502.1163	13873.75	12969.9
817.5727	504.2728	13578.3	12686.95
817.7168	506.4287	13302.65	12426.6
817.861	508.5839	12898.55	12018.3
818.0051	510.7386	12578.9	11690.4
818.1493	512.8927	12443.5	11547.3
818.2935	515.0461	12332.5	11433.55
818.4377	517.199	12348.3	11448.6
818.5818	519.3512	12382	11481.45
818.726	521.5029	12506.7	11602.95
818.8703	523.6539	12603.85	11708.65
819.0145	525.8043	12659.25	11755.8
819.1587	527.9541	12640.25	11735.2
819.303	530.1033	12572.55	11669.65
819.4472	532.2519	12580.7	11678.8
819.5915	534.3999	12680.75	11779.7
819.7357	536.5472	12898.65	12000.85
819.88	538.694	13264.2	12363.3
820.0243	540.8401	13770.9	12863.35
820.1686	542.9856	14205.15	13291.3
820.3129	545.1305	14337.55	13414.9
820.4572	547.2748	14207.75	13288.05
820.6016	549.4185	13910.9	12988.45
820.7459	551.5615	13585.55	12670.8
820.8902	553.704	13475.8	12560.7
821.0346	555.8458	13457.5	12544.95
821.1789	557.987	13548.65	12637.95
821.3233	560.1276	13580.35	12670.55
821.4677	562.2675	13712.75	12802.1
821.6121	564.4069	13873.8	12962.3
821.7565	566.5456	14003.4	13093.6
821.9009	568.6837	13997.55	13089.2
822.0453	570.8212	13678.7	12772.15
822.1897	572.958	13248.6	12338.2
822.3342	575.0942	12864.3	11957.4
822.4786	577.2299	12606.9	11705.9
822.6231	579.3648	12526.45	11637.25
822.7675	581.4992	12559.55	11680.05
822.912	583.6329	12738.65	11856.1
823.0565	585.766	12958.1	12071.9
823.201	587.8985	13105.25	12212.7
823.3454	590.0304	13125.8	12196.8
823.4899	592.1616	13043.45	12129.25
823.6345	594.2922	12928.65	12015.45
823.779	596.4222	12779.65	11862.15
823.9235	598.5515	12606.35	11686.2
824.068	600.6802	12428.75	11512.7
824.2126	602.8083	12266.7	11356.1
824.3571	604.9358	12206.05	11290.65
824.5017	607.0626	12176.7	11257.4
824.6462	609.1888	12172.95	11246.25
824.7908	611.3144	12200.45	11271.5
824.9354	613.4393	12144.25	11221.1
825.08	615.5636	12106.95	11180.9
825.2246	617.6873	12059.2	11134.55
825.3692	619.8103	11969.85	11046.35
825.5138	621.9327	11870.8	10953
825.6584	624.0544	11787.9	10871.15
825.803	626.1756	11695.15	10779.85
825.9477	628.2961	11632.65	10712.15
826.0923	630.4159	11553.55	10629.9
826.237	632.5351	11526.65	10598.85
826.3816	634.6537	11479.6	10553.9
826.5263	636.7716	11471.3	10542.7
826.6709	638.8889	11475.95	10542.75
826.8156	641.0056	11506.9	10573.65
826.9603	643.1216	11498.4	10567.65
827.105	645.237	11504.5	10579.55
827.2497	647.3518	11460.3	10542.65
827.3944	649.4659	11444.35	10531.05
827.5391	651.5793	11456.15	10541.15
827.6838	653.6922	11422.95	10507.3
827.8285	655.8043	11424.85	10507.95
827.9733	657.9159	11409.1	10487.4
828.118	660.0268	11351	10428.4
828.2627	662.137	11304.65	10383.65
828.4075	664.2466	11297.25	10366.8
828.5522	666.3556	11266.15	10337.45
828.697	668.4639	11244.9	10320.75
828.8418	670.5716	11273.3	10356.5
828.9865	672.6786	11316.9	10390.05
829.1313	674.785	11352.3	10421.45
829.2761	676.8907	11382.8	10457.05
829.4209	678.9958	11460.6	10539.3
829.5657	681.1002	11450.6	10526.65
829.7105	683.204	11412.55	10476.15
829.8553	685.3072	11380.25	10450.45
830.0001	687.4097	11331.05	10399.8
830.1449	689.5115	11288.9	10356
830.2898	691.6127	11259.55	10335.25
830.4346	693.7132	11205.65	10282.65
830.5794	695.8131	11183.5	10240.3
830.7243	697.9123	11179.45	10246.45
830.8691	700.0109	11152.8	10216.2
831.014	702.1089	11166.65	10232.75
831.1588	704.2061	11192.55	10260.1
831.3037	706.3028	11232.9	10299.25
831.4486	708.3987	11269.75	10333.7
831.5935	710.4941	11339.55	10405.15
831.7383	712.5887	11496.5	10561.35
831.8832	714.6827	11703.2	10766.65
832.0281	716.7761	11976.65	11051.75
832.173	718.8688	12317.55	11390.15
832.3179	720.9608	12491.8	11554.15
832.4628	723.0522	12579.05	11635
832.6077	725.1429	12431.4	11494.05
832.7527	727.233	12267.75	11329.3
832.8976	729.3224	12104.45	11171.65
833.0425	731.4112	11877.95	10940.15
833.1874	733.4993	11729.75	10794.05
833.3324	735.5867	11544.25	10614.15
833.4773	737.6735	11434.6	10499.6
833.6222	739.7596	11323.65	10389.3
833.7672	741.845	11218.7	10282.65
833.9122	743.9298	11192.05	10258.4
834.0571	746.014	11179.25	10247.3
834.2021	748.0974	11193.4	10248
834.347	750.1802	11178.95	10235.8
834.492	752.2624	11206.7	10264
834.637	754.3439	11266	10325.15
834.782	756.4247	11340	10390
834.9269	758.5048	11470.1	10529.85
835.0719	760.5843	11707.95	10765.65
835.2169	762.6631	12053	11111.65
835.3619	764.7413	12581.75	11642.55
835.5069	766.8188	13197.2	12255.65
835.6519	768.8956	13678.15	12732.9
835.7969	770.9718	13996.35	13052.75
835.9419	773.0473	13843.7	12903.65
836.0869	775.1221	13558.85	12615.45
836.232	777.1962	13206.4	12264.2
836.377	779.2697	13053.9	12109.2
836.522	781.3426	13086.4	12134.15
836.667	783.4147	13297.7	12353.75
836.8121	785.4862	13564.2	12625.8
836.9571	787.557	13527.85	12583.25
837.1021	789.6271	13157.65	12210.3
837.2472	791.6966	12589.45	11643.75
837.3922	793.7654	12013.65	11069.95
837.5373	795.8335	11684.55	10740.5
837.6823	797.901	11429.3	10483.15
837.8274	799.9678	11345	10401.2
837.9724	802.0339	11360.55	10414.5
838.1175	804.0993	11395.7	10436.95
838.2626	806.1641	11330.3	10383.4
838.4076	808.2282	11298.5	10353.55
838.5527	810.2916	11213.3	10266.2
838.6978	812.3544	11113.55	10170.05
838.8428	814.4164	11032.25	10086.2
838.9879	816.4778	11048.6	10103.9
839.133	818.5385	11073.05	10122.8
839.2781	820.5986	11161.3	10211.55
839.4232	822.658	11310.85	10360.95
839.5682	824.7166	11483.55	10534.8
839.7133	826.7747	11807.65	10857.2
839.8584	828.832	12073.25	11121.7
840.0035	830.8886	12314.75	11361.85
840.1486	832.9446	12447.75	11494.9
840.2937	834.9999	12410.95	11465.75
840.4388	837.0545	12364.65	11412.9
840.5839	839.1085	12256.75	11307.45
840.729	841.1618	12133.85	11183.15
840.8741	843.2143	12021.95	11071.6
841.0192	845.2662	11929.8	10982.35
841.1643	847.3175	11849.65	10899
841.3095	849.368	11737.1	10788.4
841.4546	851.4179	11637.25	10688.65
841.5997	853.467	11511.25	10561.2
841.7448	855.5155	11404.9	10454.3
841.8899	857.5633	11291.1	10340.85
842.0351	859.6105	11203.6	10251
842.1802	861.6569	11164.6	10217.8
842.3253	863.7027	11110.25	10155.15
842.4704	865.7478	11077.1	10123.35
842.6156	867.7922	11088.15	10134.8
842.7607	869.8359	11092.65	10138.1
842.9058	871.8789	11197.15	10246.3
843.0509	873.9212	11339.15	10360.85
843.1961	875.9629	11453.75	10501.85
843.3412	878.0039	11620.2	10668.4
843.4863	880.0441	11703.4	10755.75
843.6315	882.0837	11765.35	10815.85
843.7766	884.1226	11711.85	10761.6
843.9218	886.1609	11655.55	10702.85
844.0669	888.1984	11619.75	10669.25
844.212	890.2352	11627.5	10675.15
844.3572	892.2714	11629.3	10672.35
844.5023	894.3069	11590.1	10633.6
844.6475	896.3416	11506.75	10551.8
844.7926	898.3757	11400.8	10446.45
844.9377	900.4091	11387.35	10435.2
845.0829	902.4418	11410.25	10452.4
845.228	904.4739	11410.9	10451.85
845.3732	906.5052	11433.95	10476.15
845.5183	908.5358	11368.15	10411.85
845.6635	910.5658	11250.5	10294.55
845.8086	912.595	11040.6	10084.05
845.9538	914.6236	10877.05	9921
846.0989	916.6515	10771.05	9817.1
846.2441	918.6786	10749.55	9792.6
846.3892	920.7051	10804.5	9845.9
846.5344	922.7309	10873.5	9917.05
846.6795	924.756	10949.4	9995.25
846.8246	926.7804	11069.05	10116.9
846.9698	928.8041	11020.05	10064.85
847.1149	930.8272	11077.65	10122.2
847.2601	932.8495	11024.7	10065.5
847.4052	934.8711	10997.8	10042.6
847.5504	936.892	10873.45	9920.55
847.6955	938.9123	10758.1	9800.95
847.8407	940.9318	10701.15	9746.3
847.9858	942.9506	10629.6	9673.1
848.131	944.9688	10542.25	9588.45
848.2761	946.9862	10481.95	9525.95
848.4213	949.003	10394.5	9439.2
848.5664	951.019	10368.1	9417.9
848.7115	953.0344	10382.05	9428.9
848.8567	955.0491	10411.65	9455.1
849.0018	957.063	10458.35	9498.6
849.147	959.0763	10548.45	9595.95
849.2921	961.0888	10614.5	9655.8
849.4373	963.1007	10696.6	9745.95
849.5824	965.1119	10727.75	9782.35
849.7275	967.1223	10736.4	9797.3
849.8727	969.1321	10748.95	9811.85
850.0178	971.1412	10778.1	9832.25
850.1629	973.1495	10780.35	9830.3
850.3081	975.1572	10861.05	9861.3
850.4532	977.1641	10866.45	9910.95
850.5983	979.1704	10825.85	9869.95
850.7435	981.1759	10818.2	9859.35
850.8886	983.1808	10908.95	9953
851.0337	985.1849	10957.35	9991.05
851.1788	987.1884	11055.05	10100.1
851.324	989.1911	11218.8	10265.75
851.4691	991.1932	11339.2	10388.05
851.6142	993.1945	11364.55	10409.8
851.7593	995.1951	11339.05	10384.65
851.9045	997.1951	11322.8	10362.2
852.0496	999.1943	11231.85	10277.2
852.1947	1001.1928	11218.65	10261.3
852.3398	1003.1906	11236.05	10283.85
852.4849	1005.1877	11310.95	10356.2
852.63	1007.1841	11316.95	10367.7
852.7751	1009.1798	11280.45	10329.4
852.9202	1011.1748	11151.85	10198.9
853.0653	1013.1691	10972.75	10018
853.2104	1015.1627	10760.75	9804.7
853.3555	1017.1556	10561.65	9609.6
853.5006	1019.1477	10439.8	9491.85
853.6457	1021.1392	10372.4	9426.8
853.7908	1023.1299	10351.05	9410.4
853.9359	1025.12	10382.45	9446.75
854.081	1027.1093	10434.4	9509.9
854.2261	1029.0979	10527	9608.6
854.3712	1031.0859	10627.3	9699.35
854.5163	1033.0731	10630.1	9690.5
854.6613	1035.0596	10556	9614.25
854.8064	1037.0454	10438.65	9489.8
854.9515	1039.0304	10338	9389.55
855.0965	1041.0148	10204.1	9253.25
855.2416	1042.9985	10145.3	9192.1
855.3867	1044.9814	10066.45	9120.25
855.5317	1046.9636	10054.65	9100.75
855.6768	1048.9452	10024.3	9077.6
855.8219	1050.926	10081.9	9129.25
855.9669	1052.9061	10083.8	9134.65
856.112	1054.8855	10070.9	9117.75
856.257	1056.8642	10117.75	9168
856.4021	1058.8421	10177.2	9216.4
856.5471	1060.8194	10196.35	9242.3
856.6921	1062.7959	10263.65	9311
856.8372	1064.7717	10306.6	9351.85
856.9822	1066.7469	10337.9	9383
857.1272	1068.7213	10342.75	9386.5
857.2723	1070.695	10357.8	9406.15
857.4173	1072.6679	10341.75	9390.65
857.5623	1074.6402	10316.8	9362.95
857.7073	1076.6117	10291.3	9333.05
857.8523	1078.5826	10240.95	9286.95
857.9973	1080.5527	10212.65	9258.05
858.1423	1082.5221	10282	9329.55
858.2873	1084.4908	10402.8	9454.05
858.4323	1086.4587	10541.55	9589.6
858.5773	1088.426	10628.15	9676.05
858.7223	1090.3925	10621.95	9664
858.8673	1092.3584	10644.25	9691.7
859.0123	1094.3235	10520.75	9569.1
859.1573	1096.2879	10505.9	9553.9
859.3022	1098.2515	10562.9	9607.95
859.4472	1100.2145	10646.4	9695.75
859.5922	1102.1767	10744.2	9793
859.7371	1104.1382	10930.95	9980.5
859.8821	1106.099	11168.6	10218.15
860.027	1108.0591	11395.5	10444.1
860.172	1110.0185	11554.8	10600.1
860.3169	1111.9771	11597.7	10645.95
860.4619	1113.9351	11405.7	10452.15
860.6068	1115.8923	11180.7	10233.9
860.7517	1117.8488	10942.1	9992.1
860.8967	1119.8045	10651.25	9702.7
861.0416	1121.7596	10552.65	9603.7
861.1865	1123.7139	10458.95	9509.9
861.3314	1125.6675	10452.75	9499.85
861.4763	1127.6204	10536.05	9587.8
861.6212	1129.5726	10492.25	9541.1
861.7661	1131.524	10462.8	9514.2
861.911	1133.4748	10418.95	9466.65
862.0559	1135.4248	10340.95	9389.45
862.2008	1137.3741	10306.45	9356.45
862.3457	1139.3226	10247.85	9299.7
862.4905	1141.2705	10210.8	9260.25
862.6354	1143.2176	10122.5	9165.05
862.7803	1145.164	10104.25	9153.5
862.9251	1147.1097	10067.05	9115.4
863.07	1149.0546	10055	9103.55
863.2148	1150.9989	9966.55	9012.65
863.3597	1152.9424	9833.6	8884.3
863.5045	1154.8852	9709.1	8756.4
863.6493	1156.8272	9636.55	8686.5
863.7942	1158.7686	9582.8	8628.15
863.939	1160.7092	9559.75	8610.4
864.0838	1162.6491	9560.75	8608.45
864.2286	1164.5883	9662.75	8710.4
864.3734	1166.5267	9765.95	8816
864.5182	1168.4644	9884.15	8935.8
864.663	1170.4014	10069.9	9119.45
864.8078	1172.3377	10337.95	9389.6
864.9526	1174.2732	10564.25	9617.85
865.0974	1176.2081	10882.9	9934.6
865.2421	1178.1421	11186.85	10235.7
865.3869	1180.0755	11514.05	10567.15
865.5317	1182.0082	11672.4	10723.95
865.6764	1183.9401	11766.4	10817.65
865.8212	1185.8713	11596.45	10652.4
865.9659	1187.8017	11394.65	10464.3
