Software Version:	3.9.2.0
Unit SN:	10000200
Spectrometer SN:	6960
Date:	3/8/2024 11:09:24 AM
Data Line Index:	25
Spectral Points:	2048
Integration time (ms):	125
Averages:	20
Delay (ms):	30000
Sequence Number:	1
Processing:	dark subtract
Laser Power (mW):	300
Laser Current (mA):	817
Laser Diode Temp (C):	25
Laser Case Temp (C):	24.3
System Temp (C):	24.3
Spectrometer Temp (C):	22.3
CCD Temp (C):	0
Secondary Temp (C):	20.006
Heatsink Temp (C):	19.055
CCDPCB Temp (C):	32.728
SecondaryPCB Temp (C):	25.958

Wavelength	RamanShift	Raw Counts	Dark Subtracted
787.061	30.1047	435.7	24.8
787.2016	32.3739	434.95	27.15
787.3422	34.6426	441.8	31.05
787.4828	36.9109	444.2	32.95
787.6235	39.1787	448.3	32.1
787.7642	41.4461	456.8	36.45
787.9049	43.7131	462	40.2
788.0456	45.9796	467.15	40.05
788.1863	48.2456	474.55	46.2
788.3271	50.5112	479.5	45.75
788.4679	52.7764	486.35	49.25
788.6087	55.0411	492.85	52.35
788.7496	57.3054	504.4	57.95
788.8904	59.5692	508.05	62.25
789.0313	61.8326	517.15	68.7
789.1722	64.0955	521.5	69.2
789.3132	66.3579	534.55	79.05
789.4541	68.6199	546.75	84.15
789.5951	70.8815	577.9	113.95
789.7361	73.1426	624.6	156.45
789.8771	75.4032	751.85	279.5
790.0181	77.6634	1067.1	591.65
790.1592	79.9231	1803.5	1325.4
790.3003	82.1824	3275.25	2793.1
790.4414	84.4412	5818.05	5331.35
790.5825	86.6995	9117.35	8623
790.7237	88.9574	12250.6	11752.8
790.8648	91.2148	14359.25	13855.3
791.006	93.4717	15363.9	14856.95
791.1472	95.7282	15544.9	15038.6
791.2885	97.9842	15524.4	15013.8
791.4297	100.2398	15324.6	14812.4
791.571	102.4949	15131.55	14614.75
791.7123	104.7495	14908.7	14390.6
791.8536	107.0036	14667.45	14147
791.9949	109.2573	14434.95	13917.9
792.1363	111.5105	14168.55	13646.55
792.2777	113.7632	13755.1	13233.05
792.4191	116.0154	13347.8	12815.3
792.5605	118.2672	12908.5	12380.5
792.7019	120.5185	12448.25	11917.05
792.8434	122.7693	11943.25	11411.35
792.9849	125.0197	11553.85	11015.35
793.1264	127.2696	11184	10643.4
793.2679	129.519	10960.55	10417.3
793.4094	131.7679	10781.15	10232.6
793.551	134.0163	10665.6	10117.9
793.6926	136.2642	10613.15	10060.6
793.8342	138.5117	10574.55	10017.55
793.9758	140.7587	10473.1	9920.25
794.1175	143.0052	10355.4	9795.4
794.2591	145.2512	10154.1	9594.15
794.4008	147.4967	9884.2	9320.75
794.5425	149.7417	9635.8	9070.95
794.6842	151.9863	9458.95	8890.5
794.826	154.2304	9356.3	8782.4
794.9677	156.4739	9297.05	8719.1
795.1095	158.717	9363.2	8785.05
795.2513	160.9596	9475.65	8891.45
795.3931	163.2017	9637.05	9052.8
795.535	165.4433	9750.65	9166.3
795.6768	167.6844	9783.95	9194.75
795.8187	169.925	9656.6	9063
795.9606	172.1651	9407.65	8811.5
796.1025	174.4047	9186.6	8586.8
796.2445	176.6439	8989.9	8388.6
796.3864	178.8825	8807.6	8201.3
796.5284	181.1206	8705.45	8097.9
796.6704	183.3582	8651.05	8035.1
796.8124	185.5954	8619.45	8006.45
796.9544	187.832	8585.35	7967.35
797.0965	190.0681	8616.7	7996.65
797.2386	192.3037	8618.55	7993.9
797.3806	194.5388	8624.3	7999.85
797.5228	196.7734	8638.25	8012.55
797.6649	199.0075	8733.35	8105.9
797.807	201.2411	8831.25	8200.7
797.9492	203.4742	8928	8297.45
798.0914	205.7068	9058.5	8422.95
798.2336	207.9389	9144.8	8506.75
798.3758	210.1704	9196.6	8564.3
798.518	212.4015	9242.2	8620.15
798.6603	214.632	9277.65	8662.5
798.8025	216.862	9287.25	8672.85
798.9448	219.0915	9303.5	8685.65
799.0871	221.3205	9397.6	8777.4
799.2294	223.549	9440.4	8824.95
799.3718	225.777	9470.55	8854.35
799.5141	228.0044	9427.2	8802.5
799.6565	230.2314	9431.1	8806.05
799.7989	232.4578	9351.3	8721
799.9413	234.6837	9283.2	8643.2
800.0837	236.909	9236.9	8595.9
800.2262	239.1339	9166.8	8504.75
800.3687	241.3582	9105.5	8456.45
800.5111	243.582	9114	8435.1
800.6536	245.8053	9109	8442.25
800.7961	248.0281	9129	8467.05
800.9387	250.2503	9182.2	8517.95
801.0812	252.472	9194.3	8528.5
801.2238	254.6932	9228.65	8562.25
801.3664	256.9139	9231.3	8562.05
801.509	259.134	9289.7	8615.75
801.6516	261.3536	9364.55	8695.6
801.7942	263.5727	9522.55	8851.15
801.9369	265.7912	9721.35	9048.4
802.0795	268.0092	10001.65	9327.45
802.2222	270.2267	10295.95	9624.95
802.3649	272.4436	10544.2	9868.3
802.5076	274.6601	10696.15	10011.7
802.6504	276.8759	10822.35	10140.1
802.7931	279.0913	10921.55	10239.7
802.9359	281.3061	10983.8	10301.1
803.0787	283.5204	11106.05	10419.35
803.2215	285.7341	11253.4	10563.75
803.3643	287.9473	11364.45	10675.5
803.5071	290.16	11377.6	10683.75
803.6499	292.3721	11160.1	10474.95
803.7928	294.5837	10929.4	10241.35
803.9357	296.7947	10714.75	10026.3
804.0786	299.0052	10633.65	9945.35
804.2215	301.2152	10511.7	9819
804.3644	303.4246	10505.75	9815.65
804.5074	305.6334	10498.85	9809.55
804.6503	307.8418	10429.85	9735.6
804.7933	310.0495	10324.35	9628.4
804.9363	312.2568	10169.15	9472.45
805.0793	314.4635	9979	9279.45
805.2223	316.6696	9727.35	9024.35
805.3653	318.8752	9495.65	8785.5
805.5084	321.0802	9324.1	8622.1
805.6514	323.2847	9261.45	8557.75
805.7945	325.4887	9275	8572.1
805.9376	327.692	9359.25	8653.55
806.0807	329.8949	9550	8840.95
806.2238	332.0972	9803.7	9091.85
806.367	334.2989	10004.2	9290.8
806.5101	336.5001	10063.75	9351.35
806.6533	338.7007	9945.5	9233.25
806.7965	340.9008	9706.8	8992.65
806.9397	343.1003	9374.35	8656.35
807.0829	345.2992	9091.25	8374.9
807.2261	347.4976	8877.7	8159.45
807.3693	349.6955	8692.6	7967.35
807.5126	351.8927	8582.35	7858.45
807.6559	354.0895	8483	7749.35
807.7991	356.2856	8426.35	7698
807.9424	358.4812	8380.65	7652.9
808.0857	360.6763	8357.6	7628.6
808.2291	362.8707	8316.2	7584.1
808.3724	365.0646	8321.45	7586.65
808.5158	367.258	8338.7	7603
808.6591	369.4508	8404.25	7664.25
808.8025	371.643	8547.6	7808.7
808.9459	373.8346	8641.6	7899.35
809.0893	376.0257	8841.75	8097
809.2327	378.2162	8994.55	8251.95
809.3762	380.4062	9112.1	8369.65
809.5196	382.5956	9038.3	8297.9
809.6631	384.7844	8868.9	8131.4
809.8066	386.9726	8614.4	7880.7
809.9501	389.1603	8416.75	7682.45
810.0936	391.3474	8339.45	7561.75
810.2371	393.5339	8315.15	7576.1
810.3806	395.7199	8301.75	7566.55
810.5241	397.9052	8425.2	7688
810.6677	400.09	8644.35	7904.7
810.8113	402.2743	8860.6	8121.85
810.9548	404.4579	9054.75	8314.55
811.0984	406.641	9238.35	8493.65
811.2421	408.8235	9432	8686.1
811.3857	411.0054	9618.55	8870.8
811.5293	413.1868	9708.1	8956.25
811.673	415.3675	9686	8933.95
811.8166	417.5477	9606.75	8852.8
811.9603	419.7273	9530.2	8774.05
812.104	421.9064	9410.3	8647.3
812.2477	424.0848	9168.6	8410.5
812.3914	426.2627	8870.1	8111.45
812.5351	428.4399	8565.4	7805.15
812.6788	430.6166	8291.45	7525.65
812.8226	432.7928	8064.05	7298
812.9663	434.9683	7908.05	7143.45
813.1101	437.1432	7764.35	6997.6
813.2539	439.3176	7691.95	6926.7
813.3977	441.4914	7608.35	6843.35
813.5415	443.6645	7594.3	6827.35
813.6853	445.8371	7548.25	6781.7
813.8291	448.0091	7550.5	6784.95
813.973	450.1806	7537	6768.05
814.1168	452.3514	7512.05	6741.1
814.2607	454.5216	7563.2	6783.4
814.4046	456.6913	7523.6	6752.3
814.5485	458.8603	7555.6	6783.4
814.6924	461.0288	7603.3	6834.3
814.8363	463.1967	7584.35	6814.25
814.9802	465.3639	7567.55	6795.3
815.1241	467.5306	7533.3	6758.35
815.2681	469.6967	7485.4	6713.35
815.412	471.8622	7451.15	6676.35
815.556	474.0271	7444.95	6670.3
815.7	476.1914	7421.65	6645.7
815.844	478.3551	7403.55	6627.6
815.988	480.5182	7416.95	6640.95
816.132	482.6807	7413.65	6637.8
816.276	484.8426	7508.65	6732.45
816.4201	487.0039	7712.3	6934.25
816.5641	489.1647	7966.75	7186.15
816.7082	491.3248	8211.85	7431.8
816.8522	493.4843	8299.5	7518.5
816.9963	495.6432	8248.7	7466.3
817.1404	497.8015	8094.7	7310.05
817.2845	499.9592	7888	7106.5
817.4286	502.1163	7611.9	6829.3
817.5727	504.2728	7387.75	6601.3
817.7168	506.4287	7274.25	6489.35
817.861	508.5839	7163.4	6378.85
818.0051	510.7386	7133.75	6348.4
818.1493	512.8927	7126.9	6331.8
818.2935	515.0461	7138.6	6349.8
818.4377	517.199	7235.4	6445.85
818.5818	519.3512	7440.9	6652.2
818.726	521.5029	7788.3	6991.9
818.8703	523.6539	8125.2	7335.4
819.0145	525.8043	8215.75	7423.85
819.1587	527.9541	7967.15	7174.55
819.303	530.1033	7589.1	6796.15
819.4472	532.2519	7306.45	6513.45
819.5915	534.3999	7153.9	6356.85
819.7357	536.5472	7115.3	6321.25
819.88	538.694	7108.45	6314.2
820.0243	540.8401	7163.1	6368.2
820.1686	542.9856	7265.85	6469.1
820.3129	545.1305	7322.9	6526.15
820.4572	547.2748	7399.7	6602.05
820.6016	549.4185	7435.25	6637.35
820.7459	551.5615	7446.75	6646.55
820.8902	553.704	7516.3	6719.85
821.0346	555.8458	7609.05	6813.05
821.1789	557.987	7690.8	6892.75
821.3233	560.1276	7865.2	7066.2
821.4677	562.2675	8185.7	7389.1
821.6121	564.4069	8642.9	7844.05
821.7565	566.5456	8881.6	8082.7
821.9009	568.6837	8761.05	7959.75
822.0453	570.8212	8310.9	7512.15
822.1897	572.958	7816.35	7013.75
822.3342	575.0942	7426.6	6625.05
822.4786	577.2299	7226.5	6424.1
822.6231	579.3648	7127.7	6326.4
822.7675	581.4992	7059.3	6256.5
822.912	583.6329	7108.7	6307.45
823.0565	585.766	7260.9	6455.85
823.201	587.8985	7486.95	6683.6
823.3454	590.0304	7727.3	6909.25
823.4899	592.1616	7961.8	7153.3
823.6345	594.2922	8043.85	7237.95
823.779	596.4222	7890.3	7081.95
823.9235	598.5515	7609.1	6799.45
824.068	600.6802	7274.65	6464.55
824.2126	602.8083	7026.65	6217.1
824.3571	604.9358	6920.95	6112.25
824.5017	607.0626	6895.85	6085.7
824.6462	609.1888	6908.8	6095.5
824.7908	611.3144	7028.9	6217.25
824.9354	613.4393	7211.5	6401.55
825.08	615.5636	7481.05	6669.45
825.2246	617.6873	7743.3	6933.5
825.3692	619.8103	7928.65	7113.75
825.5138	621.9327	7967.25	7150.65
825.6584	624.0544	7837.95	7025.2
825.803	626.1756	7510.6	6697.35
825.9477	628.2961	7178	6363.15
826.0923	630.4159	7013.85	6201.35
826.237	632.5351	6970.7	6156.55
826.3816	634.6537	6926	6109.5
826.5263	636.7716	6889.35	6071.15
826.6709	638.8889	6881.4	6063.45
826.8156	641.0056	6932.2	6116.15
826.9603	643.1216	7007.15	6188.1
827.105	645.237	7052.75	6230.65
827.2497	647.3518	6951.75	6134.2
827.3944	649.4659	6806.85	5988.8
827.5391	651.5793	6686.75	5868.5
827.6838	653.6922	6591.8	5773.65
827.8285	655.8043	6509.8	5691.05
827.9733	657.9159	6466.55	5643.1
828.118	660.0268	6428.4	5605.5
828.2627	662.137	6405.9	5584.2
828.4075	664.2466	6418.55	5594.4
828.5522	666.3556	6413.55	5591.2
828.697	668.4639	6385.4	5560.35
828.8418	670.5716	6332.1	5510.55
828.9865	672.6786	6301.1	5475.75
829.1313	674.785	6279	5453
829.2761	676.8907	6258.95	5431.35
829.4209	678.9958	6251.8	5426.9
829.5657	681.1002	6214.4	5389.05
829.7105	683.204	6222.8	5393
829.8553	685.3072	6232.8	5405.35
830.0001	687.4097	6235.6	5409.1
830.1449	689.5115	6232.3	5404.5
830.2898	691.6127	6221.45	5396.25
830.4346	693.7132	6185.45	5358.4
830.5794	695.8131	6185.8	5345.85
830.7243	697.9123	6208.15	5379.7
830.8691	700.0109	6201.25	5373.8
831.014	702.1089	6266.65	5439.45
831.1588	704.2061	6336.1	5507.95
831.3037	706.3028	6461.85	5632.4
831.4486	708.3987	6575.25	5745.75
831.5935	710.4941	6659.05	5828.1
831.7383	712.5887	6718.45	5887.85
831.8832	714.6827	6691.3	5856.5
832.0281	716.7761	6618.15	5786.1
832.173	718.8688	6573.8	5740.4
832.3179	720.9608	6560	5722.2
832.4628	723.0522	6608.4	5772.35
832.6077	725.1429	6687.1	5856.3
832.7527	727.233	6849.9	6018.6
832.8976	729.3224	7144.7	6312.5
833.0425	731.4112	7450.05	6613.35
833.1874	733.4993	7584.1	6748.35
833.3324	735.5867	7415.4	6579.65
833.4773	737.6735	6985.25	6147.75
833.6222	739.7596	6644.15	5807.2
833.7672	741.845	6410.2	5573.8
833.9122	743.9298	6296.05	5458.75
834.0571	746.014	6228.7	5393.9
834.2021	748.0974	6234.25	5395
834.347	750.1802	6230.45	5392.7
834.492	752.2624	6228.45	5390.05
834.637	754.3439	6244.35	5404.75
834.782	756.4247	6273.7	5429.35
834.9269	758.5048	6326.35	5487.8
835.0719	760.5843	6437.4	5599.7
835.2169	762.6631	6583.9	5745.05
835.3619	764.7413	6894.6	6058.5
835.5069	766.8188	7305.95	6464.5
835.6519	768.8956	7765.7	6924.05
835.7969	770.9718	8101.9	7262.45
835.9419	773.0473	8064.7	7226.2
836.0869	775.1221	7901.1	7062.55
836.232	777.1962	7784.5	6944.85
836.377	779.2697	8063.3	7219.95
836.522	781.3426	8637.4	7779.95
836.667	783.4147	9085.65	8243
836.8121	785.4862	9149.75	8310.95
836.9571	787.557	8738.95	7900
837.1021	789.6271	8065.35	7223.05
837.2472	791.6966	7345.6	6502.9
837.3922	793.7654	6781.6	5938.1
837.5373	795.8335	6441	5600.75
837.6823	797.901	6233.8	5392.6
837.8274	799.9678	6158.2	5313.2
837.9724	802.0339	6154.55	5311.5
838.1175	804.0993	6192.7	5342.6
838.2626	806.1641	6190	5346.4
838.4076	808.2282	6125.2	5282
838.5527	810.2916	6040.05	5194.7
838.6978	812.3544	5974.3	5133.55
838.8428	814.4164	5898.3	5056.25
838.9879	816.4778	5939.95	5095.45
839.133	818.5385	5973.3	5128.05
839.2781	820.5986	6134.2	5290.25
839.4232	822.658	6407.65	5562
839.5682	824.7166	6768.05	5922.85
839.7133	826.7747	7192.15	6347.35
839.8584	828.832	7602.1	6756.55
840.0035	830.8886	7921.2	7072.5
840.1486	832.9446	8125.9	7277.35
840.2937	834.9999	8023.55	7177.9
840.4388	837.0545	7669.75	6818.65
840.5839	839.1085	7230.25	6384.35
840.729	841.1618	6796.6	5945.8
840.8741	843.2143	6481	5636.65
841.0192	845.2662	6275.85	5430.35
841.1643	847.3175	6145.05	5297.7
841.3095	849.368	6112.75	5266.5
841.4546	851.4179	6082.5	5234.6
841.5997	853.467	6074.85	5226.6
841.7448	855.5155	6102	5254.15
841.8899	857.5633	6139.45	5288.1
842.0351	859.6105	6116.4	5268.4
842.1802	861.6569	6054.6	5206.5
842.3253	863.7027	5975.35	5125.05
842.4704	865.7478	5905.65	5055.3
842.6156	867.7922	5832.3	4982.6
842.7607	869.8359	5789.7	4942.3
842.9058	871.8789	5752.65	4901.65
843.0509	873.9212	5775	4892.85
843.1961	875.9629	5751.1	4902.5
843.3412	878.0039	5798	4947.9
843.4863	880.0441	5896.15	5045.65
843.6315	882.0837	6001.85	5148.45
843.7766	884.1226	6121.8	5268.15
843.9218	886.1609	6295.1	5444.9
844.0669	888.1984	6550.15	5700.6
844.212	890.2352	6836.15	5985.4
844.3572	892.2714	6918	6060.85
844.5023	894.3069	6813.65	5960.3
844.6475	896.3416	6527.75	5675.85
844.7926	898.3757	6289.55	5436.85
844.9377	900.4091	6121.1	5267.9
845.0829	902.4418	6135.7	5279.45
845.228	904.4739	6243.2	5388.85
845.3732	906.5052	6381.55	5528.65
845.5183	908.5358	6392.9	5540.2
845.6635	910.5658	6300.45	5444.85
845.8086	912.595	6134.15	5281.2
845.9538	914.6236	5917.75	5066.45
846.0989	916.6515	5764.25	4908.95
846.2441	918.6786	5673.35	4816.45
846.3892	920.7051	5615.1	4756.7
846.5344	922.7309	5610.45	4756.55
846.6795	924.756	5601.95	4746.35
846.8246	926.7804	5654.1	4798.8
846.9698	928.8041	5700.4	4842.1
847.1149	930.8272	5801.4	4946.4
847.2601	932.8495	5849.45	4994
847.4052	934.8711	5892.6	5035.9
847.5504	936.892	5895.35	5041
847.6955	938.9123	6011.9	5153.65
847.8407	940.9318	6167.6	5313.4
847.9858	942.9506	6269.5	5412.25
848.131	944.9688	6256.35	5399.55
848.2761	946.9862	6130.8	5274.3
848.4213	949.003	5950.85	5092.25
848.5664	951.019	5824.2	4967.35
848.7115	953.0344	5732.35	4874.65
848.8567	955.0491	5646	4786.1
849.0018	957.063	5604.05	4746.75
849.147	959.0763	5581.8	4726.1
849.2921	961.0888	5559.15	4700.2
849.4373	963.1007	5569.55	4711.35
849.5824	965.1119	5521.25	4664.1
849.7275	967.1223	5468.7	4611.55
849.8727	969.1321	5420.75	4563.6
850.0178	971.1412	5413.7	4558.25
850.1629	973.1495	5382.1	4524.25
850.3081	975.1572	5393.45	4496.05
850.4532	977.1641	5416.1	4560
850.5983	979.1704	5428.6	4569.75
850.7435	981.1759	5406.5	4544.15
850.8886	983.1808	5380.6	4519.75
851.0337	985.1849	5315.35	4447.3
851.1788	987.1884	5297.35	4437
851.324	989.1911	5325.05	4460.9
851.4691	991.1932	5369.95	4511.35
851.6142	993.1945	5390.3	4530.6
851.7593	995.1951	5394.35	4534.2
851.9045	997.1951	5370.6	4504.05
852.0496	999.1943	5356.45	4495.95
852.1947	1001.1928	5351.6	4491.35
852.3398	1003.1906	5399.6	4539.65
852.4849	1005.1877	5532.5	4670.85
852.63	1007.1841	5668.65	4805.8
852.7751	1009.1798	5781.7	4921.75
852.9202	1011.1748	5737.5	4877.55
853.0653	1013.1691	5619.8	4756.35
853.2104	1015.1627	5445.15	4583.2
853.3555	1017.1556	5272.25	4411.5
853.5006	1019.1477	5180.2	4318.1
853.6457	1021.1392	5087.35	4229.75
853.7908	1023.1299	5053.05	4192.85
853.9359	1025.12	5033.35	4169.9
854.081	1027.1093	5059.8	4200.55
854.2261	1029.0979	5171	4312.6
854.3712	1031.0859	5284.65	4424.95
854.5163	1033.0731	5372.4	4509.2
854.6613	1035.0596	5388.6	4526.85
854.8064	1037.0454	5362.1	4501.9
854.9515	1039.0304	5301.85	4437.25
855.0965	1041.0148	5184.4	4323.85
855.2416	1042.9985	5075.35	4212.75
855.3867	1044.9814	4994.8	4133.35
855.5317	1046.9636	4957.6	4093.75
855.6768	1048.9452	4995.95	4134.5
855.8219	1050.926	5073.9	4211.25
855.9669	1052.9061	5175.05	4312.5
856.112	1054.8855	5235.8	4372.3
856.257	1056.8642	5250.95	4387.4
856.4021	1058.8421	5234.6	4366.05
856.5471	1060.8194	5210.65	4347.2
856.6921	1062.7959	5188.05	4324.5
856.8372	1064.7717	5174.85	4308.3
856.9822	1066.7469	5173.4	4307.7
857.1272	1068.7213	5180.05	4311.65
857.2723	1070.695	5264	4401.05
857.4173	1072.6679	5360.75	4497.45
857.5623	1074.6402	5510.95	4644.95
857.7073	1076.6117	5599.1	4728
857.8523	1078.5826	5543.05	4678.05
857.9973	1080.5527	5360.3	4491.6
858.1423	1082.5221	5151.9	4288.65
858.2873	1084.4908	4980.4	4114.8
858.4323	1086.4587	4892.15	4026.15
858.5773	1088.426	4832.15	3965.6
858.7223	1090.3925	4804.95	3932.65
858.8673	1092.3584	4828.75	3963.7
859.0123	1094.3235	4880.85	4016.65
859.1573	1096.2879	4955.75	4089.3
859.3022	1098.2515	5072.4	4207.1
859.4472	1100.2145	5204	4338.3
859.5922	1102.1767	5364.3	4495.05
859.7371	1104.1382	5603.8	4738.85
859.8821	1106.099	5890.35	5021.9
860.027	1108.0591	6163.85	5298.2
860.172	1110.0185	6395.15	5528.15
860.3169	1111.9771	6570.3	5703.7
860.4619	1113.9351	6827.2	5961.45
860.6068	1115.8923	7195.65	6328.2
860.7517	1117.8488	7483.85	6614.05
860.8967	1119.8045	7311.3	6444.2
861.0416	1121.7596	6854.9	5988.1
861.1865	1123.7139	6241.7	5374.35
861.3314	1125.6675	5852.75	4985.25
861.4763	1127.6204	5769.7	4902.05
861.6212	1129.5726	5879	5011.85
861.7661	1131.524	5926.15	5059.65
861.911	1133.4748	5754.95	4889.1
862.0559	1135.4248	5449.25	4580.25
862.2008	1137.3741	5143.15	4274.65
862.3457	1139.3226	4982.4	4113.45
862.4905	1141.2705	4940.8	4071.9
862.6354	1143.2176	4990.15	4117.8
862.7803	1145.164	5062.1	4192.4
862.9251	1147.1097	5095.35	4228.9
863.07	1149.0546	4996.35	4127.55
863.2148	1150.9989	4872.25	4004.95
863.3597	1152.9424	4767.65	3899.2
863.5045	1154.8852	4651.5	3783.65
863.6493	1156.8272	4620.15	3753.1
863.7942	1158.7686	4612.7	3736.55
863.939	1160.7092	4600.75	3731.45
864.0838	1162.6491	4600.35	3729.45
864.2286	1164.5883	4662.65	3793.55
864.3734	1166.5267	4743.25	3873.25
864.5182	1168.4644	4867.15	3997.85
864.663	1170.4014	5024.95	4156.25
864.8078	1172.3377	5203.9	4338.8
864.9526	1174.2732	5470.7	4604.5
865.0974	1176.2081	5897.65	5029.55
865.2421	1178.1421	6481.9	5610.7
865.3869	1180.0755	7232.75	6362.25
865.5317	1182.0082	7727.95	6858.95
865.6764	1183.9401	7807.7	6938.55
865.8212	1185.8713	7395.3	6528.65
865.9659	1187.8017	6698.9	5831
866.1106	1189.7315	6051.8	5184.05
866.2554	1191.6605	5568.05	4671.05
866.4001	1193.5888	5253.9	4385.75
866.5448	1195.5163	5084.7	4216.3
866.6895	1197.4432	4945.3	4073.1
866.8342	1199.3693	4846.8	3978.55
866.9789	1201.2947	4751.8	3875.35
867.1236	1203.2193	4705.4	3834.05
867.2683	1205.1432	4687.45	3817.55
867.413	1207.0664	4663.25	3791.95
867.5576	1208.9889	4667.8	3796.15
867.7023	1210.9106	4674.3	3804.3
867.847	1212.8316	4678.2	3810
867.9916	1214.7519	4713.55	3834.6
868.1363	1216.6715	4789.35	3920.25
868.2809	1218.5903	4863.25	3992.65
868.4255	1220.5084	4922.85	4052.85
868.5701	1222.4257	4998.2	4127.55
868.7148	1224.3424	5039.95	4171
868.8594	1226.2583	5136.65	4262.1
869.004	1228.1735	5274.3	4402.45
869.1486	1230.0879	5444.85	4573.65
869.2932	1232.0016	5688.7	4819.45
869.4377	1233.9146	5854.15	4981.4
869.5823	1235.8269	5967.15	5097.05
