Software Version:	3.9.2.0
Unit SN:	10000200
Spectrometer SN:	6960
Date:	3/8/2024 12:43:57 PM
Data Line Index:	25
Spectral Points:	2048
Integration time (ms):	125
Averages:	20
Delay (ms):	30000
Sequence Number:	1
Processing:	dark subtract
Laser Power (mW):	305
Laser Current (mA):	822
Laser Diode Temp (C):	25
Laser Case Temp (C):	26.1
System Temp (C):	26.1
Spectrometer Temp (C):	24
CCD Temp (C):	-0.009
Secondary Temp (C):	20.007
Heatsink Temp (C):	21.096
CCDPCB Temp (C):	36.307
SecondaryPCB Temp (C):	30.093

Wavelength	RamanShift	Raw Counts	Dark Subtracted
787.061	30.1047	454.5	46.3
787.2016	32.3739	455.35	47.85
787.3422	34.6426	459.4	51.9
787.4828	36.9109	465.5	54.15
787.6235	39.1787	475.3	59.95
787.7642	41.4461	483.7	63.3
787.9049	43.7131	492.4	70.2
788.0456	45.9796	499.05	74.7
788.1863	48.2456	509.4	79.6
788.3271	50.5112	519.3	85.65
788.4679	52.7764	528.8	90.65
788.6087	55.0411	536.85	95.95
788.7496	57.3054	549.8	103.8
788.8904	59.5692	558.95	111.2
789.0313	61.8326	567.4	117.05
789.1722	64.0955	579.95	127.6
789.3132	66.3579	597.8	140
789.4541	68.6199	613.55	149.95
789.5951	70.8815	649.35	181.55
789.7361	73.1426	733.2	261.45
789.8771	75.4032	946.3	471.05
790.0181	77.6634	1464.75	983.1
790.1592	79.9231	2684.25	2193.75
790.3003	82.1824	5337.5	4825
790.4414	84.4412	10041.9	9496.55
790.5825	86.6995	16426.9	15833.45
790.7237	88.9574	22570.25	21938.05
790.8648	91.2148	26745.2	26085.75
791.006	93.4717	28558.15	27881.55
791.1472	95.7282	28796.05	28112.7
791.2885	97.9842	28464.65	27776.9
791.4297	100.2398	27669.25	26978.45
791.571	102.4949	26792	26099.8
791.7123	104.7495	25840.95	25145.85
791.8536	107.0036	24904.2	24205.7
791.9949	109.2573	24034.4	23337.8
792.1363	111.5105	23287.65	22589.85
792.2777	113.7632	22631.55	21930.35
792.4191	116.0154	22049.05	21332.55
792.5605	118.2672	21647.8	20941
792.7019	120.5185	21259.15	20552.6
792.8434	122.7693	20932.2	20224.1
792.9849	125.0197	20685.75	19973.7
793.1264	127.2696	20373.7	19658.1
793.2679	129.519	20210.25	19491.95
793.4094	131.7679	19929.85	19203.95
793.551	134.0163	19649.85	18920.75
793.6926	136.2642	19277.6	18544.85
793.8342	138.5117	18916.15	18174.1
793.9758	140.7587	18513.75	17774.65
794.1175	143.0052	18179.35	17440.2
794.2591	145.2512	17828	17090.9
794.4008	147.4967	17476.4	16738.25
794.5425	149.7417	17273.45	16531.7
794.6842	151.9863	17067.95	16319.6
794.826	154.2304	16963.15	16212.7
794.9677	156.4739	16800.7	16045
795.1095	158.717	16656.4	15899.7
795.2513	160.9596	16482.75	15720.85
795.3931	163.2017	16195.5	15431.35
795.535	165.4433	15926.95	15163.2
795.6768	167.6844	15600.75	14833.1
795.8187	169.925	15296.75	14529.45
795.9606	172.1651	14919.1	14152.1
796.1025	174.4047	14682.2	13909.55
796.2445	176.6439	14420.7	13646.4
796.3864	178.8825	14221.95	13444.7
796.5284	181.1206	14083.65	13299.3
796.6704	183.3582	13932	13144.35
796.8124	185.5954	13830.7	13034.95
796.9544	187.832	13780.3	12989.15
797.0965	190.0681	13749.6	12956.35
797.2386	192.3037	13745.45	12945.55
797.3806	194.5388	13765.25	12964
797.5228	196.7734	13787.7	12984.8
797.6649	199.0075	13838.8	13030.35
797.807	201.2411	13988.45	13177.9
797.9492	203.4742	14046.3	13238.95
798.0914	205.7068	14199.5	13391.1
798.2336	207.9389	14343.8	13529.8
798.3758	210.1704	14477.15	13667.2
798.518	212.4015	14598.9	13799.2
798.6603	214.632	14729.45	13935.15
798.8025	216.862	14864.05	14074.45
798.9448	219.0915	14966.05	14169.15
799.0871	221.3205	15089.05	14295.45
799.2294	223.549	15194.3	14401.75
799.3718	225.777	15268.35	14477.8
799.5141	228.0044	15359.1	14564.85
799.6565	230.2314	15489	14690.85
799.7989	232.4578	15586.6	14783.8
799.9413	234.6837	15697.45	14893.3
800.0837	236.909	15772.8	14964.4
800.2262	239.1339	15779.05	14941.9
800.3687	241.3582	15718.9	14896
800.5111	243.582	15629.15	14776.65
800.6536	245.8053	15570.3	14732.35
800.7961	248.0281	15449.25	14615.2
800.9387	250.2503	15464.6	14625.3
801.0812	252.472	15534.15	14692.3
801.2238	254.6932	15644.9	14802.75
801.3664	256.9139	15736.5	14894.8
801.509	259.134	15980.1	15134.6
801.6516	261.3536	16210.55	15370.05
801.7942	263.5727	16513.9	15669.8
801.9369	265.7912	16757.45	15917.1
802.0795	268.0092	17069.1	16227.05
802.2222	270.2267	17313.75	16468.55
802.3649	272.4436	17432.8	16590.65
802.5076	274.6601	17483.95	16624.6
802.6504	276.8759	17352.35	16504.55
802.7931	279.0913	17285.4	16436.65
802.9359	281.3061	17139.25	16291.85
803.0787	283.5204	17106.05	16247.2
803.2215	285.7341	17058.5	16195.6
803.3643	287.9473	17095.55	16226.65
803.5071	290.16	17122.05	16261.1
803.6499	292.3721	17202.55	16347.15
803.7928	294.5837	17420.6	16560.6
803.9357	296.7947	17629.6	16771.5
804.0786	299.0052	17800.2	16938.9
804.2215	301.2152	17755.15	16898.5
804.3644	303.4246	17623.4	16766.2
804.5074	305.6334	17248.45	16394.65
804.6503	307.8418	16885.8	16026.15
804.7933	310.0495	16472.1	15613.2
804.9363	312.2568	16052.1	15191.4
805.0793	314.4635	15633.3	14768.35
805.2223	316.6696	15342	14472.75
805.3653	318.8752	15123.9	14246.45
805.5084	321.0802	15000	14127.55
805.6514	323.2847	15025.25	14154.85
805.7945	325.4887	15077.55	14205.15
805.9376	327.692	15027.15	14150.35
806.0807	329.8949	15013.35	14141.55
806.2238	332.0972	14833.8	13953.25
806.367	334.2989	14663.5	13783.05
806.5101	336.5001	14405.6	13525.5
806.6533	338.7007	14149.1	13269.4
806.7965	340.9008	14012.95	13135.85
806.9397	343.1003	13847.35	12965.2
807.0829	345.2992	13715.15	12833.4
807.2261	347.4976	13616.75	12730.75
807.3693	349.6955	13555.3	12667.15
807.5126	351.8927	13547.7	12660.2
807.6559	354.0895	13477.85	12576
807.7991	356.2856	13458.4	12567.25
807.9424	358.4812	13387.15	12496.6
808.0857	360.6763	13402.9	12511.3
808.2291	362.8707	13351.95	12456.2
808.3724	365.0646	13414.5	12513.75
808.5158	367.258	13423.85	12527.4
808.6591	369.4508	13508.85	12612.85
808.8025	371.643	13669	12768.75
808.9459	373.8346	13711.35	12804.35
809.0893	376.0257	13820	12916.05
809.2327	378.2162	13834.65	12931.6
809.3762	380.4062	13830.6	12925.45
809.5196	382.5956	13758.05	12856.55
809.6631	384.7844	13611.15	12714
809.8066	386.9726	13484.55	12592.9
809.9501	389.1603	13367.2	12475.35
810.0936	391.3474	13338.35	12421.05
810.2371	393.5339	13289.85	12391.35
810.3806	395.7199	13251.75	12360.2
810.5241	397.9052	13319	12425.35
810.6677	400.09	13381.4	12486.05
810.8113	402.2743	13529.2	12638.95
810.9548	404.4579	13722.2	12829.55
811.0984	406.641	13935.05	13035.55
811.2421	408.8235	14089.85	13192.75
811.3857	411.0054	14226.5	13327.5
811.5293	413.1868	14410.1	13505.95
811.673	415.3675	14456.95	13546.5
811.8166	417.5477	14452.25	13547.15
811.9603	419.7273	14435.8	13526.4
812.104	421.9064	14324.05	13412.7
812.2477	424.0848	14255.1	13347.6
812.3914	426.2627	14116.15	13208.25
812.5351	428.4399	13889.05	12978.7
812.6788	430.6166	13557.8	12643.8
812.8226	432.7928	13234.25	12319.3
812.9663	434.9683	12954.3	12042.95
813.1101	437.1432	12730.25	11820.05
813.2539	439.3176	12529.75	11627.8
813.3977	441.4914	12420	11522.85
813.5415	443.6645	12417.7	11515.95
813.6853	445.8371	12336.9	11428.7
813.8291	448.0091	12283.1	11375.35
813.973	450.1806	12262.15	11357.3
814.1168	452.3514	12242.6	11337.45
814.2607	454.5216	12301.35	11385.85
814.4046	456.6913	12275.55	11364.7
814.5485	458.8603	12343.2	11429.1
814.6924	461.0288	12371.7	11471.45
814.8363	463.1967	12332.4	11434.25
814.9802	465.3639	12364.5	11460.8
815.1241	467.5306	12339.05	11431.3
815.2681	469.6967	12350.2	11446.35
815.412	471.8622	12376.85	11475.75
815.556	474.0271	12445.7	11543.45
815.7	476.1914	12484.4	11568.45
815.844	478.3551	12470.1	11564.2
815.988	480.5182	12534.6	11631.55
816.132	482.6807	12599	11700.5
816.276	484.8426	12789.65	11902.45
816.4201	487.0039	13117.15	12220
816.5641	489.1647	13502.75	12596.65
816.7082	491.3248	13826.35	12917.5
816.8522	493.4843	13918	13017.25
816.9963	495.6432	13913.9	13010.25
817.1404	497.8015	13744.85	12831.2
817.2845	499.9592	13660.95	12738.5
817.4286	502.1163	13475.85	12556.6
817.5727	504.2728	13148.8	12239.55
817.7168	506.4287	12877.65	11977.7
817.861	508.5839	12531.8	11633
818.0051	510.7386	12363.25	11455.7
818.1493	512.8927	12285.1	11362.8
818.2935	515.0461	12225.9	11309.55
818.4377	517.199	12321.65	11396.1
818.5818	519.3512	12509.95	11585.85
818.726	521.5029	12798.25	11873.95
818.8703	523.6539	13022.9	12103.55
819.0145	525.8043	13143.4	12225.3
819.1587	527.9541	13097.15	12175.2
819.303	530.1033	12887.85	11968.25
819.4472	532.2519	12708.2	11789
819.5915	534.3999	12671	11748.75
819.7357	536.5472	12693.45	11777.3
819.88	538.694	12904.9	11988.15
820.0243	540.8401	13178	12253
820.1686	542.9856	13391.85	12462.35
820.3129	545.1305	13395.05	12457.55
820.4572	547.2748	13349.5	12412.05
820.6016	549.4185	13172.85	12227.65
820.7459	551.5615	13066	12126.15
820.8902	553.704	13059.25	12120.45
821.0346	555.8458	13080.35	12146.1
821.1789	557.987	13267.15	12335.4
821.3233	560.1276	13505.35	12570.25
821.4677	562.2675	13950.9	13015.5
821.6121	564.4069	14461.7	13526.35
821.7565	566.5456	14909.1	13981.2
821.9009	568.6837	15076	14146.35
822.0453	570.8212	14670.85	13742.5
822.1897	572.958	13977.65	13052.1
822.3342	575.0942	13317.25	12392.55
822.4786	577.2299	12854.75	11936
822.6231	579.3648	12669.15	11763.2
822.7675	581.4992	12563.2	11668.25
822.912	583.6329	12655.65	11762.3
823.0565	585.766	12817.95	11915.9
823.201	587.8985	12987.8	12077.5
823.3454	590.0304	13070.2	12128.15
823.4899	592.1616	12990.3	12060.2
823.6345	594.2922	12892.45	11956.25
823.779	596.4222	12699.75	11763.5
823.9235	598.5515	12526	11587.9
824.068	600.6802	12337.35	11398.75
824.2126	602.8083	12172.3	11242.9
824.3571	604.9358	12145.8	11209.3
824.5017	607.0626	12145.65	11206.5
824.6462	609.1888	12277.35	11336.7
824.7908	611.3144	12415.3	11472.15
824.9354	613.4393	12569	11628.95
825.08	615.5636	12691.95	11748.55
825.2246	617.6873	12687.8	11749
825.3692	619.8103	12654.45	11710
825.5138	621.9327	12426.6	11486.55
825.6584	624.0544	12227.25	11295.95
825.803	626.1756	12019.8	11086.6
825.9477	628.2961	11853.3	10913.55
826.0923	630.4159	11808.05	10866.3
826.237	632.5351	11755.6	10812.5
826.3816	634.6537	11744.65	10802.55
826.5263	636.7716	11769.55	10820.05
826.6709	638.8889	11781.8	10830.35
826.8156	641.0056	11816.35	10862.35
826.9603	643.1216	11792.9	10845.45
827.105	645.237	11741.25	10795.4
827.2497	647.3518	11641.45	10704.2
827.3944	649.4659	11580.9	10649.3
827.5391	651.5793	11514.65	10584.85
827.6838	653.6922	11479.3	10542.5
827.8285	655.8043	11455.95	10516.6
827.9733	657.9159	11462.1	10522.05
828.118	660.0268	11457.75	10523.05
828.2627	662.137	11456.95	10519.1
828.4075	664.2466	11482.85	10532.25
828.5522	666.3556	11446.3	10500.95
828.697	668.4639	11386.45	10443.9
828.8418	670.5716	11363.5	10428.05
828.9865	672.6786	11337	10392.1
829.1313	674.785	11272.25	10322.15
829.2761	676.8907	11260.4	10319.1
829.4209	678.9958	11255.65	10323.35
829.5657	681.1002	11202.25	10259.6
829.7105	683.204	11207.7	10252.85
829.8553	685.3072	11183.3	10231.8
830.0001	687.4097	11146.4	10200.1
830.1449	689.5115	11173.8	10223.55
830.2898	691.6127	11176.8	10228.95
830.4346	693.7132	11133.55	10190.85
830.5794	695.8131	11207.9	10241.95
830.7243	697.9123	11173.5	10215.4
830.8691	700.0109	11205.5	10246.95
831.014	702.1089	11254.4	10303.3
831.1588	704.2061	11316.15	10366.3
831.3037	706.3028	11381.9	10431.35
831.4486	708.3987	11412.3	10462.4
831.5935	710.4941	11434.65	10483.8
831.7383	712.5887	11472.05	10523.85
831.8832	714.6827	11561.85	10608.7
832.0281	716.7761	11684.1	10741.75
832.173	718.8688	11836.15	10890.25
832.3179	720.9608	11979.7	11023.55
832.4628	723.0522	12129.05	11167.65
832.6077	725.1429	12193.95	11239.8
832.7527	727.233	12254.65	11299.2
832.8976	729.3224	12350.75	11398.4
833.0425	731.4112	12276.35	11324.15
833.1874	733.4993	12111.95	11158.65
833.3324	735.5867	11900.85	10950.95
833.4773	737.6735	11675.8	10719.5
833.6222	739.7596	11490.55	10532.55
833.7672	741.845	11343.75	10387.85
833.9122	743.9298	11233.75	10277.55
834.0571	746.014	11220.2	10268.4
834.2021	748.0974	11208.5	10246.45
834.347	750.1802	11181.9	10221.95
834.492	752.2624	11209.25	10248.25
834.637	754.3439	11262.45	10300.55
834.782	756.4247	11363.6	10396.35
834.9269	758.5048	11552.15	10597.55
835.0719	760.5843	11853.15	10893.7
835.2169	762.6631	12235.25	11277.9
835.3619	764.7413	12839.25	11878.3
835.5069	766.8188	13525.8	12565.35
835.6519	768.8956	14133	13173.6
835.7969	770.9718	14521.35	13562.15
835.9419	773.0473	14456.8	13499.9
836.0869	775.1221	14216.5	13257.8
836.232	777.1962	13968.95	13009.3
836.377	779.2697	13861.15	12897.45
836.522	781.3426	13906.4	12936.35
836.667	783.4147	13994.05	13029.85
836.8121	785.4862	14084.05	13123.75
836.9571	787.557	13886.7	12924.5
837.1021	789.6271	13428.45	12464.65
837.2472	791.6966	12798.6	11833.1
837.3922	793.7654	12159.55	11198.55
837.5373	795.8335	11758.05	10796.85
837.6823	797.901	11436.7	10473.85
837.8274	799.9678	11270.05	10306.75
837.9724	802.0339	11161.15	10199.2
838.1175	804.0993	11155.55	10183.95
838.2626	806.1641	11065.65	10100.95
838.4076	808.2282	10984.25	10020.3
838.5527	810.2916	10926.55	9964.1
838.6978	812.3544	10835.1	9875.1
838.8428	814.4164	10790	9832
838.9879	816.4778	10826.35	9858.5
839.133	818.5385	10874.65	9909.2
839.2781	820.5986	11012.05	10045.15
839.4232	822.658	11259.7	10291.05
839.5682	824.7166	11616.95	10650.5
839.7133	826.7747	12130.15	11163.9
839.8584	828.832	12653.9	11688.1
840.0035	830.8886	13061.65	12093.55
840.1486	832.9446	13264.95	12298.8
840.2937	834.9999	13148.45	12182.7
840.4388	837.0545	12815.3	11845.65
840.5839	839.1085	12425.85	11458.6
840.729	841.1618	12140	11171.55
840.8741	843.2143	11851.85	10886.5
841.0192	845.2662	11632.1	10667.45
841.1643	847.3175	11494.35	10524.95
841.3095	849.368	11369	10402.4
841.4546	851.4179	11281.45	10319.7
841.5997	853.467	11188.75	10222.25
841.7448	855.5155	11147.75	10181.65
841.8899	857.5633	11049.9	10082.8
842.0351	859.6105	10986.2	10016.4
842.1802	861.6569	10903.7	9935.2
842.3253	863.7027	10796.45	9826.8
842.4704	865.7478	10762.95	9793.1
842.6156	867.7922	10726.55	9758.35
842.7607	869.8359	10670.3	9704.95
842.9058	871.8789	10737.2	9764.95
843.0509	873.9212	10828.85	9827.3
843.1961	875.9629	10878.85	9907.7
843.3412	878.0039	10984.05	10012.7
843.4863	880.0441	11071.9	10101.15
843.6315	882.0837	11123	10158.4
843.7766	884.1226	11194.55	10223.2
843.9218	886.1609	11250.3	10283.05
844.0669	888.1984	11345.3	10378.15
844.212	890.2352	11483.75	10510.5
844.3572	892.2714	11530.3	10558.1
844.5023	894.3069	11467.45	10499.75
844.6475	896.3416	11290.25	10319.1
844.7926	898.3757	11120.25	10149.9
844.9377	900.4091	11035.1	10062.85
845.0829	902.4418	11037.1	10059.1
845.228	904.4739	11046.6	10071.8
845.3732	906.5052	11113.45	10139.2
845.5183	908.5358	11066.45	10094.3
845.6635	910.5658	10956.7	9983.2
845.8086	912.595	10749.8	9778.05
845.9538	914.6236	10518.1	9546.7
846.0989	916.6515	10388.4	9420.65
846.2441	918.6786	10298.55	9324.1
846.3892	920.7051	10280.65	9304.95
846.5344	922.7309	10302.7	9328.75
846.6795	924.756	10353.45	9382.5
846.8246	926.7804	10406.55	9431.65
846.9698	928.8041	10396.35	9420.95
847.1149	930.8272	10483.6	9511.65
847.2601	932.8495	10444.45	9470.7
847.4052	934.8711	10436.8	9459.95
847.5504	936.892	10390.2	9417.7
847.6955	938.9123	10394.85	9421.95
847.8407	940.9318	10411.65	9438.4
847.9858	942.9506	10403.9	9432.25
848.131	944.9688	10355.6	9384.35
848.2761	946.9862	10291.9	9320.5
848.4213	949.003	10130.85	9156.25
848.5664	951.019	10019.65	9048.35
848.7115	953.0344	9961.55	8991.8
848.8567	955.0491	9926.15	8953.15
849.0018	957.063	9964.7	8994
849.147	959.0763	10020.9	9051.15
849.2921	961.0888	10065.6	9096.25
849.4373	963.1007	10121.4	9148
849.5824	965.1119	10146.9	9186.55
849.7275	967.1223	10138.6	9187.6
849.8727	969.1321	10121.45	9168.45
850.0178	971.1412	10117.2	9156.2
850.1629	973.1495	10087.75	9122.9
850.3081	975.1572	10142.1	9126.9
850.4532	977.1641	10122.65	9150.55
850.5983	979.1704	10088.5	9115.25
850.7435	981.1759	10060.85	9085.55
850.8886	983.1808	10058.15	9087.65
851.0337	985.1849	10098.4	9118.35
851.1788	987.1884	10136.8	9163.3
851.324	989.1911	10216	9245.2
851.4691	991.1932	10306	9335.05
851.6142	993.1945	10325.05	9356.9
851.7593	995.1951	10279.75	9308.15
851.9045	997.1951	10266.1	9289.2
852.0496	999.1943	10211.55	9240.65
852.1947	1001.1928	10218.2	9246.65
852.3398	1003.1906	10258.15	9287.65
852.4849	1005.1877	10390.55	9419.25
852.63	1007.1841	10474.9	9508.9
852.7751	1009.1798	10501.25	9529.55
852.9202	1011.1748	10451.65	9479
853.0653	1013.1691	10294.55	9323.4
853.2104	1015.1627	10104.55	9135.8
853.3555	1017.1556	9881.65	8915.95
853.5006	1019.1477	9739.2	8776.8
853.6457	1021.1392	9618.05	8660.3
853.7908	1023.1299	9580.3	8626.75
853.9359	1025.12	9597.85	8649.25
854.081	1027.1093	9660.45	8725.05
854.2261	1029.0979	9757.25	8824
854.3712	1031.0859	9838.9	8895.5
854.5163	1033.0731	9910	8957.3
854.6613	1035.0596	9846.45	8887.65
854.8064	1037.0454	9769.85	8808.35
854.9515	1039.0304	9636.85	8669.7
855.0965	1041.0148	9549	8582.25
855.2416	1042.9985	9444.4	8472.4
855.3867	1044.9814	9396.05	8431.3
855.5317	1046.9636	9340.2	8375.55
855.6768	1048.9452	9336.1	8372.65
855.8219	1050.926	9371.55	8404.55
855.9669	1052.9061	9379.4	8416.3
856.112	1054.8855	9425.25	8459.1
856.257	1056.8642	9465.4	8499.1
856.4021	1058.8421	9512.8	8540.6
856.5471	1060.8194	9520.6	8551.8
856.6921	1062.7959	9587.45	8619.9
856.8372	1064.7717	9648.4	8678.4
856.9822	1066.7469	9730.7	8764.55
857.1272	1068.7213	9795.45	8822.5
857.2723	1070.695	9905.55	8938.2
857.4173	1072.6679	9954.85	8985.2
857.5623	1074.6402	9939.2	8971.55
857.7073	1076.6117	9914.35	8942.1
857.8523	1078.5826	9809.4	8839.8
857.9973	1080.5527	9668.55	8699.2
858.1423	1082.5221	9552.35	8585.15
858.2873	1084.4908	9528.95	8562.95
858.4323	1086.4587	9533.15	8563.65
858.5773	1088.426	9583.55	8614.65
858.7223	1090.3925	9584.9	8612
858.8673	1092.3584	9621.25	8655.65
859.0123	1094.3235	9638.45	8671.95
859.1573	1096.2879	9718.3	8753.35
859.3022	1098.2515	9851.05	8886.05
859.4472	1100.2145	10026	9063.75
859.5922	1102.1767	10198.55	9228.7
859.7371	1104.1382	10428.5	9464.8
859.8821	1106.099	10687.3	9721.65
860.027	1108.0591	10937.7	9973.4
860.172	1110.0185	11092.75	10129.5
860.3169	1111.9771	11140.95	10176.55
860.4619	1113.9351	11075.85	10112.8
860.6068	1115.8923	10933.85	9968.4
860.7517	1117.8488	10814.85	9851.75
860.8967	1119.8045	10623.45	9661.7
861.0416	1121.7596	10501.75	9539.3
861.1865	1123.7139	10370.75	9409.4
861.3314	1125.6675	10298.5	9338.55
861.4763	1127.6204	10324.05	9361.2
861.6212	1129.5726	10281.25	9315.8
861.7661	1131.524	10185.55	9221.75
861.911	1133.4748	10063.45	9098.15
862.0559	1135.4248	9846.2	8878.35
862.2008	1137.3741	9688.4	8726.3
862.3457	1139.3226	9570.6	8603.25
862.4905	1141.2705	9507.1	8544
862.6354	1143.2176	9440.45	8470.5
862.7803	1145.164	9409	8443.05
862.9251	1147.1097	9327.8	8365.2
863.07	1149.0546	9241.2	8275.7
863.2148	1150.9989	9131.45	8165.2
863.3597	1152.9424	9043.6	8077.9
863.5045	1154.8852	8953.95	7991.75
863.6493	1156.8272	8919.5	7954
863.7942	1158.7686	8925.2	7956.1
863.939	1160.7092	8955.55	7992.3
864.0838	1162.6491	8988.15	8021.5
864.2286	1164.5883	9079.25	8116
864.3734	1166.5267	9209.45	8242.85
864.5182	1168.4644	9377.2	8412.2
864.663	1170.4014	9575.85	8610.65
864.8078	1172.3377	9828.3	8868.1
864.9526	1174.2732	10156.9	9197.95
865.0974	1176.2081	10583.95	9619.9
865.2421	1178.1421	11072.4	10106.95
865.3869	1180.0755	11627.55	10666.3
865.5317	1182.0082	12031.3	11072.2
865.6764	1183.9401	12197.8	11238.3
865.8212	1185.8713	12024.25	11073.1
865.9659	1187.8017	11694.1	10748.5
866.1106	1189.7315	11291.65	10356.45
866.2554	1191.6605	10878.95	9944.05
866.4001	1193.5888	10569.25	9625.8
