Software Version:	3.9.2.0
Unit SN:	10000200
Spectrometer SN:	6960
Date:	3/8/2024 1:29:39 PM
Data Line Index:	25
Spectral Points:	2048
Integration time (ms):	125
Averages:	20
Delay (ms):	30000
Sequence Number:	1
Processing:	dark subtract
Laser Power (mW):	305
Laser Current (mA):	822
Laser Diode Temp (C):	25
Laser Case Temp (C):	26.3
System Temp (C):	26.3
Spectrometer Temp (C):	24.1
CCD Temp (C):	0.005
Secondary Temp (C):	20.007
Heatsink Temp (C):	21.095
CCDPCB Temp (C):	36.285
SecondaryPCB Temp (C):	31.805

Wavelength	RamanShift	Raw Counts	Dark Subtracted
787.061	30.1047	450.35	43.85
787.2016	32.3739	450.5	45.55
787.3422	34.6426	454.8	50.35
787.4828	36.9109	460.05	50.55
787.6235	39.1787	468.9	56.15
787.7642	41.4461	478.9	59.8
787.9049	43.7131	487.9	66.9
788.0456	45.9796	492.95	68.95
788.1863	48.2456	503.35	75.85
788.3271	50.5112	513.4	80.55
788.4679	52.7764	522.05	86.15
788.6087	55.0411	531	91.4
788.7496	57.3054	543.9	97.2
788.8904	59.5692	553.25	107.3
789.0313	61.8326	564.85	114.65
789.1722	64.0955	572.95	119.7
789.3132	66.3579	588.7	129.9
789.4541	68.6199	610.6	147.75
789.5951	70.8815	641.2	174.45
789.7361	73.1426	719.45	250.45
789.8771	75.4032	907.65	434.25
790.0181	77.6634	1376.6	899.25
790.1592	79.9231	2480.3	1991.95
790.3003	82.1824	4884.2	4378.25
790.4414	84.4412	9196.6	8660.6
790.5825	86.6995	15161.4	14585.15
790.7237	88.9574	20929.95	20319.5
790.8648	91.2148	24927	24292.2
791.006	93.4717	26726.85	26077.4
791.1472	95.7282	27126.8	26470.9
791.2885	97.9842	26940.6	26280.3
791.4297	100.2398	26357.9	25694.45
791.571	102.4949	25662.65	24995.4
791.7123	104.7495	24855.85	24185.85
791.8536	107.0036	24020.8	23356.3
791.9949	109.2573	23244.8	22579.1
792.1363	111.5105	22508	21837.15
792.2777	113.7632	21766.1	21091.3
792.4191	116.0154	21187.7	20503.75
792.5605	118.2672	20697.4	20021.25
792.7019	120.5185	20231.85	19554.15
792.8434	122.7693	19864.4	19184.15
792.9849	125.0197	19546.95	18859.4
793.1264	127.2696	19272.7	18583.8
793.2679	129.519	19078.7	18382.2
793.4094	131.7679	18882.8	18184
793.551	134.0163	18659.05	17957.55
793.6926	136.2642	18390.6	17691
793.8342	138.5117	18158.65	17454.3
793.9758	140.7587	17900.8	17194.6
794.1175	143.0052	17645.8	16934.4
794.2591	145.2512	17364.7	16654.4
794.4008	147.4967	17118.55	16406.5
794.5425	149.7417	16944.75	16229.65
794.6842	151.9863	16808.75	16090.95
794.826	154.2304	16743.55	16016.35
794.9677	156.4739	16597.55	15869.4
795.1095	158.717	16529.95	15802.85
795.2513	160.9596	16368.45	15636
795.3931	163.2017	16091	15359.45
795.535	165.4433	15783.5	15043.75
795.6768	167.6844	15484.2	14748.15
795.8187	169.925	15133.9	14394.8
795.9606	172.1651	14769.65	14027.9
796.1025	174.4047	14476.7	13730.5
796.2445	176.6439	14238.45	13495.35
796.3864	178.8825	13978.85	13228.15
796.5284	181.1206	13833.15	13079
796.6704	183.3582	13681.8	12918.55
796.8124	185.5954	13589.4	12829.95
796.9544	187.832	13475.75	12709.35
797.0965	190.0681	13472.8	12709.6
797.2386	192.3037	13430.6	12655.15
797.3806	194.5388	13433.45	12656.95
797.5228	196.7734	13466.15	12689.45
797.6649	199.0075	13535.5	12753.2
797.807	201.2411	13662.05	12880.95
797.9492	203.4742	13734.75	12949.75
798.0914	205.7068	13850.4	13061.5
798.2336	207.9389	13950.75	13162.55
798.3758	210.1704	14118.2	13339.2
798.518	212.4015	14201.1	13427.95
798.6603	214.632	14359.95	13589.65
798.8025	216.862	14547.9	13784.6
798.9448	219.0915	14687	13922.45
799.0871	221.3205	14863.75	14092.95
799.2294	223.549	15104.3	14338.85
799.3718	225.777	15318.05	14553.15
799.5141	228.0044	15642.95	14870.6
799.6565	230.2314	16017.7	15247.9
799.7989	232.4578	16357.15	15583.8
799.9413	234.6837	16687.7	15904.1
800.0837	236.909	16886.45	16101.75
800.2262	239.1339	16866.7	16053.5
800.3687	241.3582	16677.85	15879.25
800.5111	243.582	16403.35	15577.6
800.6536	245.8053	16140.65	15329.15
800.7961	248.0281	15842.25	15035.6
800.9387	250.2503	15666.55	14856.3
801.0812	252.472	15533.5	14724.45
801.2238	254.6932	15524.5	14710.2
801.3664	256.9139	15495	14682.95
801.509	259.134	15534.25	14714.4
801.6516	261.3536	15556.45	14737.1
801.7942	263.5727	15666.15	14848.75
801.9369	265.7912	15718.25	14903.8
802.0795	268.0092	15764.65	14946.55
802.2222	270.2267	15780.35	14958.2
802.3649	272.4436	15801.5	14983
802.5076	274.6601	15776.95	14946.9
802.6504	276.8759	15649.65	14825.55
802.7931	279.0913	15607.75	14783.65
802.9359	281.3061	15516.3	14683.65
803.0787	283.5204	15541.75	14706.45
803.2215	285.7341	15572.75	14738.2
803.3643	287.9473	15704.3	14862.1
803.5071	290.16	15901.65	15066.5
803.6499	292.3721	16147.25	15317.7
803.7928	294.5837	16507.15	15673.15
803.9357	296.7947	16856.85	16020.75
804.0786	299.0052	17068.8	16233.3
804.2215	301.2152	16946.15	16112.05
804.3644	303.4246	16610.75	15780
804.5074	305.6334	16161.2	15334
804.6503	307.8418	15636.85	14802.6
804.7933	310.0495	15217.3	14378.15
804.9363	312.2568	14889.55	14053
805.0793	314.4635	14617.15	13774.05
805.2223	316.6696	14463.7	13621.25
805.3653	318.8752	14365.1	13515.05
805.5084	321.0802	14378.35	13535.1
805.6514	323.2847	14476.8	13628.65
805.7945	325.4887	14521.3	13674.9
805.9376	327.692	14492.5	13645.3
806.0807	329.8949	14407.95	13555.1
806.2238	332.0972	14135.75	13283.7
806.367	334.2989	13873.85	13013.95
806.5101	336.5001	13597	12741.3
806.6533	338.7007	13415.85	12559.85
806.7965	340.9008	13276.65	12416.5
806.9397	343.1003	13152.3	12292.75
807.0829	345.2992	13082.1	12225.4
807.2261	347.4976	13050.4	12191.9
807.3693	349.6955	13014.3	12151.95
807.5126	351.8927	13062.85	12199.75
807.6559	354.0895	13017.5	12141.7
807.7991	356.2856	13065.25	12200.8
807.9424	358.4812	13027.85	12160.65
808.0857	360.6763	13077.75	12212.15
808.2291	362.8707	13025.15	12155.25
808.3724	365.0646	13053.1	12180.95
808.5158	367.258	13093.65	12223.9
808.6591	369.4508	13124.4	12250.85
808.8025	371.643	13256.3	12381.05
808.9459	373.8346	13227.2	12347.9
809.0893	376.0257	13211	12328.95
809.2327	378.2162	13160.55	12282.45
809.3762	380.4062	13111.65	12233.6
809.5196	382.5956	12941.45	12063.8
809.6631	384.7844	12864.15	11990.05
809.8066	386.9726	12727.35	11857.85
809.9501	389.1603	12693.65	11826.3
810.0936	391.3474	12666.6	11765.45
810.2371	393.5339	12639.5	11765.8
810.3806	395.7199	12582.7	11713.15
810.5241	397.9052	12602.15	11733.7
810.6677	400.09	12618.25	11744.3
810.8113	402.2743	12711.7	11842.2
810.9548	404.4579	12809.5	11936.8
811.0984	406.641	12977.65	12103.65
811.2421	408.8235	13175.9	12296.7
811.3857	411.0054	13451.8	12577
811.5293	413.1868	13827.35	12946.6
811.673	415.3675	14101.7	13219
811.8166	417.5477	14281.25	13398.4
811.9603	419.7273	14296.75	13413.5
812.104	421.9064	14210.35	13321.15
812.2477	424.0848	14077.1	13188.9
812.3914	426.2627	13884.2	12999.95
812.5351	428.4399	13634.5	12745.8
812.6788	430.6166	13273.75	12381.5
812.8226	432.7928	12917.5	12025.25
812.9663	434.9683	12591.85	11698.35
813.1101	437.1432	12335.9	11450.15
813.2539	439.3176	12212	11330.15
813.3977	441.4914	12066.7	11185.35
813.5415	443.6645	12066.2	11181.9
813.6853	445.8371	11989.25	11102.05
813.8291	448.0091	11949.9	11059.65
813.973	450.1806	11935.85	11048.4
814.1168	452.3514	11888.85	11000.2
814.2607	454.5216	11921.65	11026.85
814.4046	456.6913	11839.1	10947.1
814.5485	458.8603	11890.55	11004.05
814.6924	461.0288	11941.65	11061.8
814.8363	463.1967	11947.9	11071.6
814.9802	465.3639	12043.15	11158.75
815.1241	467.5306	12109	11218.55
815.2681	469.6967	12235.1	11349.55
815.412	471.8622	12322.55	11442.25
815.556	474.0271	12489.3	11603.3
815.7	476.1914	12561.2	11672.55
815.844	478.3551	12553.45	11664
815.988	480.5182	12555.6	11669.2
816.132	482.6807	12549.75	11671.35
816.276	484.8426	12655.45	11784.1
816.4201	487.0039	12932.25	12054.2
816.5641	489.1647	13359.5	12470.85
816.7082	491.3248	13714.8	12826.2
816.8522	493.4843	13915.35	13036.05
816.9963	495.6432	13891.55	13005.9
817.1404	497.8015	13780.85	12887
817.2845	499.9592	13750.8	12845.9
817.4286	502.1163	13686.15	12784.05
817.5727	504.2728	13442.4	12545.35
817.7168	506.4287	13127.85	12242.9
817.861	508.5839	12718.7	11838.1
818.0051	510.7386	12425.5	11535.35
818.1493	512.8927	12266.25	11366.2
818.2935	515.0461	12200.95	11300.65
818.4377	517.199	12172.65	11274.15
818.5818	519.3512	12189	11285.65
818.726	521.5029	12290.3	11386.9
818.8703	523.6539	12411.35	11511.55
819.0145	525.8043	12504.3	11604.35
819.1587	527.9541	12475.6	11573.25
819.303	530.1033	12423.3	11521.2
819.4472	532.2519	12393.95	11491
819.5915	534.3999	12484.25	11581.3
819.7357	536.5472	12687.15	11789
819.88	538.694	13100.15	12202.7
820.0243	540.8401	13601.75	12698.5
820.1686	542.9856	14054.2	13141.05
820.3129	545.1305	14196.1	13275.5
820.4572	547.2748	14074	13149.5
820.6016	549.4185	13728.2	12806.8
820.7459	551.5615	13435.7	12515.8
820.8902	553.704	13328	12412.05
821.0346	555.8458	13274.75	12363.05
821.1789	557.987	13347.85	12440.5
821.3233	560.1276	13371.65	12462.05
821.4677	562.2675	13473.35	12557.7
821.6121	564.4069	13641.5	12727.25
821.7565	566.5456	13771.2	12860.05
821.9009	568.6837	13728.6	12816.55
822.0453	570.8212	13436.55	12528.6
822.1897	572.958	12997.85	12089.25
822.3342	575.0942	12625.9	11719.75
822.4786	577.2299	12387.55	11488.1
822.6231	579.3648	12301.35	11412.15
822.7675	581.4992	12341.1	11461.1
822.912	583.6329	12516.95	11634.75
823.0565	585.766	12778.6	11890.6
823.201	587.8985	12914.1	12022.1
823.3454	590.0304	12922.05	11992
823.4899	592.1616	12862.5	11950.3
823.6345	594.2922	12730.65	11815.95
823.779	596.4222	12576.7	11659.75
823.9235	598.5515	12414.45	11496.25
824.068	600.6802	12228.1	11305.5
824.2126	602.8083	12076.1	11160.95
824.3571	604.9358	12036	11122.65
824.5017	607.0626	12006.6	11088.3
824.6462	609.1888	12003.05	11074.25
824.7908	611.3144	12000.3	11076.45
824.9354	613.4393	11942.6	11019.9
825.08	615.5636	11890.4	10962.6
825.2246	617.6873	11831.4	10908.75
825.3692	619.8103	11760.65	10838.8
825.5138	621.9327	11645.45	10728.3
825.6584	624.0544	11531.75	10616.05
825.803	626.1756	11498.45	10582.25
825.9477	628.2961	11420.6	10499
826.0923	630.4159	11365.9	10443.85
826.237	632.5351	11348.35	10423.6
826.3816	634.6537	11288.05	10363.7
826.5263	636.7716	11266.1	10336.05
826.6709	638.8889	11278.55	10350.2
826.8156	641.0056	11303.1	10375.45
826.9603	643.1216	11288.75	10361.25
827.105	645.237	11300.5	10374.15
827.2497	647.3518	11252.1	10331.15
827.3944	649.4659	11266	10351.55
827.5391	651.5793	11225.8	10310.15
827.6838	653.6922	11233.8	10312.55
827.8285	655.8043	11214.6	10295.85
827.9733	657.9159	11204.75	10287
828.118	660.0268	11162.2	10239.65
828.2627	662.137	11148.4	10223.85
828.4075	664.2466	11118.55	10189.2
828.5522	666.3556	11087.2	10154.95
828.697	668.4639	11033.15	10107.85
828.8418	670.5716	11058.6	10142.85
828.9865	672.6786	11133.3	10205.1
829.1313	674.785	11130.05	10199.75
829.2761	676.8907	11196.9	10268.25
829.4209	678.9958	11265.65	10341.95
829.5657	681.1002	11250.55	10325.95
829.7105	683.204	11212.65	10276.7
829.8553	685.3072	11190.7	10256.1
830.0001	687.4097	11139.55	10211.75
830.1449	689.5115	11112.55	10182.1
830.2898	691.6127	11066.6	10140.75
830.4346	693.7132	11008.8	10085.45
830.5794	695.8131	10995.6	10056.05
830.7243	697.9123	10969.35	10032.15
830.8691	700.0109	10959.3	10020
831.014	702.1089	10955.2	10023
831.1588	704.2061	10974.25	10041.3
831.3037	706.3028	10964.95	10030.15
831.4486	708.3987	11034.15	10097.9
831.5935	710.4941	11124.2	10191.05
831.7383	712.5887	11243.15	10310.65
831.8832	714.6827	11502.5	10567.45
832.0281	716.7761	11764	10835.65
832.173	718.8688	12079.65	11152.5
832.3179	720.9608	12287	11345.85
832.4628	723.0522	12337.95	11392.25
832.6077	725.1429	12243	11306
832.7527	727.233	12057.8	11121.7
832.8976	729.3224	11900.3	10963.4
833.0425	731.4112	11643.75	10707.85
833.1874	733.4993	11460.75	10523.75
833.3324	735.5867	11316.9	10380.55
833.4773	737.6735	11147.4	10210.65
833.6222	739.7596	11062.35	10126.5
833.7672	741.845	10991	10056.2
833.9122	743.9298	10958.65	10021.35
834.0571	746.014	10976.9	10044.9
834.2021	748.0974	10979.55	10036.65
834.347	750.1802	10959.25	10015.2
834.492	752.2624	11010.25	10067.9
834.637	754.3439	11026.3	10085.4
834.782	756.4247	11115.85	10166.95
834.9269	758.5048	11250.9	10306.8
835.0719	760.5843	11497.9	10553.05
835.2169	762.6631	11828.95	10886.55
835.3619	764.7413	12313.25	11372.85
835.5069	766.8188	12932.7	11990.8
835.6519	768.8956	13396.9	12456.15
835.7969	770.9718	13695.9	12753.45
835.9419	773.0473	13575.45	12634.4
836.0869	775.1221	13271.6	12328.15
836.232	777.1962	12927.5	11984.75
836.377	779.2697	12759.1	11814.95
836.522	781.3426	12818.15	11864.95
836.667	783.4147	13011.4	12067.35
836.8121	785.4862	13260.9	12316.5
836.9571	787.557	13263.1	12316.65
837.1021	789.6271	12901.1	11952.5
837.2472	791.6966	12327.6	11384.4
837.3922	793.7654	11783.45	10838.65
837.5373	795.8335	11436.4	10492.5
837.6823	797.901	11222.35	10279.25
837.8274	799.9678	11155.65	10207.7
837.9724	802.0339	11144.5	10199.5
838.1175	804.0993	11152.2	10195.05
838.2626	806.1641	11128.4	10182.7
838.4076	808.2282	11068.45	10124.3
838.5527	810.2916	10995.75	10048.8
838.6978	812.3544	10921.35	9977.65
838.8428	814.4164	10813.25	9872.25
838.9879	816.4778	10847.55	9898.35
839.133	818.5385	10848.3	9900.3
839.2781	820.5986	10930.35	9980.55
839.4232	822.658	11069.4	10119.35
839.5682	824.7166	11238.6	10292.75
839.7133	826.7747	11536.35	10587.8
839.8584	828.832	11797.75	10844.7
840.0035	830.8886	12009.35	11055
840.1486	832.9446	12148.05	11194.9
840.2937	834.9999	12141.7	11193.2
840.4388	837.0545	12060.55	11108.45
840.5839	839.1085	11984.7	11036.4
840.729	841.1618	11891.9	10937.25
840.8741	843.2143	11801.4	10852.3
841.0192	845.2662	11690.6	10742.3
841.1643	847.3175	11589.15	10639.1
841.3095	849.368	11494.3	10542.15
841.4546	851.4179	11417.8	10471.9
841.5997	853.467	11254.55	10300.8
841.7448	855.5155	11178.8	10231.9
841.8899	857.5633	11084.7	10133.85
842.0351	859.6105	11004.35	10053.9
842.1802	861.6569	10930.8	9983.5
842.3253	863.7027	10871.35	9918.05
842.4704	865.7478	10851.1	9895.5
842.6156	867.7922	10848.1	9899.7
842.7607	869.8359	10853.55	9905.65
842.9058	871.8789	10966.6	10017.2
843.0509	873.9212	11121	10138.15
843.1961	875.9629	11261.1	10307
843.3412	878.0039	11394.2	10441.4
843.4863	880.0441	11515.9	10570.1
843.6315	882.0837	11522.15	10568.4
843.7766	884.1226	11464.1	10511.05
843.9218	886.1609	11402.65	10453.8
844.0669	888.1984	11363	10410.35
844.212	890.2352	11376.35	10423.9
844.3572	892.2714	11373.95	10418
844.5023	894.3069	11334	10381.1
844.6475	896.3416	11235.05	10282.95
844.7926	898.3757	11190	10239.7
844.9377	900.4091	11131.05	10175.4
845.0829	902.4418	11176.85	10214.25
845.228	904.4739	11188.9	10232.6
845.3732	906.5052	11188.1	10231.4
845.5183	908.5358	11115.15	10161.9
845.6635	910.5658	10957.95	9999.95
845.8086	912.595	10804.5	9850.25
845.9538	914.6236	10624.4	9670.65
846.0989	916.6515	10577.95	9623.45
846.2441	918.6786	10532.15	9574.2
846.3892	920.7051	10595.75	9637.55
846.5344	922.7309	10675.25	9721.95
846.6795	924.756	10716.55	9763.95
846.8246	926.7804	10815.3	9861.1
846.9698	928.8041	10805.5	9850.55
847.1149	930.8272	10824.25	9868.4
847.2601	932.8495	10797.65	9841.15
847.4052	934.8711	10745.9	9791.5
847.5504	936.892	10646.55	9687.45
847.6955	938.9123	10514.45	9557.9
847.8407	940.9318	10449.3	9493.25
847.9858	942.9506	10369.7	9414.85
848.131	944.9688	10310.25	9356.5
848.2761	946.9862	10235.9	9280.85
848.4213	949.003	10165.5	9210.5
848.5664	951.019	10160.2	9203.3
848.7115	953.0344	10131.55	9174.2
848.8567	955.0491	10178.55	9222.95
849.0018	957.063	10243.6	9287.55
849.147	959.0763	10339.3	9382.5
849.2921	961.0888	10400.9	9446.3
849.4373	963.1007	10470.9	9518.5
849.5824	965.1119	10493.7	9551.25
849.7275	967.1223	10519.6	9581.6
849.8727	969.1321	10536.2	9600.3
850.0178	971.1412	10545.3	9602.95
850.1629	973.1495	10552.2	9603.55
850.3081	975.1572	10644.3	9642.15
850.4532	977.1641	10648	9691.2
850.5983	979.1704	10625.2	9667.3
850.7435	981.1759	10579.3	9618.6
850.8886	983.1808	10666.85	9710
851.0337	985.1849	10720	9765.35
851.1788	987.1884	10818.75	9863.45
851.324	989.1911	10986.05	10032.8
851.4691	991.1932	11105.5	10148.25
851.6142	993.1945	11149.95	10199.5
851.7593	995.1951	11118.3	10166.45
851.9045	997.1951	11100.15	10137.3
852.0496	999.1943	11046.8	10089.55
852.1947	1001.1928	11041.15	10084.8
852.3398	1003.1906	11038.7	10087.95
852.4849	1005.1877	11122.3	10164.1
852.63	1007.1841	11115.6	10160.65
852.7751	1009.1798	11051	10101.7
852.9202	1011.1748	10891.75	9936.15
853.0653	1013.1691	10731.6	9777.3
853.2104	1015.1627	10522.2	9569.1
853.3555	1017.1556	10345.85	9393
853.5006	1019.1477	10228.95	9278.35
853.6457	1021.1392	10143.9	9197.7
853.7908	1023.1299	10121.5	9181.6
853.9359	1025.12	10145.5	9211.3
854.081	1027.1093	10170.7	9245.15
854.2261	1029.0979	10291.4	9370.75
854.3712	1031.0859	10356.3	9427.15
854.5163	1033.0731	10406.05	9466.95
854.6613	1035.0596	10340.05	9396.05
854.8064	1037.0454	10233.8	9287.55
854.9515	1039.0304	10114.45	9165.8
855.0965	1041.0148	9995.7	9048.35
855.2416	1042.9985	9903.85	8953.8
855.3867	1044.9814	9865.9	8913.05
855.5317	1046.9636	9808.2	8856.95
855.6768	1048.9452	9795.4	8846.45
855.8219	1050.926	9845.85	8896.05
855.9669	1052.9061	9839	8886.9
856.112	1054.8855	9864.1	8911.15
856.257	1056.8642	9877.4	8927.05
856.4021	1058.8421	9929.2	8972.6
856.5471	1060.8194	9981.05	9026
856.6921	1062.7959	10012.05	9062.1
856.8372	1064.7717	10044.7	9087.35
856.9822	1066.7469	10109.8	9155.75
857.1272	1068.7213	10125.6	9166.35
857.2723	1070.695	10134.1	9181.1
857.4173	1072.6679	10086.35	9134.45
857.5623	1074.6402	10081	9128.05
857.7073	1076.6117	10044.15	9087.4
857.8523	1078.5826	9996.1	9042.15
857.9973	1080.5527	9981.05	9026.75
858.1423	1082.5221	10032.5	9081.05
858.2873	1084.4908	10157	9204.65
858.4323	1086.4587	10303.8	9351.65
858.5773	1088.426	10429.5	9475.45
858.7223	1090.3925	10468.6	9507.35
858.8673	1092.3584	10417.95	9462.45
859.0123	1094.3235	10322.4	9371.2
859.1573	1096.2879	10290.75	9337.75
859.3022	1098.2515	10321.9	9369.1
859.4472	1100.2145	10413.2	9463.05
859.5922	1102.1767	10538.05	9585.65
859.7371	1104.1382	10713.7	9762.05
859.8821	1106.099	10892.85	9939.45
860.027	1108.0591	11129.15	10181.6
860.172	1110.0185	11285.45	10334.45
860.3169	1111.9771	11329.65	10379.25
860.4619	1113.9351	11154.35	10199.9
860.6068	1115.8923	10908.5	9959.3
860.7517	1117.8488	10656.8	9705.25
860.8967	1119.8045	10408.85	9459.2
861.0416	1121.7596	10295.85	9347.4
861.1865	1123.7139	10229.05	9281.7
861.3314	1125.6675	10224.55	9273.8
861.4763	1127.6204	10265.25	9316.05
861.6212	1129.5726	10248.75	9294.5
861.7661	1131.524	10232.7	9284.85
861.911	1133.4748	10172.75	9222.95
862.0559	1135.4248	10109.2	9155.4
862.2008	1137.3741	10070.4	9122.75
862.3457	1139.3226	10000.8	9046.25
862.4905	1141.2705	9970.65	9018.2
862.6354	1143.2176	9872.35	8915.6
862.7803	1145.164	9879.5	8926.95
862.9251	1147.1097	9890.75	8938.35
863.07	1149.0546	9833.95	8883.2
863.2148	1150.9989	9736.85	8783.75
863.3597	1152.9424	9640.55	8687.1
863.5045	1154.8852	9483.8	8534.7
863.6493	1156.8272	9399.05	8447.6
863.7942	1158.7686	9380.9	8421.85
863.939	1160.7092	9337.25	8387.65
864.0838	1162.6491	9356.4	8404.15
864.2286	1164.5883	9453.1	8505.05
864.3734	1166.5267	9523.45	8569.45
864.5182	1168.4644	9669.85	8720.35
864.663	1170.4014	9842.1	8891.45
864.8078	1172.3377	10091.75	9143.75
864.9526	1174.2732	10327.85	9378.95
865.0974	1176.2081	10635.7	9685.6
865.2421	1178.1421	10926.45	9972.3
865.3869	1180.0755	11234.1	10288.15
865.5317	1182.0082	11392.65	10446.4
865.6764	1183.9401	11456.2	10508
865.8212	1185.8713	11326.55	10388.55
865.9659	1187.8017	11076.3	10142.7
866.1106	1189.7315	10823.85	9898.75
866.2554	1191.6605	10490.45	9564.2
