Software Version:	3.9.2.0
Unit SN:	10000200
Spectrometer SN:	6960
Date:	3/8/2024 1:20:12 PM
Data Line Index:	25
Spectral Points:	2048
Integration time (ms):	125
Averages:	20
Delay (ms):	30000
Sequence Number:	1
Processing:	dark subtract
Laser Power (mW):	300
Laser Current (mA):	823
Laser Diode Temp (C):	25.1
Laser Case Temp (C):	26.1
System Temp (C):	26.1
Spectrometer Temp (C):	24
CCD Temp (C):	0.012
Secondary Temp (C):	20.01
Heatsink Temp (C):	21.163
CCDPCB Temp (C):	36.04
SecondaryPCB Temp (C):	31.116

Wavelength	RamanShift	Raw Counts	Dark Subtracted
787.061	30.1047	451.05	43.95
787.2016	32.3739	454	48.6
787.3422	34.6426	456.85	49.15
787.4828	36.9109	461.95	53.85
787.6235	39.1787	469.1	53.7
787.7642	41.4461	482.05	64.2
787.9049	43.7131	491.1	70.2
788.0456	45.9796	497.2	73.45
788.1863	48.2456	506.5	80.65
788.3271	50.5112	516.05	84.3
788.4679	52.7764	523.85	88.8
788.6087	55.0411	530.6	91.75
788.7496	57.3054	546.65	101.5
788.8904	59.5692	554	108.1
789.0313	61.8326	560.8	110.6
789.1722	64.0955	576.5	124.35
789.3132	66.3579	591.8	133.9
789.4541	68.6199	609.85	146.8
789.5951	70.8815	647.05	178.95
789.7361	73.1426	721.05	250.8
789.8771	75.4032	919.25	444.85
790.0181	77.6634	1404.15	925.5
790.1592	79.9231	2539.5	2051.1
790.3003	82.1824	4975.55	4468.35
790.4414	84.4412	9359	8820.05
790.5825	86.6995	15369.7	14791.5
790.7237	88.9574	21239.95	20622.9
790.8648	91.2148	25274.3	24637.45
791.006	93.4717	27163.55	26509.9
791.1472	95.7282	27467.3	26806.45
791.2885	97.9842	27274.25	26610.25
791.4297	100.2398	26645.9	25977.45
791.571	102.4949	25943.55	25273.7
791.7123	104.7495	25121.1	24443.6
791.8536	107.0036	24264.85	23589.4
791.9949	109.2573	23528.65	22852.85
792.1363	111.5105	22774.1	22095.5
792.2777	113.7632	22037.25	21357
792.4191	116.0154	21465.25	20774.8
792.5605	118.2672	21042.35	20358.15
792.7019	120.5185	20583.25	19900.05
792.8434	122.7693	20246.85	19558.05
792.9849	125.0197	19920.2	19225.3
793.1264	127.2696	19619.15	18921.65
793.2679	129.519	19467.5	18764.65
793.4094	131.7679	19239.3	18537.4
793.551	134.0163	19036.2	18332.3
793.6926	136.2642	18769.5	18063.35
793.8342	138.5117	18518.6	17809.95
793.9758	140.7587	18234.3	17518
794.1175	143.0052	17941.65	17225.85
794.2591	145.2512	17718.55	17001
794.4008	147.4967	17443.1	16729.1
794.5425	149.7417	17231.75	16514.6
794.6842	151.9863	17106.75	16382.4
794.826	154.2304	17023.2	16291.7
794.9677	156.4739	16899.25	16164
795.1095	158.717	16814.2	16082.6
795.2513	160.9596	16637.75	15898.55
795.3931	163.2017	16409.35	15665.9
795.535	165.4433	16105.9	15360.8
795.6768	167.6844	15774.05	15026.65
795.8187	169.925	15438	14686.3
795.9606	172.1651	15071.65	14322.55
796.1025	174.4047	14839.9	14092.55
796.2445	176.6439	14561.25	13807.05
796.3864	178.8825	14335.05	13579.2
796.5284	181.1206	14180	13413.95
796.6704	183.3582	14024.5	13254.8
796.8124	185.5954	13928.55	13161.5
796.9544	187.832	13834	13061.6
797.0965	190.0681	13838.8	13060.15
797.2386	192.3037	13799.55	13025.35
797.3806	194.5388	13802.85	13023.95
797.5228	196.7734	13838.15	13054.25
797.6649	199.0075	13899.95	13114
797.807	201.2411	14029.45	13240.9
797.9492	203.4742	14079.2	13290.9
798.0914	205.7068	14243.3	13448.7
798.2336	207.9389	14359.45	13567.7
798.3758	210.1704	14455.8	13668.2
798.518	212.4015	14586.9	13811.65
798.6603	214.632	14757.6	13990.85
798.8025	216.862	14898.8	14132.95
798.9448	219.0915	15058.6	14283.35
799.0871	221.3205	15233.65	14461.8
799.2294	223.549	15420.85	14652.5
799.3718	225.777	15660.75	14888.8
799.5141	228.0044	15929	15151.35
799.6565	230.2314	16269.45	15486.9
799.7989	232.4578	16598.55	15813.55
799.9413	234.6837	16865.85	16074.7
800.0837	236.909	17061.3	16263.95
800.2262	239.1339	17043.7	16224.15
800.3687	241.3582	16873.6	16070.05
800.5111	243.582	16646.95	15816.35
800.6536	245.8053	16370.45	15549.25
800.7961	248.0281	16150.35	15337.1
800.9387	250.2503	15944.65	15124.85
801.0812	252.472	15877.9	15055.6
801.2238	254.6932	15891.05	15074.95
801.3664	256.9139	15889.3	15067.8
801.509	259.134	15954.45	15128.05
801.6516	261.3536	16032.4	15209.65
801.7942	263.5727	16167.35	15338.7
801.9369	265.7912	16245.45	15422.05
802.0795	268.0092	16366.2	15544.35
802.2222	270.2267	16377.05	15550.05
802.3649	272.4436	16406.25	15579.15
802.5076	274.6601	16389.15	15551.85
802.6504	276.8759	16285.4	15457.55
802.7931	279.0913	16214	15385.05
802.9359	281.3061	16108.9	15276.1
803.0787	283.5204	16125.05	15285.35
803.2215	285.7341	16197.4	15354.7
803.3643	287.9473	16251.2	15400.35
803.5071	290.16	16431.6	15589.6
803.6499	292.3721	16683.1	15844.65
803.7928	294.5837	17021.3	16187.45
803.9357	296.7947	17342.1	16503.05
804.0786	299.0052	17545.9	16705.95
804.2215	301.2152	17447.3	16605.4
804.3644	303.4246	17168.1	16334.6
804.5074	305.6334	16634.05	15801.2
804.6503	307.8418	16186.6	15344.4
804.7933	310.0495	15767.6	14923.75
804.9363	312.2568	15425.95	14576.55
805.0793	314.4635	15195.35	14348.3
805.2223	316.6696	15006.15	14157.2
805.3653	318.8752	14906.6	14051.55
805.5084	321.0802	14911.45	14060.75
805.6514	323.2847	15013.7	14159.35
805.7945	325.4887	15025.2	14171.85
805.9376	327.692	14977	14122.15
806.0807	329.8949	14889.6	14029.9
806.2238	332.0972	14670.6	13812.3
806.367	334.2989	14412.6	13552.9
806.5101	336.5001	14135.4	13274.7
806.6533	338.7007	13951	13089.5
806.7965	340.9008	13840.5	12975.7
806.9397	343.1003	13674.7	12810
807.0829	345.2992	13608.15	12743.3
807.2261	347.4976	13572.6	12710.05
807.3693	349.6955	13541.2	12672.95
807.5126	351.8927	13598.35	12728.55
807.6559	354.0895	13571.95	12688.75
807.7991	356.2856	13573.95	12699.2
807.9424	358.4812	13537.05	12664.75
808.0857	360.6763	13581.25	12707.55
808.2291	362.8707	13556.6	12684.45
808.3724	365.0646	13600.3	12716.85
808.5158	367.258	13627.95	12746
808.6591	369.4508	13681	12798.2
808.8025	371.643	13786.5	12907.8
808.9459	373.8346	13799.7	12914.45
809.0893	376.0257	13799.55	12916.25
809.2327	378.2162	13746.75	12867
809.3762	380.4062	13699.95	12815.25
809.5196	382.5956	13559.65	12682.25
809.6631	384.7844	13458.6	12579
809.8066	386.9726	13340.5	12464.6
809.9501	389.1603	13274.6	12400.1
810.0936	391.3474	13226.7	12319.15
810.2371	393.5339	13208.1	12326.45
810.3806	395.7199	13175.55	12297.2
810.5241	397.9052	13191.2	12315.95
810.6677	400.09	13216.6	12337.55
810.8113	402.2743	13312.05	12437.65
810.9548	404.4579	13411.75	12535.6
811.0984	406.641	13590.65	12709.35
811.2421	408.8235	13791.15	12910.7
811.3857	411.0054	14076.55	13190.3
811.5293	413.1868	14413.3	13522.4
811.673	415.3675	14636.65	13746.35
811.8166	417.5477	14773.8	13883.5
811.9603	419.7273	14801.3	13909.3
812.104	421.9064	14695.95	13800.65
812.2477	424.0848	14630.85	13742.6
812.3914	426.2627	14413.5	13522.4
812.5351	428.4399	14160.15	13268.45
812.6788	430.6166	13826.4	12930.7
812.8226	432.7928	13475.5	12577.15
812.9663	434.9683	13162.45	12271
813.1101	437.1432	12933.7	12045.25
813.2539	439.3176	12778.7	11896.2
813.3977	441.4914	12656.15	11772.6
813.5415	443.6645	12621.15	11734.45
813.6853	445.8371	12555.8	11665.95
813.8291	448.0091	12531.25	11635.35
813.973	450.1806	12492.6	11599.75
814.1168	452.3514	12468.65	11579.15
814.2607	454.5216	12505.8	11606.05
814.4046	456.6913	12465.45	11570.35
814.5485	458.8603	12502.65	11614.5
814.6924	461.0288	12555.95	11670.2
814.8363	463.1967	12545.9	11660.05
814.9802	465.3639	12649.55	11760.15
815.1241	467.5306	12697.55	11808.3
815.2681	469.6967	12787.35	11902.65
815.412	471.8622	12913.9	12028.9
815.556	474.0271	13018.95	12126.5
815.7	476.1914	13109.65	12212.25
815.844	478.3551	13073.4	12179.8
815.988	480.5182	13054.45	12162.4
816.132	482.6807	13091.45	12210.7
816.276	484.8426	13245.3	12369.2
816.4201	487.0039	13525.85	12640.5
816.5641	489.1647	13958.05	13068.15
816.7082	491.3248	14291.7	13396.05
816.8522	493.4843	14488.2	13596.05
816.9963	495.6432	14461.95	13572.55
817.1404	497.8015	14350.35	13446.65
817.2845	499.9592	14352.7	13443.05
817.4286	502.1163	14219.25	13317.45
817.5727	504.2728	13942.85	13045.25
817.7168	506.4287	13655.8	12771
817.861	508.5839	13265.75	12378
818.0051	510.7386	12998.55	12106.4
818.1493	512.8927	12855.85	11952
818.2935	515.0461	12771.1	11868.2
818.4377	517.199	12762.95	11861.1
818.5818	519.3512	12833.3	11926.6
818.726	521.5029	12961.8	12057
818.8703	523.6539	13104.25	12202.9
819.0145	525.8043	13155.4	12251.75
819.1587	527.9541	13166.65	12256.9
819.303	530.1033	13104.45	12198.3
819.4472	532.2519	13042.6	12139.3
819.5915	534.3999	13109.55	12201.15
819.7357	536.5472	13313.2	12409.75
819.88	538.694	13673.6	12770.65
820.0243	540.8401	14155	13248.2
820.1686	542.9856	14571.2	13656.65
820.3129	545.1305	14694.9	13772.95
820.4572	547.2748	14570.45	13644.7
820.6016	549.4185	14273.9	13348
820.7459	551.5615	13984.6	13061.2
820.8902	553.704	13891.75	12970.75
821.0346	555.8458	13906.85	12992.55
821.1789	557.987	13978.2	13067.5
821.3233	560.1276	14045.3	13131.15
821.4677	562.2675	14189.4	13274.1
821.6121	564.4069	14392.2	13471.25
821.7565	566.5456	14543.15	13631.25
821.9009	568.6837	14539.75	13631.4
822.0453	570.8212	14220.7	13308.35
822.1897	572.958	13785	12871.85
822.3342	575.0942	13362.85	12449.8
822.4786	577.2299	13114.95	12209.6
822.6231	579.3648	13024	12132.1
822.7675	581.4992	13032.3	12150.35
822.912	583.6329	13182.05	12301.5
823.0565	585.766	13406.25	12516.8
823.201	587.8985	13530.45	12633.75
823.3454	590.0304	13573.55	12639.65
823.4899	592.1616	13520.25	12604.2
823.6345	594.2922	13408.45	12493.05
823.779	596.4222	13250.95	12329.3
823.9235	598.5515	13064.4	12141.15
824.068	600.6802	12892.8	11971.3
824.2126	602.8083	12714.1	11794.9
824.3571	604.9358	12690.75	11771.5
824.5017	607.0626	12656.05	11731.8
824.6462	609.1888	12676.95	11746.7
824.7908	611.3144	12709.4	11784.5
824.9354	613.4393	12664.6	11738.9
825.08	615.5636	12653.2	11728.05
825.2246	617.6873	12598.15	11672.4
825.3692	619.8103	12548.25	11618.75
825.5138	621.9327	12420	11494.75
825.6584	624.0544	12292.9	11370.45
825.803	626.1756	12232.05	11314.25
825.9477	628.2961	12168.5	11244.35
826.0923	630.4159	12098.6	11175.5
826.237	632.5351	12086.25	11164.75
826.3816	634.6537	12026.35	11095.5
826.5263	636.7716	11991.2	11058.6
826.6709	638.8889	12005.4	11071.3
826.8156	641.0056	12068.8	11134.2
826.9603	643.1216	12032.65	11096.8
827.105	645.237	12053.85	11129.65
827.2497	647.3518	12008.45	11087.05
827.3944	649.4659	12006.05	11088.65
827.5391	651.5793	11982.15	11061.25
827.6838	653.6922	11959.75	11041.45
827.8285	655.8043	11942.7	11020.15
827.9733	657.9159	11924.5	10998.8
828.118	660.0268	11890.7	10966.45
828.2627	662.137	11854.85	10930.35
828.4075	664.2466	11855.8	10921.2
828.5522	666.3556	11861.8	10931.9
828.697	668.4639	11805.2	10878.2
828.8418	670.5716	11829.7	10907.2
828.9865	672.6786	11855.65	10932.6
829.1313	674.785	11901.2	10968.95
829.2761	676.8907	11933.45	11004.1
829.4209	678.9958	11978	11051.7
829.5657	681.1002	11962.95	11030.75
829.7105	683.204	11945.45	11004.65
829.8553	685.3072	11913.95	10977.35
830.0001	687.4097	11868.05	10934.45
830.1449	689.5115	11851.15	10914.55
830.2898	691.6127	11806.45	10878.9
830.4346	693.7132	11764	10835.95
830.5794	695.8131	11732.35	10789.95
830.7243	697.9123	11754	10813.05
830.8691	700.0109	11758.15	10817.05
831.014	702.1089	11749.55	10813.15
831.1588	704.2061	11772.45	10839.85
831.3037	706.3028	11781.25	10843.25
831.4486	708.3987	11830.65	10893.4
831.5935	710.4941	11897	10962.95
831.7383	712.5887	12023.65	11091.45
831.8832	714.6827	12258.6	11321.4
832.0281	716.7761	12535.8	11607.85
832.173	718.8688	12800.6	11867.05
832.3179	720.9608	13008.3	12070.65
832.4628	723.0522	13107.8	12160.3
832.6077	725.1429	12961.15	12017.2
832.7527	727.233	12819.85	11881.75
832.8976	729.3224	12680.9	11739.9
833.0425	731.4112	12500	11563
833.1874	733.4993	12319.5	11379.2
833.3324	735.5867	12127.7	11189.05
833.4773	737.6735	12013.6	11074.3
833.6222	739.7596	11926.9	10989.85
833.7672	741.845	11843.5	10905.2
833.9122	743.9298	11790	10851.2
834.0571	746.014	11770.75	10827.7
834.2021	748.0974	11767.9	10820.95
834.347	750.1802	11766.05	10819.2
834.492	752.2624	11805	10860.65
834.637	754.3439	11844.8	10896.5
834.782	756.4247	11934.2	10978.95
834.9269	758.5048	12057.65	11109.7
835.0719	760.5843	12317.7	11371.4
835.2169	762.6631	12675.4	11724.35
835.3619	764.7413	13159.35	12216.8
835.5069	766.8188	13728.55	12782.05
835.6519	768.8956	14251.4	13304.55
835.7969	770.9718	14552	13608.6
835.9419	773.0473	14440.9	13494.15
836.0869	775.1221	14169.2	13223.95
836.232	777.1962	13828.1	12883.9
836.377	779.2697	13673.55	12723.4
836.522	781.3426	13705.8	12748.05
836.667	783.4147	13878.05	12927
836.8121	785.4862	14126.5	13179.4
836.9571	787.557	14072.6	13126.7
837.1021	789.6271	13711.3	12761.75
837.2472	791.6966	13167.85	12220.5
837.3922	793.7654	12609.9	11662.25
837.5373	795.8335	12268.3	11323.35
837.6823	797.901	12042.1	11098.05
837.8274	799.9678	11978.7	11026.8
837.9724	802.0339	11933.95	10985.85
838.1175	804.0993	11953.15	10992.95
838.2626	806.1641	11927.4	10975.25
838.4076	808.2282	11853.9	10904.95
838.5527	810.2916	11759.4	10808.55
838.6978	812.3544	11668	10721.1
838.8428	814.4164	11608.35	10662.25
838.9879	816.4778	11634.2	10679.75
839.133	818.5385	11624.25	10676.05
839.2781	820.5986	11730.15	10776.55
839.4232	822.658	11878.25	10928
839.5682	824.7166	12113.9	11165.3
839.7133	826.7747	12424.05	11477.75
839.8584	828.832	12717.9	11767.6
840.0035	830.8886	12953.25	11999.6
840.1486	832.9446	13086.45	12134.5
840.2937	834.9999	13047.3	12096.4
840.4388	837.0545	12984.6	12029.3
840.5839	839.1085	12865.6	11913.05
840.729	841.1618	12729.55	11774.55
840.8741	843.2143	12625.5	11673.9
841.0192	845.2662	12501.45	11548
841.1643	847.3175	12413.9	11465.6
841.3095	849.368	12279.3	11329
841.4546	851.4179	12197.7	11243.15
841.5997	853.467	12079.85	11127.45
841.7448	855.5155	11984.05	11032.65
841.8899	857.5633	11894.65	10942.35
842.0351	859.6105	11782.6	10828.85
842.1802	861.6569	11717.7	10765.15
842.3253	863.7027	11662.85	10709.5
842.4704	865.7478	11659.45	10703.25
842.6156	867.7922	11617.8	10663.95
842.7607	869.8359	11634.2	10677.7
842.9058	871.8789	11750.15	10792.05
843.0509	873.9212	11934.25	10946.8
843.1961	875.9629	12009.4	11055.95
843.3412	878.0039	12153.05	11198.9
843.4863	880.0441	12267.4	11316.5
843.6315	882.0837	12312.75	11357.2
843.7766	884.1226	12248.85	11293.1
843.9218	886.1609	12214.9	11261.8
844.0669	888.1984	12169.4	11216.1
844.212	890.2352	12191.2	11237.55
844.3572	892.2714	12218.85	11259.15
844.5023	894.3069	12181.75	11223
844.6475	896.3416	12095.25	11142.25
844.7926	898.3757	12018.05	11061.95
844.9377	900.4091	11986.65	11031.8
845.0829	902.4418	12000.85	11036.7
845.228	904.4739	12005.9	11046.85
845.3732	906.5052	12034.2	11074.45
845.5183	908.5358	11947.3	10989.75
845.6635	910.5658	11823.75	10864.3
845.8086	912.595	11653.35	10694.15
845.9538	914.6236	11476.15	10519.05
846.0989	916.6515	11398.5	10440.6
846.2441	918.6786	11370.9	10408.95
846.3892	920.7051	11399.9	10440.5
846.5344	922.7309	11495.05	10535.35
846.6795	924.756	11547.45	10589.85
846.8246	926.7804	11633.75	10676.35
846.9698	928.8041	11598.2	10637.2
847.1149	930.8272	11664.4	10705.6
847.2601	932.8495	11597.55	10642.1
847.4052	934.8711	11582.9	10623.2
847.5504	936.892	11470.4	10510.85
847.6955	938.9123	11375.85	10419.45
847.8407	940.9318	11316.5	10357.3
847.9858	942.9506	11216.05	10257.5
848.131	944.9688	11147.6	10191.45
848.2761	946.9862	11087.05	10128.6
848.4213	949.003	11001.9	10043.35
848.5664	951.019	10975.85	10020.25
848.7115	953.0344	10945.45	9991.45
848.8567	955.0491	10991.45	10031.45
849.0018	957.063	11051.9	10090.65
849.147	959.0763	11153.35	10196.65
849.2921	961.0888	11198.1	10238.95
849.4373	963.1007	11248.2	10294.2
849.5824	965.1119	11299.1	10353.25
849.7275	967.1223	11317.85	10377.95
849.8727	969.1321	11336.2	10395.85
850.0178	971.1412	11340.95	10393.6
850.1629	973.1495	11374.2	10418.55
850.3081	975.1572	11454.15	10445.4
850.4532	977.1641	11448.7	10493.9
850.5983	979.1704	11427.6	10468.25
850.7435	981.1759	11382.55	10419.15
850.8886	983.1808	11446.2	10489.9
851.0337	985.1849	11513.9	10542.7
851.1788	987.1884	11608.9	10650.15
851.324	989.1911	11772.8	10816
851.4691	991.1932	11882.7	10928.1
851.6142	993.1945	11916.05	10958.15
851.7593	995.1951	11841.2	10885
851.9045	997.1951	11836.1	10871.85
852.0496	999.1943	11770.45	10815.65
852.1947	1001.1928	11756.75	10798.4
852.3398	1003.1906	11768.25	10808.95
852.4849	1005.1877	11869.7	10908.6
852.63	1007.1841	11868.6	10907.3
852.7751	1009.1798	11839.85	10881.8
852.9202	1011.1748	11693.15	10734.95
853.0653	1013.1691	11502.5	10545.4
853.2104	1015.1627	11330.15	10374.55
853.3555	1017.1556	11129.1	10174.4
853.5006	1019.1477	11016.55	10062
853.6457	1021.1392	10937.5	9990.3
853.7908	1023.1299	10904.2	9962.65
853.9359	1025.12	10929.55	9994.05
854.081	1027.1093	10970.6	10045.15
854.2261	1029.0979	11076.15	10153.05
854.3712	1031.0859	11165.6	10238
854.5163	1033.0731	11196.3	10254.9
854.6613	1035.0596	11112.85	10165.85
854.8064	1037.0454	10984.85	10037.85
854.9515	1039.0304	10910.45	9955.4
855.0965	1041.0148	10770.3	9819.85
855.2416	1042.9985	10698.45	9741.65
855.3867	1044.9814	10668.45	9713.35
855.5317	1046.9636	10610.8	9657.65
855.6768	1048.9452	10588.9	9640.1
855.8219	1050.926	10647.6	9696.2
855.9669	1052.9061	10619	9662.45
856.112	1054.8855	10632.15	9676.75
856.257	1056.8642	10668.2	9714
856.4021	1058.8421	10743.5	9786.8
856.5471	1060.8194	10745.15	9789.85
856.6921	1062.7959	10812.7	9855.5
856.8372	1064.7717	10836.45	9877.55
856.9822	1066.7469	10864.4	9909.2
857.1272	1068.7213	10926.9	9968.1
857.2723	1070.695	10948.75	9995.6
857.4173	1072.6679	10920.35	9963.8
857.5623	1074.6402	10881.95	9926.25
857.7073	1076.6117	10840.6	9879.5
857.8523	1078.5826	10825.7	9871.15
857.9973	1080.5527	10793.2	9833.75
858.1423	1082.5221	10793.25	9840.1
858.2873	1084.4908	10894.75	9941.5
858.4323	1086.4587	11031.95	10077.3
858.5773	1088.426	11141.15	10187.05
858.7223	1090.3925	11151.5	10190.8
858.8673	1092.3584	11146.3	10192.05
859.0123	1094.3235	11072.25	10119.35
859.1573	1096.2879	11057.6	10104.35
859.3022	1098.2515	11100.9	10147.8
859.4472	1100.2145	11191.75	10236.6
859.5922	1102.1767	11328.65	10372.35
859.7371	1104.1382	11496.2	10543.35
859.8821	1106.099	11755.05	10801.4
860.027	1108.0591	11929.7	10980.3
860.172	1110.0185	12075.6	11121.7
860.3169	1111.9771	12140.8	11187.85
860.4619	1113.9351	11955.95	11003.5
860.6068	1115.8923	11727.8	10773.5
860.7517	1117.8488	11492.05	10537.05
860.8967	1119.8045	11261.45	10308.75
861.0416	1121.7596	11132.05	10180.2
861.1865	1123.7139	11051.2	10103.85
861.3314	1125.6675	11059.25	10110.05
861.4763	1127.6204	11123.35	10171.15
861.6212	1129.5726	11082.35	10130.25
861.7661	1131.524	11023.6	10071.85
861.911	1133.4748	10970.1	10016.2
862.0559	1135.4248	10906.9	9956.15
862.2008	1137.3741	10854.4	9901.9
862.3457	1139.3226	10799.3	9846.05
862.4905	1141.2705	10742.95	9791.05
862.6354	1143.2176	10624.55	9664.9
862.7803	1145.164	10641.4	9684.6
862.9251	1147.1097	10627.6	9671.35
863.07	1149.0546	10564	9609.35
863.2148	1150.9989	10484.5	9531.95
863.3597	1152.9424	10376.25	9423.95
863.5045	1154.8852	10255.4	9302.4
863.6493	1156.8272	10154.6	9203.3
863.7942	1158.7686	10169.7	9208.15
863.939	1160.7092	10112.65	9158.55
864.0838	1162.6491	10132.5	9176.15
864.2286	1164.5883	10225.2	9272.65
864.3734	1166.5267	10287.35	9334.5
864.5182	1168.4644	10443.7	9494
864.663	1170.4014	10639.3	9688.1
864.8078	1172.3377	10872.1	9922.05
864.9526	1174.2732	11124.2	10177.65
865.0974	1176.2081	11456.45	10504.6
865.2421	1178.1421	11789.25	10834.3
865.3869	1180.0755	12092	11142.7
865.5317	1182.0082	12284.3	11337.2
865.6764	1183.9401	12350.75	11402.35
865.8212	1185.8713	12229.55	11287.75
