Software Version:	3.9.2.0
Unit SN:	10000200
Spectrometer SN:	6960
Date:	3/8/2024 12:58:55 PM
Data Line Index:	25
Spectral Points:	2048
Integration time (ms):	125
Averages:	20
Delay (ms):	30000
Sequence Number:	1
Processing:	dark subtract
Laser Power (mW):	305
Laser Current (mA):	823
Laser Diode Temp (C):	25
Laser Case Temp (C):	26.1
System Temp (C):	26.1
Spectrometer Temp (C):	23.9
CCD Temp (C):	0.005
Secondary Temp (C):	20.011
Heatsink Temp (C):	20.492
CCDPCB Temp (C):	36.196
SecondaryPCB Temp (C):	28.826

Wavelength	RamanShift	Raw Counts	Dark Subtracted
787.061	30.1047	453.05	43
787.2016	32.3739	453.3	45.7
787.3422	34.6426	457.75	48.9
787.4828	36.9109	463.4	53.75
787.6235	39.1787	471	55.7
787.7642	41.4461	478.1	59.4
787.9049	43.7131	489.65	69.2
788.0456	45.9796	499.5	76.05
788.1863	48.2456	506.7	79.75
788.3271	50.5112	517.95	85
788.4679	52.7764	525.05	88.7
788.6087	55.0411	533.15	94.7
788.7496	57.3054	545.65	100.1
788.8904	59.5692	552.25	106.6
789.0313	61.8326	564.65	117.25
789.1722	64.0955	573.6	121.6
789.3132	66.3579	592.85	134.95
789.4541	68.6199	608	144.2
789.5951	70.8815	646.1	179.05
789.7361	73.1426	721.6	251.45
789.8771	75.4032	929.45	455.45
790.0181	77.6634	1429.25	948.8
790.1592	79.9231	2588.85	2099.45
790.3003	82.1824	5099.45	4591.9
790.4414	84.4412	9591.3	9046.25
790.5825	86.6995	15726.15	15139
790.7237	88.9574	21621.85	20999.15
790.8648	91.2148	25646.3	24998.55
791.006	93.4717	27410.7	26745.8
791.1472	95.7282	27685.95	27017.35
791.2885	97.9842	27451.25	26771.2
791.4297	100.2398	26784	26103.45
791.571	102.4949	25985.45	25301.15
791.7123	104.7495	25097.05	24416.05
791.8536	107.0036	24208.25	23523.75
791.9949	109.2573	23429.45	22749.15
792.1363	111.5105	22655.6	21968.2
792.2777	113.7632	21954.5	21264.15
792.4191	116.0154	21374	20675.3
792.5605	118.2672	20987.85	20291.6
792.7019	120.5185	20568.85	19871.7
792.8434	122.7693	20233.4	19537.25
792.9849	125.0197	19992.05	19288.05
793.1264	127.2696	19727.6	19019.95
793.2679	129.519	19526.4	18813.7
793.4094	131.7679	19226.1	18508.95
793.551	134.0163	18988.85	18271.65
793.6926	136.2642	18672.4	17953.55
793.8342	138.5117	18361.25	17633.95
793.9758	140.7587	18037.3	17315.75
794.1175	143.0052	17766.4	17041.4
794.2591	145.2512	17425.85	16698.4
794.4008	147.4967	17155.05	16428.15
794.5425	149.7417	16962.95	16232.55
794.6842	151.9863	16794.2	16060.2
794.826	154.2304	16709.3	15963.8
794.9677	156.4739	16545.35	15798.05
795.1095	158.717	16468.4	15722.5
795.2513	160.9596	16276.4	15524.95
795.3931	163.2017	16037.5	15285.3
795.535	165.4433	15731.25	14978.35
795.6768	167.6844	15391.3	14636.55
795.8187	169.925	15083.15	14323.45
795.9606	172.1651	14766.05	14007.5
796.1025	174.4047	14473.1	13710.1
796.2445	176.6439	14205.45	13444.2
796.3864	178.8825	13998.8	13232.8
796.5284	181.1206	13855.75	13082.15
796.6704	183.3582	13731.05	12952.95
796.8124	185.5954	13641.15	12860.4
796.9544	187.832	13608	12827.45
797.0965	190.0681	13539.3	12755.6
797.2386	192.3037	13553.55	12764.3
797.3806	194.5388	13552.45	12760.75
797.5228	196.7734	13565.8	12773.2
797.6649	199.0075	13626.95	12829
797.807	201.2411	13745.6	12950.8
797.9492	203.4742	13824.5	13030.2
798.0914	205.7068	13971.55	13168.7
798.2336	207.9389	14097.8	13294.95
798.3758	210.1704	14198.65	13401.5
798.518	212.4015	14326.35	13540.9
798.6603	214.632	14485.85	13707.9
798.8025	216.862	14655.55	13878.5
798.9448	219.0915	14776.7	13997.15
799.0871	221.3205	14904.35	14122.45
799.2294	223.549	15054.2	14273.3
799.3718	225.777	15206.9	14428.1
799.5141	228.0044	15366.7	14574.4
799.6565	230.2314	15607.8	14821.5
799.7989	232.4578	15817.8	15030.9
799.9413	234.6837	16054	15255.55
800.0837	236.909	16142.9	15339.8
800.2262	239.1339	16149	15326.2
800.3687	241.3582	16024.75	15213.75
800.5111	243.582	15895.35	15053.95
800.6536	245.8053	15701.9	14876.05
800.7961	248.0281	15551.9	14735.45
800.9387	250.2503	15500.4	14670.65
801.0812	252.472	15469.05	14639.45
801.2238	254.6932	15554.85	14727.8
801.3664	256.9139	15615.3	14791.85
801.509	259.134	15752.7	14919.35
801.6516	261.3536	15880.6	15046.65
801.7942	263.5727	16086.5	15250.05
801.9369	265.7912	16271.4	15439.55
802.0795	268.0092	16496.55	15664.15
802.2222	270.2267	16633.05	15800.25
802.3649	272.4436	16693.9	15860.6
802.5076	274.6601	16688.45	15845.2
802.6504	276.8759	16629.55	15796
802.7931	279.0913	16532.5	15692.5
802.9359	281.3061	16406.45	15565.05
803.0787	283.5204	16381.4	15538.85
803.2215	285.7341	16336.95	15485.3
803.3643	287.9473	16422	15559.25
803.5071	290.16	16559.45	15706.65
803.6499	292.3721	16718.8	15877.05
803.7928	294.5837	17005.45	16159.2
803.9357	296.7947	17264.4	16418.55
804.0786	299.0052	17406.55	16559.4
804.2215	301.2152	17317.65	16468.2
804.3644	303.4246	17139.25	16298.65
804.5074	305.6334	16716.8	15875.65
804.6503	307.8418	16286.45	15437.35
804.7933	310.0495	15910.6	15060.65
804.9363	312.2568	15525.55	14672.8
805.0793	314.4635	15185.1	14336.9
805.2223	316.6696	14961.2	14105.15
805.3653	318.8752	14811.1	13948.15
805.5084	321.0802	14745.85	13887.45
805.6514	323.2847	14797.3	13933.45
805.7945	325.4887	14845.2	13983.15
805.9376	327.692	14819.15	13957.2
806.0807	329.8949	14744.85	13877.2
806.2238	332.0972	14566.15	13703.45
806.367	334.2989	14354.6	13485.75
806.5101	336.5001	14065.85	13200.35
806.6533	338.7007	13861.5	12994.6
806.7965	340.9008	13715.1	12845.55
806.9397	343.1003	13609.7	12737.15
807.0829	345.2992	13490.2	12619.6
807.2261	347.4976	13405.4	12535
807.3693	349.6955	13385	12506.35
807.5126	351.8927	13416.6	12539.1
807.6559	354.0895	13363.7	12475.4
807.7991	356.2856	13355.3	12472.85
807.9424	358.4812	13331.9	12453.95
808.0857	360.6763	13343.15	12465.8
808.2291	362.8707	13310.45	12427.85
808.3724	365.0646	13367.8	12482.3
808.5158	367.258	13418.5	12536.95
808.6591	369.4508	13458.6	12568
808.8025	371.643	13571.25	12681.05
808.9459	373.8346	13622	12731.85
809.0893	376.0257	13679.4	12788.75
809.2327	378.2162	13652.7	12764.25
809.3762	380.4062	13633.15	12746.1
809.5196	382.5956	13497.5	12612.8
809.6631	384.7844	13403.6	12524.7
809.8066	386.9726	13296.95	12415.45
809.9501	389.1603	13217.4	12339.5
810.0936	391.3474	13187.85	12284
810.2371	393.5339	13141.9	12254.1
810.3806	395.7199	13084.85	12197.75
810.5241	397.9052	13133.85	12250.8
810.6677	400.09	13187.8	12305.55
810.8113	402.2743	13305.8	12425.5
810.9548	404.4579	13442.9	12557.75
811.0984	406.641	13651.1	12765.8
811.2421	408.8235	13820.95	12931.4
811.3857	411.0054	14020.15	13128.35
811.5293	413.1868	14264.15	13368.3
811.673	415.3675	14427.4	13531.05
811.8166	417.5477	14526.35	13632.15
811.9603	419.7273	14485.8	13587.8
812.104	421.9064	14422.3	13520.75
812.2477	424.0848	14330.85	13435.4
812.3914	426.2627	14127.15	13228.4
812.5351	428.4399	13930.85	13032.25
812.6788	430.6166	13615.7	12713.45
812.8226	432.7928	13271.55	12367.6
812.9663	434.9683	12968.8	12068.15
813.1101	437.1432	12756.95	11860.4
813.2539	439.3176	12578.7	11687
813.3977	441.4914	12482.75	11590.75
813.5415	443.6645	12436.4	11539.1
813.6853	445.8371	12410.5	11510.35
813.8291	448.0091	12361.5	11460.35
813.973	450.1806	12316.95	11424.6
814.1168	452.3514	12287.65	11397
814.2607	454.5216	12337.75	11438.7
814.4046	456.6913	12316.15	11417.45
814.5485	458.8603	12351.9	11454.65
814.6924	461.0288	12378.05	11485.9
814.8363	463.1967	12387.55	11498.35
814.9802	465.3639	12439.8	11549.1
815.1241	467.5306	12474.55	11580
815.2681	469.6967	12546.55	11651.2
815.412	471.8622	12587.55	11698.7
815.556	474.0271	12652.05	11757
815.7	476.1914	12707.65	11805.85
815.844	478.3551	12712.2	11813.4
815.988	480.5182	12752.7	11856.35
816.132	482.6807	12808	11921.45
816.276	484.8426	12958.8	12076.9
816.4201	487.0039	13256.7	12372.15
816.5641	489.1647	13647.95	12751.35
816.7082	491.3248	14008.8	13109.25
816.8522	493.4843	14149.3	13255.2
816.9963	495.6432	14126.5	13233.3
817.1404	497.8015	13984.9	13081.15
817.2845	499.9592	13933.25	13023.05
817.4286	502.1163	13806.1	12900
817.5727	504.2728	13517.35	12614.15
817.7168	506.4287	13217.95	12325.85
817.861	508.5839	12869.95	11980.4
818.0051	510.7386	12622.7	11724.6
818.1493	512.8927	12531.7	11620.9
818.2935	515.0461	12500.55	11596.55
818.4377	517.199	12512.5	11604.75
818.5818	519.3512	12659.8	11751
818.726	521.5029	12860.8	11948.25
818.8703	523.6539	13044.6	12138.8
819.0145	525.8043	13141.95	12233.6
819.1587	527.9541	13116.85	12204.4
819.303	530.1033	12979.75	12068.9
819.4472	532.2519	12854.8	11944.85
819.5915	534.3999	12881.4	11974.55
819.7357	536.5472	12995.05	12087.25
819.88	538.694	13282.75	12377.7
820.0243	540.8401	13632.65	12716.5
820.1686	542.9856	13937.4	13019.45
820.3129	545.1305	14028.05	13103.4
820.4572	547.2748	13933.3	13002.1
820.6016	549.4185	13702	12770.45
820.7459	551.5615	13512.4	12583.95
820.8902	553.704	13468.8	12540.05
821.0346	555.8458	13497.7	12575.4
821.1789	557.987	13641.1	12725
821.3233	560.1276	13784.95	12862.7
821.4677	562.2675	14066.4	13140.6
821.6121	564.4069	14423.4	13498.95
821.7565	566.5456	14684.55	13769
821.9009	568.6837	14774.45	13859.6
822.0453	570.8212	14435.2	13519.5
822.1897	572.958	13895.85	12975.05
822.3342	575.0942	13403.4	12492.95
822.4786	577.2299	13003.25	12093.7
822.6231	579.3648	12859.65	11962.9
822.7675	581.4992	12832.95	11942.7
822.912	583.6329	12959.3	12070.15
823.0565	585.766	13141.25	12247.4
823.201	587.8985	13273.7	12371.45
823.3454	590.0304	13354.8	12421.1
823.4899	592.1616	13302.65	12380.75
823.6345	594.2922	13185.25	12261.15
823.779	596.4222	12992.05	12069.1
823.9235	598.5515	12805.75	11876.45
824.068	600.6802	12659.05	11734.5
824.2126	602.8083	12509.95	11588.15
824.3571	604.9358	12457.45	11538.15
824.5017	607.0626	12427.05	11494.15
824.6462	609.1888	12537.3	11604.75
824.7908	611.3144	12607.35	11673.85
824.9354	613.4393	12665.1	11735.45
825.08	615.5636	12727.9	11798.25
825.2246	617.6873	12677.55	11750.2
825.3692	619.8103	12631.8	11700.55
825.5138	621.9327	12448.7	11521.75
825.6584	624.0544	12280.5	11357.85
825.803	626.1756	12169.25	11243.6
825.9477	628.2961	12064.45	11135.45
826.0923	630.4159	12011	11081.6
826.237	632.5351	11974.05	11043.95
826.3816	634.6537	11934.6	11003.3
826.5263	636.7716	11941.3	11003.55
826.6709	638.8889	11958.1	11020.7
826.8156	641.0056	11979.75	11040.2
826.9603	643.1216	11955.45	11019.6
827.105	645.237	11949	11014.7
827.2497	647.3518	11891.2	10967.1
827.3944	649.4659	11840.15	10916.25
827.5391	651.5793	11805.85	10879.25
827.6838	653.6922	11792.95	10868.7
827.8285	655.8043	11763.55	10838.7
827.9733	657.9159	11766.2	10838.4
828.118	660.0268	11727.6	10799.65
828.2627	662.137	11713.45	10786
828.4075	664.2466	11727.35	10792.5
828.5522	666.3556	11722.75	10787.65
828.697	668.4639	11656.15	10724.5
828.8418	670.5716	11669.8	10745.4
828.9865	672.6786	11662.65	10731.2
829.1313	674.785	11654.85	10714.5
829.2761	676.8907	11652.9	10717
829.4209	678.9958	11694.4	10767.15
829.5657	681.1002	11656.85	10724.25
829.7105	683.204	11641.4	10698.55
829.8553	685.3072	11639.65	10700.6
830.0001	687.4097	11611.5	10675.8
830.1449	689.5115	11603.4	10663.05
830.2898	691.6127	11580.45	10649.2
830.4346	693.7132	11540.55	10611
830.5794	695.8131	11565.4	10618.75
830.7243	697.9123	11567.1	10627.7
830.8691	700.0109	11573	10626.35
831.014	702.1089	11593.2	10653.4
831.1588	704.2061	11625.2	10685.2
831.3037	706.3028	11660.6	10721.15
831.4486	708.3987	11697.85	10760.55
831.5935	710.4941	11772.85	10837.15
831.7383	712.5887	11846.4	10907.4
831.8832	714.6827	11976.85	11036.25
832.0281	716.7761	12155.8	11222.5
832.173	718.8688	12415.55	11478.25
832.3179	720.9608	12558.95	11616.1
832.4628	723.0522	12701.2	11751.55
832.6077	725.1429	12658.5	11712.35
832.7527	727.233	12613.45	11670.7
832.8976	729.3224	12595	11651.95
833.0425	731.4112	12456.4	11513.2
833.1874	733.4993	12307.4	11362.95
833.3324	735.5867	12109	11164.25
833.4773	737.6735	11943.05	11004.3
833.6222	739.7596	11803.5	10857.6
833.7672	741.845	11713.9	10774.05
833.9122	743.9298	11638.65	10698.35
834.0571	746.014	11604.3	10660.55
834.2021	748.0974	11607.8	10662.9
834.347	750.1802	11631.65	10682.9
834.492	752.2624	11620.85	10671.9
834.637	754.3439	11655.95	10708.2
834.782	756.4247	11792.45	10836.3
834.9269	758.5048	11935.6	10987.45
835.0719	760.5843	12213.45	11263.05
835.2169	762.6631	12573.65	11623.4
835.3619	764.7413	13094.8	12150.5
835.5069	766.8188	13733.75	12788.9
835.6519	768.8956	14249	13299.75
835.7969	770.9718	14587.2	13640.15
835.9419	773.0473	14535.25	13587.25
836.0869	775.1221	14256.45	13305.8
836.232	777.1962	13945.8	12996.3
836.377	779.2697	13828.9	12877.9
836.522	781.3426	13870.1	12910.25
836.667	783.4147	14006.75	13059.45
836.8121	785.4862	14159.2	13208.15
836.9571	787.557	14030.3	13079.6
837.1021	789.6271	13607.65	12655.05
837.2472	791.6966	13073.65	12123.35
837.3922	793.7654	12467.4	11520.05
837.5373	795.8335	12125.7	11177.75
837.6823	797.901	11870.15	10921.35
837.8274	799.9678	11736.65	10781.4
837.9724	802.0339	11673.25	10722.4
838.1175	804.0993	11667.45	10708.7
838.2626	806.1641	11609.2	10654.45
838.4076	808.2282	11548.2	10600.05
838.5527	810.2916	11484.15	10532.55
838.6978	812.3544	11399.35	10451.35
838.8428	814.4164	11319.3	10374.05
838.9879	816.4778	11379.25	10421.05
839.133	818.5385	11386.5	10436.2
839.2781	820.5986	11488.85	10538.2
839.4232	822.658	11698.2	10744.8
839.5682	824.7166	11975.75	11021.7
839.7133	826.7747	12387.05	11435.75
839.8584	828.832	12827.55	11873.2
840.0035	830.8886	13119.3	12165.2
840.1486	832.9446	13277	12322.75
840.2937	834.9999	13158.95	12206.55
840.4388	837.0545	12993.85	12040.6
840.5839	839.1085	12770.25	11815.25
840.729	841.1618	12530	11575.55
840.8741	843.2143	12369.8	11413.7
841.0192	845.2662	12183.3	11228.15
841.1643	847.3175	12112.75	11160.15
841.3095	849.368	11950.8	10995.75
841.4546	851.4179	11863.65	10912.55
841.5997	853.467	11763.3	10809.2
841.7448	855.5155	11670.9	10712.95
841.8899	857.5633	11607.6	10650.5
842.0351	859.6105	11513.95	10557.9
842.1802	861.6569	11453	10499.35
842.3253	863.7027	11392.15	10435.9
842.4704	865.7478	11359.4	10402.2
842.6156	867.7922	11342.55	10387.05
842.7607	869.8359	11342.95	10384.95
842.9058	871.8789	11387.75	10427.15
843.0509	873.9212	11528.05	10538.65
843.1961	875.9629	11586.4	10630.65
843.3412	878.0039	11740.35	10782.4
843.4863	880.0441	11819.25	10866.25
843.6315	882.0837	11844.55	10891.2
843.7766	884.1226	11838.15	10879
843.9218	886.1609	11841.9	10888.4
844.0669	888.1984	11885.6	10934.05
844.212	890.2352	12013.55	11059.4
844.3572	892.2714	11996.3	11036.25
844.5023	894.3069	11966.95	11008.85
844.6475	896.3416	11813.6	10855.75
844.7926	898.3757	11708.45	10749.5
844.9377	900.4091	11647.7	10686.95
845.0829	902.4418	11654.05	10695.1
845.228	904.4739	11690.35	10724.7
845.3732	906.5052	11723.35	10763.1
845.5183	908.5358	11669.65	10712.8
845.6635	910.5658	11493.65	10533.05
845.8086	912.595	11339.2	10379.45
845.9538	914.6236	11147.05	10185.55
846.0989	916.6515	11034.95	10077.85
846.2441	918.6786	10988.5	10028.85
846.3892	920.7051	10996.05	10034.95
846.5344	922.7309	11073.3	10113.2
846.6795	924.756	11092.8	10135.65
846.8246	926.7804	11165.45	10204.3
846.9698	928.8041	11187.55	10227.65
847.1149	930.8272	11223.8	10262.45
847.2601	932.8495	11188.35	10229.7
847.4052	934.8711	11151.25	10189.95
847.5504	936.892	11088.9	10131.15
847.6955	938.9123	11037.9	10074.55
847.8407	940.9318	11039.75	10079.15
847.9858	942.9506	10968.9	10009.2
848.131	944.9688	10917.25	9954.8
848.2761	946.9862	10850.8	9888.55
848.4213	949.003	10736.3	9778.25
848.5664	951.019	10656.15	9696.6
848.7115	953.0344	10626	9665.85
848.8567	955.0491	10640.05	9681.7
849.0018	957.063	10669.2	9711.35
849.147	959.0763	10760.55	9802.8
849.2921	961.0888	10814.35	9855.45
849.4373	963.1007	10871.2	9913.65
849.5824	965.1119	10876.4	9928.25
849.7275	967.1223	10886.95	9947.25
849.8727	969.1321	10852.55	9907.35
850.0178	971.1412	10904.1	9955.45
850.1629	973.1495	10904.95	9951.55
850.3081	975.1572	10935.55	9931.05
850.4532	977.1641	10941.4	9980.55
850.5983	979.1704	10935.95	9976.75
850.7435	981.1759	10894.35	9929
850.8886	983.1808	10933.15	9972.25
851.0337	985.1849	10960.45	9992.4
851.1788	987.1884	11088.2	10128
851.324	989.1911	11157.55	10198.55
851.4691	991.1932	11244.85	10286.4
851.6142	993.1945	11256.8	10301.35
851.7593	995.1951	11225.9	10266.25
851.9045	997.1951	11235.15	10269.9
852.0496	999.1943	11166.75	10207.55
852.1947	1001.1928	11148.1	10188.3
852.3398	1003.1906	11169	10210.4
852.4849	1005.1877	11277.15	10317.3
852.63	1007.1841	11325.9	10367.95
852.7751	1009.1798	11325.9	10371.95
852.9202	1011.1748	11207.4	10252.3
853.0653	1013.1691	11041.1	10085.1
853.2104	1015.1627	10872.75	9914.65
853.3555	1017.1556	10671.05	9716.95
853.5006	1019.1477	10554.55	9600.4
853.6457	1021.1392	10442.5	9493.3
853.7908	1023.1299	10425.5	9481.05
853.9359	1025.12	10434.1	9491.15
854.081	1027.1093	10492.45	9565.35
854.2261	1029.0979	10587.85	9666.7
854.3712	1031.0859	10643.5	9713.65
854.5163	1033.0731	10703	9763.55
854.6613	1035.0596	10660.55	9713.45
854.8064	1037.0454	10535.85	9590.35
854.9515	1039.0304	10462.2	9508.45
855.0965	1041.0148	10327.75	9375.3
855.2416	1042.9985	10237.1	9283.3
855.3867	1044.9814	10195.55	9241.9
855.5317	1046.9636	10172.9	9220.45
855.6768	1048.9452	10137.45	9186.35
855.8219	1050.926	10163.85	9213.5
855.9669	1052.9061	10172.4	9218.75
856.112	1054.8855	10186.75	9231.65
856.257	1056.8642	10238.6	9283.25
856.4021	1058.8421	10257.15	9296.6
856.5471	1060.8194	10318.7	9362.2
856.6921	1062.7959	10342.6	9384.6
856.8372	1064.7717	10408.1	9451.05
856.9822	1066.7469	10467.8	9513.65
857.1272	1068.7213	10506.7	9548.5
857.2723	1070.695	10569.1	9614.95
857.4173	1072.6679	10560	9607.05
857.5623	1074.6402	10561.85	9608.15
857.7073	1076.6117	10540.85	9577.35
857.8523	1078.5826	10500.65	9545.85
857.9973	1080.5527	10394.05	9434.55
858.1423	1082.5221	10339.9	9384.05
858.2873	1084.4908	10361.8	9406.3
858.4323	1086.4587	10424.3	9473.9
858.5773	1088.426	10495.95	9539.55
858.7223	1090.3925	10545.8	9585.35
858.8673	1092.3584	10536.5	9580.3
859.0123	1094.3235	10501.35	9547.45
859.1573	1096.2879	10533.95	9579.85
859.3022	1098.2515	10623.4	9667.35
859.4472	1100.2145	10766.75	9816.45
859.5922	1102.1767	10912.95	9956.45
859.7371	1104.1382	11120.45	10166.8
859.8821	1106.099	11386.45	10431.35
860.027	1108.0591	11564.3	10608.35
860.172	1110.0185	11683.05	10725.3
860.3169	1111.9771	11768.95	10814.55
860.4619	1113.9351	11681.95	10727.4
860.6068	1115.8923	11485.25	10533.25
860.7517	1117.8488	11311.7	10358.8
860.8967	1119.8045	11105.3	10152.9
861.0416	1121.7596	10988.1	10037.25
861.1865	1123.7139	10852.65	9901.8
861.3314	1125.6675	10830.2	9878.4
861.4763	1127.6204	10865.7	9916.5
861.6212	1129.5726	10813.4	9858.55
861.7661	1131.524	10750.95	9796.35
861.911	1133.4748	10659.25	9706.05
862.0559	1135.4248	10516.35	9562.75
862.2008	1137.3741	10437.85	9485.55
862.3457	1139.3226	10331.5	9375.95
862.4905	1141.2705	10300	9345.65
862.6354	1143.2176	10187.85	9228.95
862.7803	1145.164	10140.75	9187.15
862.9251	1147.1097	10130.3	9173.75
863.07	1149.0546	10053	9098.35
863.2148	1150.9989	9951.9	9001.25
863.3597	1152.9424	9852.65	8896.45
863.5045	1154.8852	9780.3	8825.45
863.6493	1156.8272	9693.4	8735.85
863.7942	1158.7686	9699.05	8737.6
863.939	1160.7092	9700.35	8743.35
864.0838	1162.6491	9721.15	8763.9
864.2286	1164.5883	9825.6	8874.95
864.3734	1166.5267	9911.35	8955
864.5182	1168.4644	10068.95	9113.85
864.663	1170.4014	10269.3	9312.05
864.8078	1172.3377	10497.65	9547.55
864.9526	1174.2732	10771.55	9820.6
865.0974	1176.2081	11128.25	10178.4
865.2421	1178.1421	11562.35	10608.8
865.3869	1180.0755	11988.05	11034.75
865.5317	1182.0082	12259.65	11311.3
865.6764	1183.9401	12370.5	11421.7
865.8212	1185.8713	12274.5	11331
