Software Version:	3.9.2.0
Unit SN:	10000200
Spectrometer SN:	6960
Date:	3/8/2024 11:58:51 AM
Data Line Index:	25
Spectral Points:	2048
Integration time (ms):	125
Averages:	20
Delay (ms):	30000
Sequence Number:	1
Processing:	dark subtract
Laser Power (mW):	300
Laser Current (mA):	822
Laser Diode Temp (C):	25
Laser Case Temp (C):	25.5
System Temp (C):	25.5
Spectrometer Temp (C):	23.4
CCD Temp (C):	0.002
Secondary Temp (C):	20
Heatsink Temp (C):	20.255
CCDPCB Temp (C):	35.551
SecondaryPCB Temp (C):	27.959

Wavelength	RamanShift	Raw Counts	Dark Subtracted
787.061	30.1047	415.25	5.5
787.2016	32.3739	412.85	4.5
787.3422	34.6426	414.35	6
787.4828	36.9109	417.05	5.05
787.6235	39.1787	422.4	8.2
787.7642	41.4461	427.1	9.2
787.9049	43.7131	431.75	10.65
788.0456	45.9796	431.45	6.85
788.1863	48.2456	437.95	9.35
788.3271	50.5112	442.8	10
788.4679	52.7764	446.65	9.9
788.6087	55.0411	453.5	12.55
788.7496	57.3054	457.15	12.65
788.8904	59.5692	461.8	15.35
789.0313	61.8326	465.05	15.55
789.1722	64.0955	466.5	14.55
789.3132	66.3579	473.15	15.3
789.4541	68.6199	480.2	20.1
789.5951	70.8815	491.5	26.65
789.7361	73.1426	509.1	39.85
789.8771	75.4032	541.7	68.6
790.0181	77.6634	612.9	135.1
790.1592	79.9231	778.05	293.9
790.3003	82.1824	1125.6	632.65
790.4414	84.4412	1700.55	1186.45
790.5825	86.6995	2413.9	1881.55
790.7237	88.9574	3096.05	2543.2
790.8648	91.2148	3565.7	3001.75
791.006	93.4717	3750.3	3174.55
791.1472	95.7282	3768.45	3190.2
791.2885	97.9842	3759.9	3176.95
791.4297	100.2398	3707.2	3125.3
791.571	102.4949	3653.9	3067.35
791.7123	104.7495	3616	3022.5
791.8536	107.0036	3565.1	2973.95
791.9949	109.2573	3477.85	2886.95
792.1363	111.5105	3388.65	2797.45
792.2777	113.7632	3292.4	2696.35
792.4191	116.0154	3198.7	2592.75
792.5605	118.2672	3062.45	2461.2
792.7019	120.5185	2969.85	2369.75
792.8434	122.7693	2882.35	2277.55
792.9849	125.0197	2799.95	2190.5
793.1264	127.2696	2745.6	2130.65
793.2679	129.519	2708.75	2092.4
793.4094	131.7679	2677.05	2061.45
793.551	134.0163	2663.75	2042.6
793.6926	136.2642	2654.7	2031.45
793.8342	138.5117	2640.5	2005.25
793.9758	140.7587	2600.3	1971.15
794.1175	143.0052	2553.3	1923.05
794.2591	145.2512	2503.75	1873.8
794.4008	147.4967	2454.25	1824
794.5425	149.7417	2412.65	1776.1
794.6842	151.9863	2389.95	1751.45
794.826	154.2304	2387.8	1744
794.9677	156.4739	2378.6	1728.05
795.1095	158.717	2399.35	1747.5
795.2513	160.9596	2412	1758
795.3931	163.2017	2428.05	1772.45
795.535	165.4433	2431.3	1771.05
795.6768	167.6844	2420.1	1758.35
795.8187	169.925	2380.8	1719.35
795.9606	172.1651	2344.6	1680.65
796.1025	174.4047	2292.45	1623.9
796.2445	176.6439	2256.75	1587.55
796.3864	178.8825	2230.45	1554.9
796.5284	181.1206	2211.9	1531.8
796.6704	183.3582	2213.05	1533.1
796.8124	185.5954	2215.7	1530.05
796.9544	187.832	2199.65	1509.6
797.0965	190.0681	2211.85	1521.65
797.2386	192.3037	2232.6	1542.1
797.3806	194.5388	2228.8	1528.75
797.5228	196.7734	2229.6	1531.6
797.6649	199.0075	2237.85	1538.2
797.807	201.2411	2270.05	1569.7
797.9492	203.4742	2281.75	1581.4
798.0914	205.7068	2312.55	1603.65
798.2336	207.9389	2332.6	1623.45
798.3758	210.1704	2341.9	1639.5
798.518	212.4015	2337.65	1645.55
798.6603	214.632	2343.95	1655.7
798.8025	216.862	2341.05	1657.65
798.9448	219.0915	2356.45	1668.75
799.0871	221.3205	2369	1677.15
799.2294	223.549	2368.8	1682.25
799.3718	225.777	2367.25	1682.8
799.5141	228.0044	2362.15	1672.7
799.6565	230.2314	2357.6	1667.4
799.7989	232.4578	2340.5	1642.5
799.9413	234.6837	2311.25	1607.9
800.0837	236.909	2318.1	1607.75
800.2262	239.1339	2327.35	1595.1
800.3687	241.3582	2313.9	1592.85
800.5111	243.582	2335.45	1586.5
800.6536	245.8053	2335.05	1599.55
800.7961	248.0281	2336.6	1605.6
800.9387	250.2503	2339.65	1607.7
801.0812	252.472	2349.6	1611.3
801.2238	254.6932	2353.15	1618.3
801.3664	256.9139	2359.85	1623.65
801.509	259.134	2389.2	1648.85
801.6516	261.3536	2405.85	1667.8
801.7942	263.5727	2445.05	1705.35
801.9369	265.7912	2490.95	1752.05
802.0795	268.0092	2554.2	1815.1
802.2222	270.2267	2598	1857.25
802.3649	272.4436	2658.3	1915.75
802.5076	274.6601	2686.05	1928.6
802.6504	276.8759	2701.15	1952.7
802.7931	279.0913	2718.3	1969.25
802.9359	281.3061	2735.15	1986.1
803.0787	283.5204	2756.5	2004.85
803.2215	285.7341	2779.85	2022.15
803.3643	287.9473	2796.45	2039.45
803.5071	290.16	2798.3	2038.05
803.6499	292.3721	2753.55	2000.1
803.7928	294.5837	2729.25	1972.4
803.9357	296.7947	2711.2	1957.5
804.0786	299.0052	2702	1946.5
804.2215	301.2152	2686.2	1925.65
804.3644	303.4246	2672.4	1913.9
804.5074	305.6334	2641.15	1884.45
804.6503	307.8418	2631.4	1871.95
804.7933	310.0495	2594.1	1831.55
804.9363	312.2568	2550.85	1787.85
805.0793	314.4635	2514	1751.3
805.2223	316.6696	2466.75	1699.65
805.3653	318.8752	2429.45	1655.05
805.5084	321.0802	2413.7	1644.55
805.6514	323.2847	2394.85	1624.55
805.7945	325.4887	2400.95	1631.55
805.9376	327.692	2427.65	1654.6
806.0807	329.8949	2470	1698.6
806.2238	332.0972	2481.35	1704.85
806.367	334.2989	2500.6	1719.2
806.5101	336.5001	2504.35	1722.95
806.6533	338.7007	2478.6	1696.9
806.7965	340.9008	2443.5	1661.25
806.9397	343.1003	2379.1	1598.75
807.0829	345.2992	2339.8	1557.8
807.2261	347.4976	2303.25	1518.35
807.3693	349.6955	2271.65	1482.55
807.5126	351.8927	2262.85	1469.35
807.6559	354.0895	2243.3	1437.6
807.7991	356.2856	2225.75	1432.65
807.9424	358.4812	2215.3	1423.6
808.0857	360.6763	2227.3	1431
808.2291	362.8707	2218	1422.65
808.3724	365.0646	2232.45	1435.1
808.5158	367.258	2248.75	1449.35
808.6591	369.4508	2251.35	1447.3
808.8025	371.643	2283.75	1477.05
808.9459	373.8346	2300.95	1497.2
809.0893	376.0257	2335.1	1527.15
809.2327	378.2162	2355.1	1550.9
809.3762	380.4062	2369.8	1565.65
809.5196	382.5956	2335.95	1534.45
809.6631	384.7844	2292.05	1489.1
809.8066	386.9726	2263.8	1464.85
809.9501	389.1603	2238.85	1440.25
810.0936	391.3474	2248.05	1417.25
810.2371	393.5339	2235.45	1438.75
810.3806	395.7199	2231.2	1433.65
810.5241	397.9052	2263.5	1465.45
810.6677	400.09	2304.8	1505.9
810.8113	402.2743	2346.6	1547.1
810.9548	404.4579	2376.95	1578.4
811.0984	406.641	2420.65	1621.2
811.2421	408.8235	2453.3	1648.9
811.3857	411.0054	2504.7	1696.6
811.5293	413.1868	2568.2	1757.1
811.673	415.3675	2628.8	1815.45
811.8166	417.5477	2617.4	1803.7
811.9603	419.7273	2550.75	1734.2
812.104	421.9064	2465.85	1641.55
812.2477	424.0848	2407.5	1590.95
812.3914	426.2627	2356.65	1537.8
812.5351	428.4399	2309.25	1490.3
812.6788	430.6166	2262.6	1439.6
812.8226	432.7928	2211.55	1387.95
812.9663	434.9683	2170.55	1348.05
813.1101	437.1432	2138.25	1315
813.2539	439.3176	2132.85	1312.95
813.3977	441.4914	2111.35	1291.6
813.5415	443.6645	2107.9	1287.3
813.6853	445.8371	2111.3	1286.6
813.8291	448.0091	2112.15	1288.2
813.973	450.1806	2110.6	1288.75
814.1168	452.3514	2097.45	1272.1
814.2607	454.5216	2104.6	1270.4
814.4046	456.6913	2103	1276.1
814.5485	458.8603	2107.2	1281.75
814.6924	461.0288	2103.8	1284.2
814.8363	463.1967	2111.8	1291.05
814.9802	465.3639	2101.5	1276.3
815.1241	467.5306	2097.55	1273
815.2681	469.6967	2094.65	1269.45
815.412	471.8622	2081.4	1256.7
815.556	474.0271	2082.2	1256.75
815.7	476.1914	2084.8	1255.7
815.844	478.3551	2081.55	1251.45
815.988	480.5182	2076.35	1246.05
816.132	482.6807	2085.05	1259.25
816.276	484.8426	2094.4	1271.75
816.4201	487.0039	2140.75	1312.55
816.5641	489.1647	2184.55	1355.85
816.7082	491.3248	2243.1	1411.4
816.8522	493.4843	2243.95	1412.1
816.9963	495.6432	2245.6	1415.9
817.1404	497.8015	2213.9	1373.7
817.2845	499.9592	2175.8	1338.05
817.4286	502.1163	2124	1284.2
817.5727	504.2728	2076.9	1243.8
817.7168	506.4287	2056.75	1224.55
817.861	508.5839	2040.6	1210.45
818.0051	510.7386	2035.35	1199.8
818.1493	512.8927	2052.2	1211.4
818.2935	515.0461	2053.25	1215.2
818.4377	517.199	2082.75	1241.8
818.5818	519.3512	2109.65	1269.65
818.726	521.5029	2185.25	1337.8
818.8703	523.6539	2223.5	1381
819.0145	525.8043	2238.05	1395.2
819.1587	527.9541	2189.75	1345.7
819.303	530.1033	2112.9	1268.5
819.4472	532.2519	2076.65	1231.2
819.5915	534.3999	2060.75	1214.8
819.7357	536.5472	2051.6	1207.7
819.88	538.694	2045.55	1210.05
820.0243	540.8401	2071.3	1226.6
820.1686	542.9856	2086.85	1236.05
820.3129	545.1305	2092.75	1239.9
820.4572	547.2748	2110.85	1257.9
820.6016	549.4185	2118.65	1265.65
820.7459	551.5615	2124	1274.15
820.8902	553.704	2142.35	1292.3
821.0346	555.8458	2157.75	1310.7
821.1789	557.987	2174.9	1328.6
821.3233	560.1276	2195.8	1344.6
821.4677	562.2675	2260.9	1410.85
821.6121	564.4069	2307.45	1454.9
821.7565	566.5456	2332.9	1482.05
821.9009	568.6837	2330.95	1481.25
822.0453	570.8212	2257.4	1406.1
822.1897	572.958	2206.95	1356.95
822.3342	575.0942	2138.9	1288.7
822.4786	577.2299	2103.7	1257.45
822.6231	579.3648	2076.45	1231.15
822.7675	581.4992	2057.75	1215.05
822.912	583.6329	2064.1	1222.5
823.0565	585.766	2100.4	1256.6
823.201	587.8985	2141.65	1293.95
823.3454	590.0304	2195.85	1331.5
823.4899	592.1616	2227.45	1371.25
823.6345	594.2922	2209.2	1352.35
823.779	596.4222	2161.5	1304.2
823.9235	598.5515	2108.1	1250.15
824.068	600.6802	2066.65	1210.35
824.2126	602.8083	2035.45	1178.1
824.3571	604.9358	2020.85	1161.65
824.5017	607.0626	2012.45	1152
824.6462	609.1888	2034.2	1173.25
824.7908	611.3144	2061.15	1200.6
824.9354	613.4393	2090.4	1232.95
825.08	615.5636	2137.7	1276.05
825.2246	617.6873	2177.75	1315.15
825.3692	619.8103	2207.5	1344.45
825.5138	621.9327	2210.65	1345.35
825.6584	624.0544	2168	1306.75
825.803	626.1756	2113.1	1253.25
825.9477	628.2961	2074	1209.1
826.0923	630.4159	2056.85	1192.9
826.237	632.5351	2052.45	1188.7
826.3816	634.6537	2038.3	1172.15
826.5263	636.7716	2034.8	1166.6
826.6709	638.8889	2026.5	1159.2
826.8156	641.0056	2033.95	1166.65
826.9603	643.1216	2027.35	1160.95
827.105	645.237	2039.7	1172.3
827.2497	647.3518	2013.7	1150.2
827.3944	649.4659	1988.75	1126.8
827.5391	651.5793	1984.45	1122.35
827.6838	653.6922	1973	1109.7
827.8285	655.8043	1945.7	1083.2
827.9733	657.9159	1948.75	1080.95
828.118	660.0268	1943.4	1076.7
828.2627	662.137	1936.85	1069.25
828.4075	664.2466	1945.15	1073.2
828.5522	666.3556	1929.55	1059.6
828.697	668.4639	1929.1	1055.95
828.8418	670.5716	1915.25	1048.3
828.9865	672.6786	1919.85	1049.35
829.1313	674.785	1919.25	1044.95
829.2761	676.8907	1915.65	1044.05
829.4209	678.9958	1908.7	1042.85
829.5657	681.1002	1911.9	1039.35
829.7105	683.204	1909.8	1028.5
829.8553	685.3072	1912.8	1037.9
830.0001	687.4097	1906.6	1030.75
830.1449	689.5115	1912.95	1036.4
830.2898	691.6127	1900.05	1031.3
830.4346	693.7132	1903.4	1029.55
830.5794	695.8131	1928.7	1036.3
830.7243	697.9123	1909.3	1034.3
830.8691	700.0109	1918.9	1042.65
831.014	702.1089	1920.6	1045.35
831.1588	704.2061	1940.9	1066.15
831.3037	706.3028	1957.35	1080.85
831.4486	708.3987	1976.35	1099.1
831.5935	710.4941	1983.9	1110
831.7383	712.5887	1997.5	1121.45
831.8832	714.6827	1990.25	1111.35
832.0281	716.7761	1973.95	1096.8
832.173	718.8688	1988.5	1109.1
832.3179	720.9608	1990.05	1107.05
832.4628	723.0522	2009.2	1125.15
832.6077	725.1429	2030.45	1149.35
832.7527	727.233	2072.1	1191.75
832.8976	729.3224	2128	1247.4
833.0425	731.4112	2173.1	1292.7
833.1874	733.4993	2166.9	1283.95
833.3324	735.5867	2120.45	1243.65
833.4773	737.6735	2062.3	1180.25
833.6222	739.7596	1998.9	1118.2
833.7672	741.845	1977.15	1094.4
833.9122	743.9298	1983.1	1102.05
834.0571	746.014	1985.25	1102.6
834.2021	748.0974	1992.5	1109.2
834.347	750.1802	1984.8	1100.35
834.492	752.2624	1990.05	1105
834.637	754.3439	1972.15	1086.9
834.782	756.4247	1971.8	1080.4
834.9269	758.5048	1981.1	1097.9
835.0719	760.5843	1994.35	1108.55
835.2169	762.6631	2034.15	1149.55
835.3619	764.7413	2076.55	1194.5
835.5069	766.8188	2150.55	1265.6
835.6519	768.8956	2246.65	1359.3
835.7969	770.9718	2298.75	1413.7
835.9419	773.0473	2288.95	1403.2
836.0869	775.1221	2264.1	1376.5
836.232	777.1962	2252.4	1367.2
836.377	779.2697	2296.2	1407.7
836.522	781.3426	2397.9	1492
836.667	783.4147	2450.15	1562.55
836.8121	785.4862	2404	1519.25
836.9571	787.557	2325.45	1438.15
837.1021	789.6271	2211.45	1324.45
837.2472	791.6966	2098.7	1210.8
837.3922	793.7654	2004.3	1116.75
837.5373	795.8335	1960.6	1071.45
837.6823	797.901	1932.55	1045.5
837.8274	799.9678	1929.95	1039.95
837.9724	802.0339	1933.95	1044.1
838.1175	804.0993	1940.1	1043.25
838.2626	806.1641	1915.85	1029.35
838.4076	808.2282	1885.85	998.5
838.5527	810.2916	1885.95	997
838.6978	812.3544	1878.95	993.1
838.8428	814.4164	1860	974.7
838.9879	816.4778	1872.6	982.9
839.133	818.5385	1885.35	993.1
839.2781	820.5986	1914.65	1025.05
839.4232	822.658	1965.95	1073.65
839.5682	824.7166	2016.95	1128.2
839.7133	826.7747	2104.7	1214.65
839.8584	828.832	2192.7	1304.05
840.0035	830.8886	2238.95	1347.4
840.1486	832.9446	2262.1	1371.8
840.2937	834.9999	2212.45	1319.75
840.4388	837.0545	2159.45	1263.1
840.5839	839.1085	2069.85	1176.15
840.729	841.1618	2018.25	1118.5
840.8741	843.2143	1962.35	1069.9
841.0192	845.2662	1923.05	1031.7
841.1643	847.3175	1907.5	1014.1
841.3095	849.368	1902.85	1010.6
841.4546	851.4179	1902.25	1010.8
841.5997	853.467	1900.4	1007.75
841.7448	855.5155	1900.5	1007.4
841.8899	857.5633	1908.4	1014.7
842.0351	859.6105	1905.15	1012.45
842.1802	861.6569	1881.95	989.1
842.3253	863.7027	1873.2	979.45
842.4704	865.7478	1866.5	972.2
842.6156	867.7922	1860.4	965.15
842.7607	869.8359	1848.95	952.4
842.9058	871.8789	1852.05	957.55
843.0509	873.9212	1879.65	953.7
843.1961	875.9629	1856.6	962.6
843.3412	878.0039	1861.05	966.1
843.4863	880.0441	1888.5	997.3
843.6315	882.0837	1899.7	1004.35
843.7766	884.1226	1921.25	1023.65
843.9218	886.1609	1956.85	1059.9
844.0669	888.1984	1996.9	1103.4
844.212	890.2352	2036.6	1141.15
844.3572	892.2714	2054.6	1155.05
844.5023	894.3069	2025.05	1126.85
844.6475	896.3416	1971.65	1072.95
844.7926	898.3757	1932.2	1039.3
844.9377	900.4091	1922.25	1023.45
845.0829	902.4418	1919.75	1017.3
845.228	904.4739	1935.7	1036.15
845.3732	906.5052	1940	1043.65
845.5183	908.5358	1935	1036.35
845.6635	910.5658	1918.45	1020.5
845.8086	912.595	1890.65	993.05
845.9538	914.6236	1850.35	953.2
846.0989	916.6515	1817.8	920
846.2441	918.6786	1801.45	902.05
846.3892	920.7051	1798.95	897.6
846.5344	922.7309	1797.9	898
846.6795	924.756	1785.75	888.2
846.8246	926.7804	1804.85	907.35
846.9698	928.8041	1820.65	921.85
847.1149	930.8272	1829.55	930.75
847.2601	932.8495	1843	945.5
847.4052	934.8711	1852.05	954.15
847.5504	936.892	1860.95	961.25
847.6955	938.9123	1876.05	973.2
847.8407	940.9318	1889.5	987.65
847.9858	942.9506	1903.6	1001.3
848.131	944.9688	1898.15	1001.4
848.2761	946.9862	1873.15	971.15
848.4213	949.003	1832.85	930.8
848.5664	951.019	1812.4	912.35
848.7115	953.0344	1798.6	898.6
848.8567	955.0491	1792.9	891.2
849.0018	957.063	1786.7	887.1
849.147	959.0763	1781.45	883.9
849.2921	961.0888	1777.05	876.45
849.4373	963.1007	1783.7	885.6
849.5824	965.1119	1780.15	886.2
849.7275	967.1223	1774.9	881.05
849.8727	969.1321	1761.8	865.8
850.0178	971.1412	1759.5	865.05
850.1629	973.1495	1755.65	860.4
850.3081	975.1572	1788.2	857.95
850.4532	977.1641	1761.25	859
850.5983	979.1704	1758.9	859.05
850.7435	981.1759	1752.6	848.9
850.8886	983.1808	1754.6	853.1
851.0337	985.1849	1756.45	842.9
851.1788	987.1884	1744.05	842.45
851.324	989.1911	1753.6	851.1
851.4691	991.1932	1748.8	846.35
851.6142	993.1945	1751.4	850.5
851.7593	995.1951	1742.05	841.6
851.9045	997.1951	1751.45	845.75
852.0496	999.1943	1748.65	849.1
852.1947	1001.1928	1753.55	853.25
852.3398	1003.1906	1755.4	854.15
852.4849	1005.1877	1782.35	879.9
852.63	1007.1841	1802.3	900.25
852.7751	1009.1798	1815.1	914.5
852.9202	1011.1748	1806.8	904.6
853.0653	1013.1691	1781.95	880.1
853.2104	1015.1627	1757.95	859.1
853.3555	1017.1556	1717.6	816.35
853.5006	1019.1477	1706.85	805.6
853.6457	1021.1392	1681.55	784.05
853.7908	1023.1299	1686.05	789.5
853.9359	1025.12	1681.05	787.05
854.081	1027.1093	1681.95	794.8
854.2261	1029.0979	1698.25	810.3
854.3712	1031.0859	1720.15	832.1
854.5163	1033.0731	1730.45	833.8
854.6613	1035.0596	1727	831.15
854.8064	1037.0454	1732.45	834.3
854.9515	1039.0304	1713.65	814.15
855.0965	1041.0148	1697.9	796.1
855.2416	1042.9985	1677.95	776.4
855.3867	1044.9814	1674.8	775.15
855.5317	1046.9636	1674.25	770.8
855.6768	1048.9452	1680.25	779.65
855.8219	1050.926	1697.5	797.1
855.9669	1052.9061	1707.3	807
856.112	1054.8855	1706.25	807.6
856.257	1056.8642	1706.2	804.95
856.4021	1058.8421	1707.9	802
856.5471	1060.8194	1708.4	806.05
856.6921	1062.7959	1704.8	802.45
856.8372	1064.7717	1704.75	800.25
856.9822	1066.7469	1704.9	800.95
857.1272	1068.7213	1705.8	801.4
857.2723	1070.695	1723.85	819.2
857.4173	1072.6679	1746.5	843.3
857.5623	1074.6402	1756.15	855.15
857.7073	1076.6117	1759.8	850.85
857.8523	1078.5826	1733.7	829.85
857.9973	1080.5527	1709.5	805.7
858.1423	1082.5221	1676.7	775.2
858.2873	1084.4908	1651.3	749.4
858.4323	1086.4587	1640.15	737.95
858.5773	1088.426	1637.35	731
858.7223	1090.3925	1634.3	725
858.8673	1092.3584	1638.45	738
859.0123	1094.3235	1654.7	752.8
859.1573	1096.2879	1672.35	769.2
859.3022	1098.2515	1695.9	793.65
859.4472	1100.2145	1719.9	818.25
859.5922	1102.1767	1750.35	845.8
859.7371	1104.1382	1786.55	889
859.8821	1106.099	1841.75	938.5
860.027	1108.0591	1880.95	978.85
860.172	1110.0185	1911.6	1008.25
860.3169	1111.9771	1946.35	1041.85
860.4619	1113.9351	2002.8	1099.6
860.6068	1115.8923	2040.15	1137.95
860.7517	1117.8488	2051.9	1142.7
860.8967	1119.8045	1999.85	1096.9
861.0416	1121.7596	1923.35	1022.9
861.1865	1123.7139	1836.85	934.95
861.3314	1125.6675	1792.9	891.25
861.4763	1127.6204	1794.2	891
861.6212	1129.5726	1796.95	892.05
861.7661	1131.524	1798.85	895.9
861.911	1133.4748	1763.9	862.9
862.0559	1135.4248	1715.65	812.45
862.2008	1137.3741	1667.55	764.85
862.3457	1139.3226	1655	750.5
862.4905	1141.2705	1650.6	747.2
862.6354	1143.2176	1658.7	750.65
862.7803	1145.164	1660.85	753.9
862.9251	1147.1097	1660	757
863.07	1149.0546	1638.1	732.25
863.2148	1150.9989	1621	719.85
863.3597	1152.9424	1610.55	705.45
863.5045	1154.8852	1587.65	684.1
863.6493	1156.8272	1592.55	690.75
863.7942	1158.7686	1593.6	685.95
863.939	1160.7092	1587.45	682.35
864.0838	1162.6491	1595.5	691.5
864.2286	1164.5883	1607.05	703.65
864.3734	1166.5267	1614.95	710.5
864.5182	1168.4644	1647.4	744.45
864.663	1170.4014	1673.5	767.45
864.8078	1172.3377	1711.1	810
864.9526	1174.2732	1757.3	855.6
865.0974	1176.2081	1848.45	945.4
865.2421	1178.1421	1962.15	1053.85
865.3869	1180.0755	2058.95	1156.25
865.5317	1182.0082	2092.8	1190.5
865.6764	1183.9401	2072.5	1172.55
865.8212	1185.8713	1969.55	1070.65
865.9659	1187.8017	1864.05	964.9
866.1106	1189.7315	1763.6	869.95
866.2554	1191.6605	1724.55	799.8
866.4001	1193.5888	1670.6	775.3
866.5448	1195.5163	1641.4	742.8
866.6895	1197.4432	1617	712.6
866.8342	1199.3693	1606.35	704.95
866.9789	1201.2947	1604.95	700.55
867.1236	1203.2193	1587.8	687.25
867.2683	1205.1432	1582.65	680.1
867.413	1207.0664	1587.55	683.45
867.5576	1208.9889	1586.5	680.95
867.7023	1210.9106	1589.8	686.6
867.847	1212.8316	1597.75	695.3
867.9916	1214.7519	1614.3	702.7
868.1363	1216.6715	1615.8	713.7
868.2809	1218.5903	1628.3	724.35
868.4255	1220.5084	1637.25	733.85
868.5701	1222.4257	1654.75	752.9
868.7148	1224.3424	1665.95	766.1
868.8594	1226.2583	1688.35	782.65
869.004	1228.1735	1720.85	818.05
869.1486	1230.0879	1747.35	844.2
869.2932	1232.0016	1788.8	885.5
869.4377	1233.9146	1822.5	914.45
869.5823	1235.8269	1838.95	936.3
869.7269	1237.7384	1842.2	938.55
869.8715	1239.6492	1842.35	941.65
870.016	1241.5592	1877.65	975
870.1606	1243.4686	1919.2	1016.45
870.3051	1245.3772	1984.25	1080.5
870.4496	1247.285	2056.4	1151.25
870.5941	1249.1922	2140.8	1235.9
870.7387	1251.0986	2211	1308.1
