Software Version:	3.9.2.0
Unit SN:	10000200
Spectrometer SN:	6960
Date:	3/8/2024 11:44:30 AM
Data Line Index:	25
Spectral Points:	2048
Integration time (ms):	125
Averages:	20
Delay (ms):	30000
Sequence Number:	1
Processing:	dark subtract
Laser Power (mW):	300
Laser Current (mA):	823
Laser Diode Temp (C):	25
Laser Case Temp (C):	25.3
System Temp (C):	25.2
Spectrometer Temp (C):	23.2
CCD Temp (C):	0.002
Secondary Temp (C):	20.006
Heatsink Temp (C):	19.749
CCDPCB Temp (C):	34.006
SecondaryPCB Temp (C):	27.492

Wavelength	RamanShift	Raw Counts	Dark Subtracted
787.061	30.1047	416.3	7.3
787.2016	32.3739	415.55	10.85
787.3422	34.6426	415.9	7.45
787.4828	36.9109	415.4	5.5
787.6235	39.1787	421.65	7.3
787.7642	41.4461	425.6	7.3
787.9049	43.7131	430.2	8.5
788.0456	45.9796	433.05	9
788.1863	48.2456	437.75	10.05
788.3271	50.5112	443.35	12.75
788.4679	52.7764	445.85	11.4
788.6087	55.0411	451.75	10.1
788.7496	57.3054	457.85	12.75
788.8904	59.5692	457.5	10.6
789.0313	61.8326	462.6	13.7
789.1722	64.0955	470.25	16.5
789.3132	66.3579	474.85	17.5
789.4541	68.6199	480.55	20.2
789.5951	70.8815	491.35	26.45
789.7361	73.1426	510.2	39.6
789.8771	75.4032	539.5	67.2
790.0181	77.6634	611.05	134.05
790.1592	79.9231	778.75	298.8
790.3003	82.1824	1129.3	639.65
790.4414	84.4412	1701.05	1196.35
790.5825	86.6995	2426	1909.3
790.7237	88.9574	3124.35	2589.6
790.8648	91.2148	3577.15	3034.95
791.006	93.4717	3777.55	3229.05
791.1472	95.7282	3802.4	3248.6
791.2885	97.9842	3774.65	3216.4
791.4297	100.2398	3716.5	3155.95
791.571	102.4949	3663.1	3099.45
791.7123	104.7495	3634.5	3068.4
791.8536	107.0036	3581	3014.05
791.9949	109.2573	3503.6	2938.6
792.1363	111.5105	3409.8	2841.4
792.2777	113.7632	3295.2	2725.5
792.4191	116.0154	3206.3	2623.5
792.5605	118.2672	3093.75	2519.05
792.7019	120.5185	2971.8	2393.35
792.8434	122.7693	2887.35	2306.4
792.9849	125.0197	2811.25	2225.8
793.1264	127.2696	2729.5	2143.7
793.2679	129.519	2693.4	2100.85
793.4094	131.7679	2656.05	2059.45
793.551	134.0163	2632.2	2036.15
793.6926	136.2642	2637.55	2040.4
793.8342	138.5117	2619.2	2015.45
793.9758	140.7587	2579.8	1977.6
794.1175	143.0052	2532.75	1926.6
794.2591	145.2512	2474.6	1869
794.4008	147.4967	2427.3	1817.55
794.5425	149.7417	2391.45	1781.5
794.6842	151.9863	2367.2	1752.65
794.826	154.2304	2361.65	1743.25
794.9677	156.4739	2359.8	1735.4
795.1095	158.717	2364.25	1739.8
795.2513	160.9596	2392.05	1761.45
795.3931	163.2017	2418.9	1783.05
795.535	165.4433	2426.85	1792.1
795.6768	167.6844	2413.85	1779.8
795.8187	169.925	2373.4	1735.35
795.9606	172.1651	2322.5	1680.1
796.1025	174.4047	2275.7	1629.1
796.2445	176.6439	2240.8	1592.9
796.3864	178.8825	2218.15	1571.25
796.5284	181.1206	2192.6	1536.15
796.6704	183.3582	2186.7	1527.55
796.8124	185.5954	2190.7	1531.75
796.9544	187.832	2185.1	1521.6
797.0965	190.0681	2196.05	1528.6
797.2386	192.3037	2196.3	1523.25
797.3806	194.5388	2203.2	1529.25
797.5228	196.7734	2210.8	1534.85
797.6649	199.0075	2218.65	1541.4
797.807	201.2411	2243.3	1569.1
797.9492	203.4742	2258.3	1581.35
798.0914	205.7068	2295.6	1612.4
798.2336	207.9389	2323.65	1638.2
798.3758	210.1704	2330.85	1652.9
798.518	212.4015	2321.65	1653.15
798.6603	214.632	2306.75	1644.2
798.8025	216.862	2320.05	1656.05
798.9448	219.0915	2336.35	1673.95
799.0871	221.3205	2336.9	1671.1
799.2294	223.549	2352.55	1691.8
799.3718	225.777	2339.95	1679.3
799.5141	228.0044	2336.55	1666.9
799.6565	230.2314	2325.65	1655.95
799.7989	232.4578	2311.4	1639.55
799.9413	234.6837	2319.05	1634.7
800.0837	236.909	2298.35	1612.15
800.2262	239.1339	2319.65	1611.1
800.3687	241.3582	2296.4	1601.45
800.5111	243.582	2311	1588.15
800.6536	245.8053	2305.95	1595.5
800.7961	248.0281	2312.85	1605.65
800.9387	250.2503	2341.65	1630.3
801.0812	252.472	2333.85	1619.55
801.2238	254.6932	2345.9	1636.05
801.3664	256.9139	2349	1636.35
801.509	259.134	2372.4	1653.5
801.6516	261.3536	2409.95	1696.9
801.7942	263.5727	2440.1	1721.4
801.9369	265.7912	2490.5	1772.25
802.0795	268.0092	2537.05	1818.35
802.2222	270.2267	2596.5	1878.45
802.3649	272.4436	2649.9	1931.35
802.5076	274.6601	2696.6	1967.75
802.6504	276.8759	2706.3	1978.55
802.7931	279.0913	2730.3	2006.4
802.9359	281.3061	2758.35	2030.7
803.0787	283.5204	2758.7	2029.45
803.2215	285.7341	2788.4	2054.4
803.3643	287.9473	2810.35	2073.65
803.5071	290.16	2797.6	2058.3
803.6499	292.3721	2763.7	2033.1
803.7928	294.5837	2747.5	2013.3
803.9357	296.7947	2716.35	1982.5
804.0786	299.0052	2696.3	1966.15
804.2215	301.2152	2685.9	1951.35
804.3644	303.4246	2669.2	1936.5
804.5074	305.6334	2653.5	1920.35
804.6503	307.8418	2614.45	1875.6
804.7933	310.0495	2609.9	1868.7
804.9363	312.2568	2571.05	1832.4
805.0793	314.4635	2521.55	1780.1
805.2223	316.6696	2471.25	1726.4
805.3653	318.8752	2421	1667.5
805.5084	321.0802	2391.4	1643.3
805.6514	323.2847	2391.75	1644.9
805.7945	325.4887	2405.35	1655.05
805.9376	327.692	2418.55	1667.35
806.0807	329.8949	2467.5	1714.65
806.2238	332.0972	2498.3	1744.3
806.367	334.2989	2528.6	1768.95
806.5101	336.5001	2517.6	1761.4
806.6533	338.7007	2480.1	1721.6
806.7965	340.9008	2430.2	1670
806.9397	343.1003	2382.65	1621.35
807.0829	345.2992	2341	1578.5
807.2261	347.4976	2296.05	1532.7
807.3693	349.6955	2274.6	1510.7
807.5126	351.8927	2249.15	1483.65
807.6559	354.0895	2241.75	1462.7
807.7991	356.2856	2232.15	1462.65
807.9424	358.4812	2206.65	1438.7
808.0857	360.6763	2217.7	1444.85
808.2291	362.8707	2204.4	1429.75
808.3724	365.0646	2209.35	1430.8
808.5158	367.258	2225.35	1447.9
808.6591	369.4508	2238.5	1457.65
808.8025	371.643	2270.05	1492.2
808.9459	373.8346	2302.6	1520.45
809.0893	376.0257	2335.75	1549.4
809.2327	378.2162	2360.75	1573.85
809.3762	380.4062	2365.85	1578.5
809.5196	382.5956	2346.2	1559.35
809.6631	384.7844	2300.35	1520.5
809.8066	386.9726	2257.35	1480.3
809.9501	389.1603	2235.5	1458.15
810.0936	391.3474	2247.2	1434.45
810.2371	393.5339	2235.55	1458.05
810.3806	395.7199	2228.65	1450.1
810.5241	397.9052	2272.1	1493.6
810.6677	400.09	2292.45	1514.15
810.8113	402.2743	2344.8	1566.35
810.9548	404.4579	2384.55	1604.5
811.0984	406.641	2432.85	1648.45
811.2421	408.8235	2473.15	1689.7
811.3857	411.0054	2518.75	1732.5
811.5293	413.1868	2580.05	1788.15
811.673	415.3675	2637.6	1844.85
811.8166	417.5477	2624.4	1829.5
811.9603	419.7273	2552.6	1755.4
812.104	421.9064	2494.5	1693.2
812.2477	424.0848	2422.6	1625.35
812.3914	426.2627	2357.15	1562.05
812.5351	428.4399	2300.65	1503.25
812.6788	430.6166	2246.75	1445.05
812.8226	432.7928	2200.25	1393
812.9663	434.9683	2159.7	1354.25
813.1101	437.1432	2134.15	1329.3
813.2539	439.3176	2125.1	1326.2
813.3977	441.4914	2093.45	1294.65
813.5415	443.6645	2101.15	1297.25
813.6853	445.8371	2102.6	1298.65
813.8291	448.0091	2094.95	1288.2
813.973	450.1806	2095	1290.3
814.1168	452.3514	2098.8	1291
814.2607	454.5216	2101.4	1287.5
814.4046	456.6913	2082	1271.55
814.5485	458.8603	2099.4	1290.85
814.6924	461.0288	2105.3	1298.7
814.8363	463.1967	2088.5	1284.65
814.9802	465.3639	2098.15	1288.8
815.1241	467.5306	2094.4	1285.85
815.2681	469.6967	2088.15	1279.45
815.412	471.8622	2070.7	1263.2
815.556	474.0271	2067.65	1259.9
815.7	476.1914	2073	1259.2
815.844	478.3551	2069.8	1261.65
815.988	480.5182	2065.9	1255
816.132	482.6807	2071.55	1260.55
816.276	484.8426	2099.55	1291.85
816.4201	487.0039	2144.65	1334.4
816.5641	489.1647	2199.3	1385.95
816.7082	491.3248	2235.2	1421.3
816.8522	493.4843	2255.8	1443.3
816.9963	495.6432	2249.6	1436.35
817.1404	497.8015	2216.6	1399.85
817.2845	499.9592	2180	1361.9
817.4286	502.1163	2129.05	1309.5
817.5727	504.2728	2084.3	1265
817.7168	506.4287	2064.6	1250.15
817.861	508.5839	2034.75	1219.9
818.0051	510.7386	2025.1	1207.65
818.1493	512.8927	2041.7	1215
818.2935	515.0461	2034.55	1211.65
818.4377	517.199	2059.55	1235.65
818.5818	519.3512	2113.45	1290.65
818.726	521.5029	2177.8	1349.65
818.8703	523.6539	2219.75	1396.55
819.0145	525.8043	2231.85	1407.15
819.1587	527.9541	2174.55	1345.65
819.303	530.1033	2105.6	1279.9
819.4472	532.2519	2071.85	1245.75
819.5915	534.3999	2038.95	1209.55
819.7357	536.5472	2036.2	1207.9
819.88	538.694	2039.15	1211.9
820.0243	540.8401	2059.6	1232.65
820.1686	542.9856	2066.3	1234.65
820.3129	545.1305	2082.2	1247.1
820.4572	547.2748	2112	1273.85
820.6016	549.4185	2106.95	1267.35
820.7459	551.5615	2119.45	1284
820.8902	553.704	2134.45	1298.45
821.0346	555.8458	2150.25	1314.2
821.1789	557.987	2166.35	1329.35
821.3233	560.1276	2200.3	1362.85
821.4677	562.2675	2258.05	1424.35
821.6121	564.4069	2319.6	1485.05
821.7565	566.5456	2363.65	1533.05
821.9009	568.6837	2345.05	1508.65
822.0453	570.8212	2270.4	1438.4
822.1897	572.958	2198.45	1361.65
822.3342	575.0942	2139.75	1307.65
822.4786	577.2299	2102.85	1270.35
822.6231	579.3648	2076.6	1248.65
822.7675	581.4992	2050.7	1224.95
822.912	583.6329	2059.95	1234.2
823.0565	585.766	2092.7	1264.3
823.201	587.8985	2140.7	1310.8
823.3454	590.0304	2186.9	1340.8
823.4899	592.1616	2214.6	1375.25
823.6345	594.2922	2205.7	1366.1
823.779	596.4222	2175.3	1333.9
823.9235	598.5515	2120.8	1279.9
824.068	600.6802	2063.1	1222.85
824.2126	602.8083	2021.45	1182.3
824.3571	604.9358	2011.7	1169.65
824.5017	607.0626	2019.6	1174.95
824.6462	609.1888	2015.75	1169
824.7908	611.3144	2049.5	1204.6
824.9354	613.4393	2089.8	1244.75
825.08	615.5636	2144.55	1297.85
825.2246	617.6873	2184.45	1340.2
825.3692	619.8103	2226.95	1380
825.5138	621.9327	2210.4	1363.75
825.6584	624.0544	2181.05	1339.25
825.803	626.1756	2119	1275
825.9477	628.2961	2074.3	1228.35
826.0923	630.4159	2042.45	1195.35
826.237	632.5351	2046.25	1195.8
826.3816	634.6537	2033.85	1184.7
826.5263	636.7716	2017.2	1166
826.6709	638.8889	2014.9	1164.2
826.8156	641.0056	2021.65	1171.1
826.9603	643.1216	2026.35	1173.2
827.105	645.237	2032.65	1181
827.2497	647.3518	2018.05	1169
827.3944	649.4659	1978.85	1130.75
827.5391	651.5793	1976.1	1129.55
827.6838	653.6922	1955.85	1106.2
827.8285	655.8043	1946.8	1098
827.9733	657.9159	1942.7	1094.85
828.118	660.0268	1917.95	1068
828.2627	662.137	1927.1	1077.2
828.4075	664.2466	1927.95	1074.4
828.5522	666.3556	1923.9	1069.55
828.697	668.4639	1914.05	1059.55
828.8418	670.5716	1912.65	1063.45
828.9865	672.6786	1911.6	1055.4
829.1313	674.785	1901.75	1042.95
829.2761	676.8907	1891.35	1039.2
829.4209	678.9958	1887.95	1034.6
829.5657	681.1002	1887.05	1032.5
829.7105	683.204	1902.95	1039.85
829.8553	685.3072	1897.45	1039.5
830.0001	687.4097	1893.95	1036.95
830.1449	689.5115	1899.3	1041.7
830.2898	691.6127	1887.5	1034.1
830.4346	693.7132	1893.7	1038.1
830.5794	695.8131	1903.85	1027.55
830.7243	697.9123	1902.6	1041.55
830.8691	700.0109	1893.2	1033.05
831.014	702.1089	1915.7	1057.95
831.1588	704.2061	1922.35	1061.5
831.3037	706.3028	1953.55	1091.25
831.4486	708.3987	1973.7	1112.55
831.5935	710.4941	1984.15	1125.1
831.7383	712.5887	1983.9	1120.75
831.8832	714.6827	1987.8	1123.7
832.0281	716.7761	1977.8	1116.95
832.173	718.8688	1973	1112.05
832.3179	720.9608	1980.25	1115.2
832.4628	723.0522	1995.95	1130.9
832.6077	725.1429	2012.45	1149.05
832.7527	727.233	2063.7	1201.6
832.8976	729.3224	2128.05	1265.1
833.0425	731.4112	2172.9	1309.55
833.1874	733.4993	2176.4	1310.25
833.3324	735.5867	2116.4	1250.55
833.4773	737.6735	2058.25	1192.7
833.6222	739.7596	2004.05	1137.9
833.7672	741.845	1967.8	1102.5
833.9122	743.9298	1966.85	1099.25
834.0571	746.014	1970.45	1106.05
834.2021	748.0974	1976.45	1106.8
834.347	750.1802	1984.85	1117.4
834.492	752.2624	1967.25	1102.5
834.637	754.3439	1970.55	1101.4
834.782	756.4247	1963.85	1086.35
834.9269	758.5048	1962.3	1096.15
835.0719	760.5843	1987.75	1119.75
835.2169	762.6631	2019.05	1149
835.3619	764.7413	2081.4	1212.9
835.5069	766.8188	2166.2	1295.8
835.6519	768.8956	2250.35	1379.2
835.7969	770.9718	2296.8	1424.7
835.9419	773.0473	2288.1	1422.6
836.0869	775.1221	2271.5	1401.6
836.232	777.1962	2251.25	1382
836.377	779.2697	2304.4	1433.8
836.522	781.3426	2418.9	1531.85
836.667	783.4147	2469.55	1598.85
836.8121	785.4862	2444.3	1573.3
836.9571	787.557	2349.95	1476.45
837.1021	789.6271	2222.55	1351.1
837.2472	791.6966	2101.8	1229.35
837.3922	793.7654	2008.35	1136.75
837.5373	795.8335	1945.95	1073.5
837.6823	797.901	1917.25	1045.3
837.8274	799.9678	1917.85	1042.15
837.9724	802.0339	1920.8	1048.8
838.1175	804.0993	1934.3	1052.95
838.2626	806.1641	1913.8	1040.45
838.4076	808.2282	1886.65	1014
838.5527	810.2916	1875.2	999.25
838.6978	812.3544	1855.4	982.4
838.8428	814.4164	1837.35	966.15
838.9879	816.4778	1861.5	984.65
839.133	818.5385	1868.65	992.8
839.2781	820.5986	1906.15	1029.7
839.4232	822.658	1948.9	1071.35
839.5682	824.7166	2020.5	1147.25
839.7133	826.7747	2104.95	1232.5
839.8584	828.832	2197.95	1322.1
840.0035	830.8886	2255.65	1379.35
840.1486	832.9446	2270.95	1391.5
840.2937	834.9999	2236.6	1363.6
840.4388	837.0545	2157	1279.3
840.5839	839.1085	2088.45	1211.8
840.729	841.1618	2004.7	1122.65
840.8741	843.2143	1949.8	1075.4
841.0192	845.2662	1909.75	1033.55
841.1643	847.3175	1895.2	1018.25
841.3095	849.368	1892.75	1014.7
841.4546	851.4179	1891.45	1015.5
841.5997	853.467	1881.6	1005.25
841.7448	855.5155	1893.25	1016.8
841.8899	857.5633	1898.3	1021.55
842.0351	859.6105	1880.7	1003.45
842.1802	861.6569	1885.1	1007.85
842.3253	863.7027	1854.15	975.55
842.4704	865.7478	1853.5	972.6
842.6156	867.7922	1847.35	968.75
842.7607	869.8359	1833.95	955.45
842.9058	871.8789	1828.1	950.95
843.0509	873.9212	1866.95	958.95
843.1961	875.9629	1841.7	960.75
843.3412	878.0039	1853.8	973.6
843.4863	880.0441	1868.95	991.75
843.6315	882.0837	1886.3	1005.7
843.7766	884.1226	1916.85	1035.7
843.9218	886.1609	1945.2	1067.15
844.0669	888.1984	2000.3	1122.55
844.212	890.2352	2043.25	1163.55
844.3572	892.2714	2046.75	1166.05
844.5023	894.3069	2025.8	1147.1
844.6475	896.3416	1973.15	1092.35
844.7926	898.3757	1914.95	1036
844.9377	900.4091	1903.65	1021.5
845.0829	902.4418	1916.35	1028.05
845.228	904.4739	1920.25	1037.75
845.3732	906.5052	1939.3	1055.85
845.5183	908.5358	1932.65	1051.2
845.6635	910.5658	1910.55	1025.5
845.8086	912.595	1881.85	998.65
845.9538	914.6236	1841.85	959.8
846.0989	916.6515	1811.95	930.3
846.2441	918.6786	1789.25	905.5
846.3892	920.7051	1786.55	902.2
846.5344	922.7309	1781.05	897
846.6795	924.756	1778.65	896.6
846.8246	926.7804	1800.2	916.8
846.9698	928.8041	1800.95	918.65
847.1149	930.8272	1826.85	943.95
847.2601	932.8495	1828.65	944.15
847.4052	934.8711	1838.8	952.55
847.5504	936.892	1837.4	950.8
847.6955	938.9123	1872.15	988.6
847.8407	940.9318	1889.45	1007.5
847.9858	942.9506	1904.85	1021.25
848.131	944.9688	1888.75	1004.55
848.2761	946.9862	1861.8	977.65
848.4213	949.003	1838.9	955.1
848.5664	951.019	1803.7	916.6
848.7115	953.0344	1791.35	903.9
848.8567	955.0491	1784.65	899.4
849.0018	957.063	1776.75	892.05
849.147	959.0763	1779.8	896.2
849.2921	961.0888	1770.75	883.4
849.4373	963.1007	1777.05	893.85
849.5824	965.1119	1765.85	883.6
849.7275	967.1223	1757.55	877.35
849.8727	969.1321	1762.75	880.7
850.0178	971.1412	1751.05	867.25
850.1629	973.1495	1741.6	859.05
850.3081	975.1572	1770.65	854.35
850.4532	977.1641	1752.9	866.5
850.5983	979.1704	1736.75	852.3
850.7435	981.1759	1748.2	860.3
850.8886	983.1808	1736.05	846.3
851.0337	985.1849	1753.5	855.85
851.1788	987.1884	1726.4	836.5
851.324	989.1911	1734.6	847.4
851.4691	991.1932	1744.4	857.65
851.6142	993.1945	1740.05	855.85
851.7593	995.1951	1745.45	856.1
851.9045	997.1951	1748.55	858.95
852.0496	999.1943	1728.75	841.7
852.1947	1001.1928	1739.45	851.9
852.3398	1003.1906	1748.5	863.3
852.4849	1005.1877	1774.4	885.5
852.63	1007.1841	1793.75	907.35
852.7751	1009.1798	1808	921.35
852.9202	1011.1748	1800.05	914.5
853.0653	1013.1691	1776.35	887.5
853.2104	1015.1627	1751.7	864.65
853.3555	1017.1556	1708.85	822.8
853.5006	1019.1477	1698.75	812.3
853.6457	1021.1392	1671.25	787.75
853.7908	1023.1299	1664.5	781.7
853.9359	1025.12	1673.7	791.05
854.081	1027.1093	1670.95	792.45
854.2261	1029.0979	1695.9	818.4
854.3712	1031.0859	1712.95	832.55
854.5163	1033.0731	1732.5	848
854.6613	1035.0596	1728.65	843.75
854.8064	1037.0454	1723.55	838.75
854.9515	1039.0304	1697.85	809.7
855.0965	1041.0148	1686.35	801.15
855.2416	1042.9985	1669.95	778.2
855.3867	1044.9814	1666	781.4
855.5317	1046.9636	1658.2	768.9
855.6768	1048.9452	1663.45	777.45
855.8219	1050.926	1679.9	792.35
855.9669	1052.9061	1690	803.05
856.112	1054.8855	1701.9	813.7
856.257	1056.8642	1694.4	808.05
856.4021	1058.8421	1697.8	805.85
856.5471	1060.8194	1693.9	804.85
856.6921	1062.7959	1689.1	800.9
856.8372	1064.7717	1691.55	801.6
856.9822	1066.7469	1693.9	803.25
857.1272	1068.7213	1695.15	803.75
857.2723	1070.695	1709.7	823.45
857.4173	1072.6679	1738.6	849.9
857.5623	1074.6402	1759.05	873.05
857.7073	1076.6117	1758.65	864.3
857.8523	1078.5826	1734.2	843.6
857.9973	1080.5527	1706.15	815.8
858.1423	1082.5221	1665.6	774.85
858.2873	1084.4908	1650.85	760.05
858.4323	1086.4587	1629.7	739.45
858.5773	1088.426	1626.7	735.4
858.7223	1090.3925	1628.6	732.75
858.8673	1092.3584	1630.95	740.7
859.0123	1094.3235	1638.85	752.7
859.1573	1096.2879	1648.35	757.75
859.3022	1098.2515	1671	782.35
859.4472	1100.2145	1708.75	818.25
859.5922	1102.1767	1742.7	850.85
859.7371	1104.1382	1786.5	896.75
859.8821	1106.099	1840.55	950.1
860.027	1108.0591	1878.2	989.1
860.172	1110.0185	1925.2	1033.95
860.3169	1111.9771	1959.95	1071.15
860.4619	1113.9351	2009.1	1117.8
860.6068	1115.8923	2061.4	1172.8
860.7517	1117.8488	2088.55	1197.45
860.8967	1119.8045	2028.15	1138.75
861.0416	1121.7596	1932.7	1041.9
861.1865	1123.7139	1837.75	949.95
861.3314	1125.6675	1793.15	905.35
861.4763	1127.6204	1791.65	900.25
861.6212	1129.5726	1812.1	920.2
861.7661	1131.524	1813.3	922.75
861.911	1133.4748	1764.35	875.2
862.0559	1135.4248	1703.55	813.65
862.2008	1137.3741	1665.1	775.35
862.3457	1139.3226	1640.6	748.4
862.4905	1141.2705	1636.6	745.6
862.6354	1143.2176	1651.75	755.9
862.7803	1145.164	1665.95	775.7
862.9251	1147.1097	1650.65	759.25
863.07	1149.0546	1629.65	738.8
863.2148	1150.9989	1609.7	719.45
863.3597	1152.9424	1589.2	698.85
863.5045	1154.8852	1574.65	683.6
863.6493	1156.8272	1568.95	677.7
863.7942	1158.7686	1574.3	677.75
863.939	1160.7092	1579.2	687.05
864.0838	1162.6491	1576.9	682.75
864.2286	1164.5883	1597.25	705
864.3734	1166.5267	1610.35	717.6
864.5182	1168.4644	1634.45	743.1
864.663	1170.4014	1668.55	772.95
864.8078	1172.3377	1704.6	816.4
864.9526	1174.2732	1755.7	866.3
865.0974	1176.2081	1854.15	963.9
865.2421	1178.1421	1976.25	1084.15
865.3869	1180.0755	2080.5	1189.65
865.5317	1182.0082	2136.45	1246.05
865.6764	1183.9401	2100.25	1207.6
865.8212	1185.8713	1999.8	1110.5
865.9659	1187.8017	1875.45	990.85
866.1106	1189.7315	1769.05	885.25
866.2554	1191.6605	1723.45	811
866.4001	1193.5888	1663.75	778.25
866.5448	1195.5163	1637.1	748.45
866.6895	1197.4432	1613.55	722.2
866.8342	1199.3693	1595.55	705.05
866.9789	1201.2947	1588.25	692.55
867.1236	1203.2193	1577.3	687.55
867.2683	1205.1432	1575.15	682.6
867.413	1207.0664	1576.95	685.1
867.5576	1208.9889	1581.9	687
867.7023	1210.9106	1581.1	691.15
867.847	1212.8316	1581.35	692.1
867.9916	1214.7519	1607.4	708.2
868.1363	1216.6715	1609.35	717.6
868.2809	1218.5903	1626.6	735.35
868.4255	1220.5084	1632.45	740.7
868.5701	1222.4257	1645	754.6
868.7148	1224.3424	1652.85	763.35
868.8594	1226.2583	1678.15	784.85
869.004	1228.1735	1707.05	815.35
869.1486	1230.0879	1739.7	847.1
869.2932	1232.0016	1789.5	897.35
869.4377	1233.9146	1817.3	924.1
869.5823	1235.8269	1845.15	954.85
869.7269	1237.7384	1855.65	962.7
869.8715	1239.6492	1845.1	952.85
870.016	1241.5592	1869.8	975.75
870.1606	1243.4686	1914.1	1025
870.3051	1245.3772	1987.65	1097.65
870.4496	1247.285	2066.35	1173.05
870.5941	1249.1922	2147.9	1256.3
