Software Version:	3.9.2.0
Unit SN:	10000200
Spectrometer SN:	6960
Date:	3/8/2024 11:17:24 AM
Data Line Index:	25
Spectral Points:	2048
Integration time (ms):	125
Averages:	20
Delay (ms):	30000
Sequence Number:	1
Processing:	dark subtract
Laser Power (mW):	305
Laser Current (mA):	822
Laser Diode Temp (C):	25.1
Laser Case Temp (C):	24.7
System Temp (C):	24.6
Spectrometer Temp (C):	22.6
CCD Temp (C):	0.005
Secondary Temp (C):	20.007
Heatsink Temp (C):	19.53
CCDPCB Temp (C):	32.728
SecondaryPCB Temp (C):	26.48

Wavelength	RamanShift	Raw Counts	Dark Subtracted
787.061	30.1047	419.05	6.9
787.2016	32.3739	416.3	8.7
787.3422	34.6426	419.6	10.35
787.4828	36.9109	423.65	12.75
787.6235	39.1787	426.75	12.35
787.7642	41.4461	432.05	13.05
787.9049	43.7131	435.95	14.5
788.0456	45.9796	440.7	15.7
788.1863	48.2456	444.25	15.55
788.3271	50.5112	449.1	16.05
788.4679	52.7764	455.4	18.65
788.6087	55.0411	459.25	18.5
788.7496	57.3054	466.6	20.75
788.8904	59.5692	469	21.5
789.0313	61.8326	472.75	25.45
789.1722	64.0955	476.5	23.9
789.3132	66.3579	486.65	29.5
789.4541	68.6199	493.2	32.05
789.5951	70.8815	507.25	41.85
789.7361	73.1426	528.85	61.45
789.8771	75.4032	577.55	106.15
790.0181	77.6634	697.7	221.75
790.1592	79.9231	967.55	488.65
790.3003	82.1824	1539.55	1053.35
790.4414	84.4412	2459.05	1963
790.5825	86.6995	3642.2	3134.45
790.7237	88.9574	4776.85	4258.8
790.8648	91.2148	5558	5031.55
791.006	93.4717	5907.1	5375.8
791.1472	95.7282	5970.05	5437.9
791.2885	97.9842	5928.05	5394.1
791.4297	100.2398	5862.05	5323.4
791.571	102.4949	5783.9	5243.65
791.7123	104.7495	5721.95	5176.7
791.8536	107.0036	5639.55	5092.9
791.9949	109.2573	5544	5001.7
792.1363	111.5105	5413.7	4868.85
792.2777	113.7632	5255.2	4706.5
792.4191	116.0154	5117.45	4558.3
792.5605	118.2672	4932.65	4377.35
792.7019	120.5185	4776.85	4219.7
792.8434	122.7693	4595.95	4038.45
792.9849	125.0197	4441.5	3878.95
793.1264	127.2696	4296.85	3728.45
793.2679	129.519	4223.55	3653.8
793.4094	131.7679	4154.15	3580.9
793.551	134.0163	4125.55	3550.8
793.6926	136.2642	4113.9	3534
793.8342	138.5117	4092.75	3511.8
793.9758	140.7587	4056.2	3474.15
794.1175	143.0052	4002.7	3418.8
794.2591	145.2512	3930.6	3344.8
794.4008	147.4967	3818.4	3228.35
794.5425	149.7417	3738.75	3149.25
794.6842	151.9863	3691.3	3095.45
794.826	154.2304	3655.75	3057.35
794.9677	156.4739	3654.6	3050.35
795.1095	158.717	3672.5	3066.15
795.2513	160.9596	3721.35	3111.65
795.3931	163.2017	3759.2	3147.4
795.535	165.4433	3785.1	3173.4
795.6768	167.6844	3801.05	3186.95
795.8187	169.925	3770.35	3153.65
795.9606	172.1651	3680.1	3058.1
796.1025	174.4047	3608.75	2982.9
796.2445	176.6439	3518.25	2890.65
796.3864	178.8825	3459.9	2829.45
796.5284	181.1206	3441.35	2806.4
796.6704	183.3582	3424.15	2784.9
796.8124	185.5954	3392.85	2752.75
796.9544	187.832	3395.55	2750
797.0965	190.0681	3404.95	2757.25
797.2386	192.3037	3406.35	2758.4
797.3806	194.5388	3422.85	2769.85
797.5228	196.7734	3436.05	2782.1
797.6649	199.0075	3459.5	2807.75
797.807	201.2411	3501.8	2846.35
797.9492	203.4742	3533.4	2874.8
798.0914	205.7068	3582.3	2920.2
798.2336	207.9389	3598.65	2935.35
798.3758	210.1704	3629.45	2976.35
798.518	212.4015	3627.7	2983.15
798.6603	214.632	3633.1	2994.2
798.8025	216.862	3650.25	3011.05
798.9448	219.0915	3642.8	3000.25
799.0871	221.3205	3676.75	3033.5
799.2294	223.549	3692.3	3049.1
799.3718	225.777	3716	3072.7
799.5141	228.0044	3700.85	3052.1
799.6565	230.2314	3694.5	3041.4
799.7989	232.4578	3670.05	3016.45
799.9413	234.6837	3642.55	2977.05
800.0837	236.909	3624.95	2959.85
800.2262	239.1339	3618.75	2927.4
800.3687	241.3582	3598.55	2922.8
800.5111	243.582	3598.8	2894.55
800.6536	245.8053	3617.4	2924.25
800.7961	248.0281	3616.65	2929.85
800.9387	250.2503	3627.65	2937.95
801.0812	252.472	3636.75	2944.85
801.2238	254.6932	3652.55	2960.05
801.3664	256.9139	3660.8	2968.05
801.509	259.134	3674.95	2975.85
801.6516	261.3536	3709.95	3014.8
801.7942	263.5727	3773.1	3076.5
801.9369	265.7912	3848.7	3152.05
802.0795	268.0092	3955.7	3257.3
802.2222	270.2267	4062.45	3364.45
802.3649	272.4436	4140.15	3438.55
802.5076	274.6601	4202.9	3492.15
802.6504	276.8759	4237.55	3532.15
802.7931	279.0913	4298	3588.5
802.9359	281.3061	4317.6	3608.5
803.0787	283.5204	4354.15	3642.7
803.2215	285.7341	4397.85	3683.15
803.3643	287.9473	4437.75	3723.1
803.5071	290.16	4433.8	3717.15
803.6499	292.3721	4364.15	3652.2
803.7928	294.5837	4293.9	3583.65
803.9357	296.7947	4214.05	3500.65
804.0786	299.0052	4199.25	3487.9
804.2215	301.2152	4165.45	3449.7
804.3644	303.4246	4155.85	3441.75
804.5074	305.6334	4124.5	3411.3
804.6503	307.8418	4109.7	3390.2
804.7933	310.0495	4056.8	3334.55
804.9363	312.2568	3994.8	3279.2
805.0793	314.4635	3937.4	3213.35
805.2223	316.6696	3848.05	3121.95
805.3653	318.8752	3769.9	3035.85
805.5084	321.0802	3715.8	2989.5
805.6514	323.2847	3696.15	2967.5
805.7945	325.4887	3695.1	2968.4
805.9376	327.692	3734.8	3004.35
806.0807	329.8949	3814.1	3081.85
806.2238	332.0972	3893.35	3159.4
806.367	334.2989	3961.85	3224.05
806.5101	336.5001	3967	3229.55
806.6533	338.7007	3925.3	3189.4
806.7965	340.9008	3842.35	3102.2
806.9397	343.1003	3735.05	2992.45
807.0829	345.2992	3631.7	2890.5
807.2261	347.4976	3556.75	2809.4
807.3693	349.6955	3480.75	2730.85
807.5126	351.8927	3461.35	2713.4
807.6559	354.0895	3437.4	2676.85
807.7991	356.2856	3390.9	2640.8
807.9424	358.4812	3395	2643.2
808.0857	360.6763	3378.15	2626.2
808.2291	362.8707	3358.65	2601.8
808.3724	365.0646	3363.5	2605
808.5158	367.258	3382.2	2622
808.6591	369.4508	3409.2	2644.9
808.8025	371.643	3464.75	2699.75
808.9459	373.8346	3495.9	2733.2
809.0893	376.0257	3579.05	2811.35
809.2327	378.2162	3616.45	2851.7
809.3762	380.4062	3650.45	2884.3
809.5196	382.5956	3620.6	2853.8
809.6631	384.7844	3558.9	2800.65
809.8066	386.9726	3457.25	2698.25
809.9501	389.1603	3407.2	2649.05
810.0936	391.3474	3403.6	2602.55
810.2371	393.5339	3369.15	2609.95
810.3806	395.7199	3361.1	2602.25
810.5241	397.9052	3438.1	2676.35
810.6677	400.09	3503.65	2741.3
810.8113	402.2743	3585.65	2824.15
810.9548	404.4579	3646.7	2883.55
811.0984	406.641	3719.15	2952.9
811.2421	408.8235	3796.9	3027.35
811.3857	411.0054	3871.2	3099.35
811.5293	413.1868	3933.15	3158.2
811.673	415.3675	3977.55	3201.6
811.8166	417.5477	3966.05	3187.1
811.9603	419.7273	3897	3114.45
812.104	421.9064	3814.35	3027.55
812.2477	424.0848	3727.35	2945.75
812.3914	426.2627	3607.9	2826
812.5351	428.4399	3492.3	2711.35
812.6788	430.6166	3390.4	2607.4
812.8226	432.7928	3337.9	2551.4
812.9663	434.9683	3258.45	2470
813.1101	437.1432	3209.95	2420
813.2539	439.3176	3180.7	2392.55
813.3977	441.4914	3152.95	2367.75
813.5415	443.6645	3155.05	2366.15
813.6853	445.8371	3151.5	2362.9
813.8291	448.0091	3146.6	2359.55
813.973	450.1806	3122.1	2335
814.1168	452.3514	3121.55	2330.35
814.2607	454.5216	3144.55	2345.5
814.4046	456.6913	3131.3	2338.45
814.5485	458.8603	3146.9	2353.05
814.6924	461.0288	3141	2348.55
814.8363	463.1967	3144.7	2352.8
814.9802	465.3639	3143.2	2346.95
815.1241	467.5306	3123.4	2327.65
815.2681	469.6967	3109.2	2315.25
815.412	471.8622	3098.1	2306.1
815.556	474.0271	3095.85	2303.8
815.7	476.1914	3084.45	2284.1
815.844	478.3551	3085.65	2288.45
815.988	480.5182	3088.35	2290.75
816.132	482.6807	3082.85	2286.8
816.276	484.8426	3129.05	2333.45
816.4201	487.0039	3196.35	2400.15
816.5641	489.1647	3290.05	2488.4
816.7082	491.3248	3379.8	2579.2
816.8522	493.4843	3406.8	2606
816.9963	495.6432	3397.35	2594.3
817.1404	497.8015	3342.75	2537.05
817.2845	499.9592	3254.6	2449.8
817.4286	502.1163	3167.6	2362.65
817.5727	504.2728	3084.55	2277.45
817.7168	506.4287	3026.75	2224.6
817.861	508.5839	3005.1	2200.7
818.0051	510.7386	2983.7	2179.95
818.1493	512.8927	2997.3	2183
818.2935	515.0461	3005.4	2199.4
818.4377	517.199	3033.3	2226.75
818.5818	519.3512	3127.95	2318.8
818.726	521.5029	3230.95	2416.55
818.8703	523.6539	3355.75	2547
819.0145	525.8043	3371.55	2558.95
819.1587	527.9541	3273.75	2461.3
819.303	530.1033	3161.75	2351.95
819.4472	532.2519	3051.9	2239
819.5915	534.3999	3014.65	2199.75
819.7357	536.5472	2991.6	2177.35
819.88	538.694	2989.5	2177.5
820.0243	540.8401	3021.8	2206.4
820.1686	542.9856	3054.65	2240.05
820.3129	545.1305	3088.7	2270.1
820.4572	547.2748	3106.7	2289.25
820.6016	549.4185	3105.1	2285.4
820.7459	551.5615	3114.9	2295
820.8902	553.704	3156.55	2336.9
821.0346	555.8458	3183.5	2364.9
821.1789	557.987	3219.4	2400.85
821.3233	560.1276	3284.1	2462.35
821.4677	562.2675	3381.8	2561.05
821.6121	564.4069	3512	2693.35
821.7565	566.5456	3597.4	2778.65
821.9009	568.6837	3563.7	2744.7
822.0453	570.8212	3415.7	2591.85
822.1897	572.958	3246.05	2424
822.3342	575.0942	3129.75	2310
822.4786	577.2299	3067.1	2248
822.6231	579.3648	3031.55	2210.8
822.7675	581.4992	2994.75	2177.1
822.912	583.6329	3019.3	2199.8
823.0565	585.766	3059.8	2239.45
823.201	587.8985	3141.15	2320.8
823.3454	590.0304	3236.7	2398.85
823.4899	592.1616	3306.35	2477.35
823.6345	594.2922	3324.8	2498.35
823.779	596.4222	3252.95	2425.35
823.9235	598.5515	3157.7	2330.3
824.068	600.6802	3050.25	2223.85
824.2126	602.8083	2980.65	2152.2
824.3571	604.9358	2937.05	2107.5
824.5017	607.0626	2918.8	2089.3
824.6462	609.1888	2928.35	2097.5
824.7908	611.3144	2968.15	2134
824.9354	613.4393	3039.75	2210.4
825.08	615.5636	3155.8	2324.35
825.2246	617.6873	3230.45	2400.75
825.3692	619.8103	3294.4	2460.9
825.5138	621.9327	3294	2458.15
825.6584	624.0544	3240.75	2410.5
825.803	626.1756	3141.1	2311.55
825.9477	628.2961	3034.65	2203.35
826.0923	630.4159	2977.95	2145.9
826.237	632.5351	2961.55	2126.2
826.3816	634.6537	2947.3	2111.85
826.5263	636.7716	2934.5	2095.25
826.6709	638.8889	2916.8	2080.65
826.8156	641.0056	2933.9	2095.55
826.9603	643.1216	2954.85	2114.15
827.105	645.237	2993.45	2156.6
827.2497	647.3518	2949.35	2112.05
827.3944	649.4659	2891.85	2055.65
827.5391	651.5793	2852.45	2015.4
827.6838	653.6922	2825.8	1991.05
827.8285	655.8043	2800.25	1960.5
827.9733	657.9159	2777.6	1939.2
828.118	660.0268	2759.4	1918.2
828.2627	662.137	2761.55	1922.65
828.4075	664.2466	2763.35	1919.9
828.5522	666.3556	2763.05	1922.85
828.697	668.4639	2758.75	1914.45
828.8418	670.5716	2741.75	1902.15
828.9865	672.6786	2729.6	1886.85
829.1313	674.785	2713.8	1868.55
829.2761	676.8907	2707.6	1866.35
829.4209	678.9958	2703.7	1862.45
829.5657	681.1002	2699	1854.35
829.7105	683.204	2701.6	1854.85
829.8553	685.3072	2705.3	1857.35
830.0001	687.4097	2710.85	1866.6
830.1449	689.5115	2699.15	1850
830.2898	691.6127	2703.75	1859.15
830.4346	693.7132	2695.2	1849.8
830.5794	695.8131	2695.2	1837.35
830.7243	697.9123	2698.65	1852.9
830.8691	700.0109	2706.9	1859.85
831.014	702.1089	2709.65	1861.5
831.1588	704.2061	2744.45	1897.65
831.3037	706.3028	2785.45	1932.2
831.4486	708.3987	2831.65	1980.95
831.5935	710.4941	2860.65	2011.55
831.7383	712.5887	2861.1	2014.1
831.8832	714.6827	2872.3	2020.3
832.0281	716.7761	2837.75	1986.8
832.173	718.8688	2837.2	1986
832.3179	720.9608	2823.75	1968.15
832.4628	723.0522	2853.1	1996
832.6077	725.1429	2881.05	2029.35
832.7527	727.233	2941.85	2089.65
832.8976	729.3224	3047.55	2196
833.0425	731.4112	3157.85	2304.25
833.1874	733.4993	3201.4	2347.1
833.3324	735.5867	3118.95	2266.85
833.4773	737.6735	2987.25	2134.45
833.6222	739.7596	2864.5	2007.05
833.7672	741.845	2790.5	1937.25
833.9122	743.9298	2756.35	1899.65
834.0571	746.014	2757.85	1906.3
834.2021	748.0974	2775	1917.05
834.347	750.1802	2769.7	1913.55
834.492	752.2624	2768.75	1917
834.637	754.3439	2748.25	1891.5
834.782	756.4247	2761.8	1894.9
834.9269	758.5048	2765.85	1911.7
835.0719	760.5843	2800.4	1942.5
835.2169	762.6631	2863.85	2005
835.3619	764.7413	2957.05	2101
835.5069	766.8188	3118.85	2262.5
835.6519	768.8956	3265.05	2405.55
835.7969	770.9718	3375.7	2517.5
835.9419	773.0473	3360.3	2504.05
836.0869	775.1221	3298.3	2438.65
836.232	777.1962	3263.05	2405.35
836.377	779.2697	3373.45	2515.2
836.522	781.3426	3578.05	2701.4
836.667	783.4147	3704.55	2845.45
836.8121	785.4862	3718.45	2860.85
836.9571	787.557	3558.5	2700.8
837.1021	789.6271	3327.75	2464.9
837.2472	791.6966	3066.2	2204.6
837.3922	793.7654	2889.95	2027.4
837.5373	795.8335	2782.4	1921.75
837.6823	797.901	2703.65	1842.4
837.8274	799.9678	2695.2	1833.1
837.9724	802.0339	2690.2	1829
838.1175	804.0993	2715.45	1844.45
838.2626	806.1641	2710.8	1848.15
838.4076	808.2282	2680.65	1819.9
838.5527	810.2916	2639.25	1776.15
838.6978	812.3544	2609.8	1750.2
838.8428	814.4164	2583.7	1722.95
838.9879	816.4778	2600.65	1737.8
839.133	818.5385	2612.5	1749.75
839.2781	820.5986	2680.2	1818.05
839.4232	822.658	2775.65	1912.8
839.5682	824.7166	2904.1	2041.15
839.7133	826.7747	3050.75	2187.05
839.8584	828.832	3191.35	2328.45
840.0035	830.8886	3310.05	2443.6
840.1486	832.9446	3363.55	2499.4
840.2937	834.9999	3327.85	2464.7
840.4388	837.0545	3204.7	2335.5
840.5839	839.1085	3042.3	2175.5
840.729	841.1618	2892.7	2024.1
840.8741	843.2143	2786.65	1919.75
841.0192	845.2662	2728.95	1864
841.1643	847.3175	2688.25	1820.9
841.3095	849.368	2671.25	1803.4
841.4546	851.4179	2659.45	1794.9
841.5997	853.467	2649.1	1780.25
841.7448	855.5155	2667.85	1799.95
841.8899	857.5633	2692.45	1823.85
842.0351	859.6105	2664.35	1796.75
842.1802	861.6569	2650.15	1783.05
842.3253	863.7027	2630.95	1759.95
842.4704	865.7478	2599.8	1731.95
842.6156	867.7922	2577.2	1709.35
842.7607	869.8359	2548.45	1680.3
842.9058	871.8789	2547.9	1679.8
843.0509	873.9212	2577.25	1675.6
843.1961	875.9629	2557	1689.7
843.3412	878.0039	2569.55	1700.85
843.4863	880.0441	2597.4	1728.3
843.6315	882.0837	2645.55	1775.05
843.7766	884.1226	2667.3	1797.75
843.9218	886.1609	2745.5	1877
844.0669	888.1984	2841	1973.05
844.212	890.2352	2937.3	2066.25
844.3572	892.2714	2950	2074.85
844.5023	894.3069	2919.7	2047.75
844.6475	896.3416	2810.2	1940.4
844.7926	898.3757	2721.75	1853.9
844.9377	900.4091	2671.4	1798.5
845.0829	902.4418	2679.1	1804
845.228	904.4739	2724.2	1852.25
845.3732	906.5052	2756.05	1881.7
845.5183	908.5358	2759.8	1890.25
845.6635	910.5658	2728.1	1854.2
845.8086	912.595	2655.8	1782.25
845.9538	914.6236	2596.4	1723.5
846.0989	916.6515	2541.5	1671.05
846.2441	918.6786	2508.05	1634.8
846.3892	920.7051	2489.2	1613.6
846.5344	922.7309	2482.25	1612.85
846.6795	924.756	2483.65	1611.4
846.8246	926.7804	2490.95	1611.9
846.9698	928.8041	2513.05	1639.95
847.1149	930.8272	2549.15	1675.35
847.2601	932.8495	2581.5	1709.4
847.4052	934.8711	2588.05	1712.5
847.5504	936.892	2588.2	1711.95
847.6955	938.9123	2635.6	1760.2
847.8407	940.9318	2680.15	1806.6
847.9858	942.9506	2719.4	1842.65
848.131	944.9688	2706.9	1834.65
848.2761	946.9862	2656.1	1780.1
848.4213	949.003	2598.75	1726.6
848.5664	951.019	2544.3	1670.5
848.7115	953.0344	2532.4	1657.7
848.8567	955.0491	2509.3	1633.05
849.0018	957.063	2489.9	1613.2
849.147	959.0763	2477.1	1603
849.2921	961.0888	2471.15	1594.65
849.4373	963.1007	2464.65	1589.3
849.5824	965.1119	2443.1	1569.15
849.7275	967.1223	2424.1	1551.05
849.8727	969.1321	2416.95	1545.5
850.0178	971.1412	2413.4	1541.9
850.1629	973.1495	2404.85	1531.1
850.3081	975.1572	2437.75	1531.2
850.4532	977.1641	2428.5	1552.4
850.5983	979.1704	2425.25	1548.4
850.7435	981.1759	2414.1	1535.35
850.8886	983.1808	2398.35	1520.1
851.0337	985.1849	2392.15	1511.85
851.1788	987.1884	2379.45	1499.15
851.324	989.1911	2390.45	1512.2
851.4691	991.1932	2398.75	1520.95
851.6142	993.1945	2407.1	1529.95
851.7593	995.1951	2402.8	1525.6
851.9045	997.1951	2405.6	1521.5
852.0496	999.1943	2396.5	1519.8
852.1947	1001.1928	2411.85	1535.6
852.3398	1003.1906	2422.55	1545.2
852.4849	1005.1877	2460.55	1582.9
852.63	1007.1841	2510.85	1631.9
852.7751	1009.1798	2531.65	1654.55
852.9202	1011.1748	2528.35	1650.05
853.0653	1013.1691	2489.25	1610.55
853.2104	1015.1627	2415.75	1537.6
853.3555	1017.1556	2362	1483.25
853.5006	1019.1477	2338.3	1459.8
853.6457	1021.1392	2305.85	1430.05
853.7908	1023.1299	2286.35	1409.95
853.9359	1025.12	2281.9	1406.7
854.081	1027.1093	2295.95	1422.3
854.2261	1029.0979	2323.2	1451
854.3712	1031.0859	2375.3	1504.75
854.5163	1033.0731	2401	1524.55
854.6613	1035.0596	2400.35	1523.2
854.8064	1037.0454	2389.4	1511.15
854.9515	1039.0304	2367.75	1489.5
855.0965	1041.0148	2331.85	1455.75
855.2416	1042.9985	2294.15	1412.5
855.3867	1044.9814	2268.75	1388.3
855.5317	1046.9636	2261.3	1381.4
855.6768	1048.9452	2267.3	1388.35
855.8219	1050.926	2299.3	1420.85
855.9669	1052.9061	2336.65	1457.25
856.112	1054.8855	2347.25	1468.25
856.257	1056.8642	2341.4	1461.25
856.4021	1058.8421	2346.15	1464.35
856.5471	1060.8194	2344.85	1465.2
856.6921	1062.7959	2340.8	1458
856.8372	1064.7717	2335.2	1453.2
856.9822	1066.7469	2331.2	1448.4
857.1272	1068.7213	2338.3	1457.35
857.2723	1070.695	2356.7	1476.25
857.4173	1072.6679	2393.1	1513.55
857.5623	1074.6402	2450.1	1568.9
857.7073	1076.6117	2480.25	1595.4
857.8523	1078.5826	2447.3	1564.05
857.9973	1080.5527	2374.3	1490.65
858.1423	1082.5221	2310.15	1428.45
858.2873	1084.4908	2252.05	1371.1
858.4323	1086.4587	2226.15	1345.2
858.5773	1088.426	2210.95	1327.8
858.7223	1090.3925	2214.05	1327.25
858.8673	1092.3584	2214.85	1334.5
859.0123	1094.3235	2230.15	1349.85
859.1573	1096.2879	2263.15	1382.3
859.3022	1098.2515	2306.5	1423.65
859.4472	1100.2145	2333.55	1453.55
859.5922	1102.1767	2397.65	1514.5
859.7371	1104.1382	2484.9	1603.3
859.8821	1106.099	2583.6	1699.5
860.027	1108.0591	2684.4	1803.7
860.172	1110.0185	2762.75	1878.8
860.3169	1111.9771	2809.35	1927.75
860.4619	1113.9351	2900.75	2017.85
860.6068	1115.8923	3040	2158.6
860.7517	1117.8488	3119.6	2235.2
860.8967	1119.8045	3039.4	2156.05
861.0416	1121.7596	2871.05	1987.2
861.1865	1123.7139	2666.55	1785.9
861.3314	1125.6675	2545.5	1663.05
861.4763	1127.6204	2522.8	1641.5
861.6212	1129.5726	2570.8	1688.55
861.7661	1131.524	2590.35	1710.45
861.911	1133.4748	2510.4	1628.3
862.0559	1135.4248	2392.65	1510.2
862.2008	1137.3741	2303.1	1421.45
862.3457	1139.3226	2245.55	1362.35
862.4905	1141.2705	2244.4	1362.65
862.6354	1143.2176	2260.35	1370.1
862.7803	1145.164	2286.4	1402.45
862.9251	1147.1097	2294.65	1411.2
863.07	1149.0546	2263.25	1378.6
863.2148	1150.9989	2205.05	1322.25
863.3597	1152.9424	2158	1273.55
863.5045	1154.8852	2145.05	1263.15
863.6493	1156.8272	2117.35	1236.1
863.7942	1158.7686	2128.85	1239.2
863.939	1160.7092	2118.35	1234.8
864.0838	1162.6491	2139.2	1254.5
864.2286	1164.5883	2140.2	1256.85
864.3734	1166.5267	2169.8	1282.6
864.5182	1168.4644	2205.15	1322.3
864.663	1170.4014	2278.05	1392.5
864.8078	1172.3377	2341	1458.5
864.9526	1174.2732	2430.5	1548.2
865.0974	1176.2081	2589.1	1703.95
865.2421	1178.1421	2804.4	1915.95
865.3869	1180.0755	3041.5	2158.9
865.5317	1182.0082	3201.25	2319.35
865.6764	1183.9401	3206.6	2322.5
865.8212	1185.8713	3031.05	2148.5
865.9659	1187.8017	2798.45	1915.55
866.1106	1189.7315	2573.6	1695.4
866.2554	1191.6605	2442.15	1533.8
866.4001	1193.5888	2325.45	1444.85
866.5448	1195.5163	2263.85	1381.95
866.6895	1197.4432	2217.95	1334.65
866.8342	1199.3693	2190.9	1309.9
866.9789	1201.2947	2165.05	1273.1
867.1236	1203.2193	2152.85	1268.3
867.2683	1205.1432	2135.45	1251.45
867.413	1207.0664	2137.4	1254.05
867.5576	1208.9889	2137.6	1253
867.7023	1210.9106	2135.45	1248.6
867.847	1212.8316	2142.4	1256.35
867.9916	1214.7519	2161.45	1266.8
868.1363	1216.6715	2180.25	1296.6
868.2809	1218.5903	2216.3	1333
868.4255	1220.5084	2233.8	1350
868.5701	1222.4257	2252.95	1366.8
868.7148	1224.3424	2279.95	1396.85
868.8594	1226.2583	2317.1	1429.7
869.004	1228.1735	2360.15	1474.5
869.1486	1230.0879	2422.5	1537.4
869.2932	1232.0016	2480.45	1597.4
869.4377	1233.9146	2554.1	1667
869.5823	1235.8269	2600.95	1715.85
869.7269	1237.7384	2604.15	1718.45
869.8715	1239.6492	2587.5	1703.25
870.016	1241.5592	2610.75	1724.2
