Software Version:	3.9.2.0
Unit SN:	10000200
Spectrometer SN:	6960
Date:	3/8/2024 12:31:22 PM
Data Line Index:	25
Spectral Points:	2048
Integration time (ms):	125
Averages:	20
Delay (ms):	30000
Sequence Number:	1
Processing:	dark subtract
Laser Power (mW):	300
Laser Current (mA):	821
Laser Diode Temp (C):	25
Laser Case Temp (C):	26
System Temp (C):	26
Spectrometer Temp (C):	23.8
CCD Temp (C):	0.012
Secondary Temp (C):	20.006
Heatsink Temp (C):	20.301
CCDPCB Temp (C):	36.207
SecondaryPCB Temp (C):	30.138

Wavelength	RamanShift	Raw Counts	Dark Subtracted
787.061	30.1047	445.7	37.05
787.2016	32.3739	446.1	39.65
787.3422	34.6426	451.25	42.5
787.4828	36.9109	453.9	41.85
787.6235	39.1787	461.7	50
787.7642	41.4461	470.95	53.25
787.9049	43.7131	476.3	54.2
788.0456	45.9796	486.05	62
788.1863	48.2456	492.9	65.5
788.3271	50.5112	501.65	67.8
788.4679	52.7764	509.45	73.35
788.6087	55.0411	520.95	79.15
788.7496	57.3054	529.8	82.95
788.8904	59.5692	540.2	93.65
789.0313	61.8326	543.8	94.4
789.1722	64.0955	555.65	103.55
789.3132	66.3579	572.4	114.4
789.4541	68.6199	587.4	123.75
789.5951	70.8815	622.15	154.7
789.7361	73.1426	694.55	223.65
789.8771	75.4032	879.7	404.5
790.0181	77.6634	1348.85	869.7
790.1592	79.9231	2418.5	1931.5
790.3003	82.1824	4736.25	4231.8
790.4414	84.4412	8818.9	8286.3
790.5825	86.6995	14289.25	13721.3
790.7237	88.9574	19584.4	18982.15
790.8648	91.2148	23122.8	22501.45
791.006	93.4717	24589.95	23954.45
791.1472	95.7282	24734.5	24092.55
791.2885	97.9842	24325.8	23676.35
791.4297	100.2398	23555.7	22908.1
791.571	102.4949	22745.25	22093.6
791.7123	104.7495	21810.9	21156.85
791.8536	107.0036	20901.1	20248.2
791.9949	109.2573	20145.2	19494.1
792.1363	111.5105	19410.35	18753.7
792.2777	113.7632	18790.9	18133.55
792.4191	116.0154	18260.1	17589.55
792.5605	118.2672	17885.35	17221.85
792.7019	120.5185	17519.9	16853.6
792.8434	122.7693	17234.65	16566.95
792.9849	125.0197	16983.95	16309.35
793.1264	127.2696	16754.1	16074.6
793.2679	129.519	16538.8	15856.25
793.4094	131.7679	16239.5	15552.5
793.551	134.0163	15984.55	15297.3
793.6926	136.2642	15632.25	14944.25
793.8342	138.5117	15290.35	14589.6
793.9758	140.7587	14880.7	14188.95
794.1175	143.0052	14556.5	13862.6
794.2591	145.2512	14190.1	13494.75
794.4008	147.4967	13904.45	13210.15
794.5425	149.7417	13678.55	12978.5
794.6842	151.9863	13529.75	12824.15
794.826	154.2304	13402.1	12689.8
794.9677	156.4739	13239.8	12521.9
795.1095	158.717	13106.85	12393.45
795.2513	160.9596	12943.95	12227.45
795.3931	163.2017	12709	11988.45
795.535	165.4433	12458.4	11736.95
795.6768	167.6844	12111.5	11388.1
795.8187	169.925	11846.3	11118.3
795.9606	172.1651	11528.35	10800.05
796.1025	174.4047	11263.15	10532.35
796.2445	176.6439	11071.2	10339.2
796.3864	178.8825	10859.25	10120.15
796.5284	181.1206	10740.85	9997.9
796.6704	183.3582	10640.35	9889.8
796.8124	185.5954	10518.55	9769.55
796.9544	187.832	10474.95	9720.65
797.0965	190.0681	10434.3	9681.25
797.2386	192.3037	10450.8	9688.9
797.3806	194.5388	10442.8	9680.45
797.5228	196.7734	10445.25	9678.9
797.6649	199.0075	10508.45	9737.5
797.807	201.2411	10593.55	9830.9
797.9492	203.4742	10676.5	9905
798.0914	205.7068	10812.15	10038.65
798.2336	207.9389	10913.35	10135.45
798.3758	210.1704	11051.85	10284.4
798.518	212.4015	11153.15	10394.8
798.6603	214.632	11296.1	10544.5
798.8025	216.862	11396.95	10646.95
798.9448	219.0915	11479.95	10728.7
799.0871	221.3205	11541.65	10788.65
799.2294	223.549	11624.45	10873.3
799.3718	225.777	11652.65	10904.45
799.5141	228.0044	11713.8	10958.25
799.6565	230.2314	11797.95	11038.35
799.7989	232.4578	11891.2	11130.9
799.9413	234.6837	11958.7	11188.65
800.0837	236.909	11969.4	11197.45
800.2262	239.1339	11967.95	11167.6
800.3687	241.3582	11957.15	11173.35
800.5111	243.582	11867.2	11057
800.6536	245.8053	11793.5	10994.65
800.7961	248.0281	11807.2	11016.35
800.9387	250.2503	11821.3	11024
801.0812	252.472	11881.25	11083.6
801.2238	254.6932	12036	11238.8
801.3664	256.9139	12157.8	11359.75
801.509	259.134	12351	11545.25
801.6516	261.3536	12607.5	11806.5
801.7942	263.5727	12943.05	12134.5
801.9369	265.7912	13191.7	12383
802.0795	268.0092	13494.35	12693.55
802.2222	270.2267	13705.5	12900.65
802.3649	272.4436	13846.45	13042.75
802.5076	274.6601	13902.7	13086.9
802.6504	276.8759	13825.55	13014
802.7931	279.0913	13754.9	12946.65
802.9359	281.3061	13609.15	12797.45
803.0787	283.5204	13517.55	12699.95
803.2215	285.7341	13513.25	12690.65
803.3643	287.9473	13523.1	12690.15
803.5071	290.16	13540.6	12720.3
803.6499	292.3721	13608.25	12790.55
803.7928	294.5837	13773.45	12954.65
803.9357	296.7947	13930.55	13111.8
804.0786	299.0052	14090.7	13268.15
804.2215	301.2152	14102.35	13278.5
804.3644	303.4246	13953.45	13136.45
804.5074	305.6334	13662.25	12848.5
804.6503	307.8418	13303.55	12482.55
804.7933	310.0495	12968.2	12142.7
804.9363	312.2568	12553.6	11731.55
805.0793	314.4635	12150.1	11322.15
805.2223	316.6696	11837.3	11009.25
805.3653	318.8752	11625.85	10787.2
805.5084	321.0802	11527.7	10697.35
805.6514	323.2847	11514.45	10680.8
805.7945	325.4887	11541.2	10706.4
805.9376	327.692	11557.4	10722.15
806.0807	329.8949	11532.45	10696.55
806.2238	332.0972	11385.15	10548.8
806.367	334.2989	11181.5	10339
806.5101	336.5001	10970.55	10126.85
806.6533	338.7007	10775.75	9932.9
806.7965	340.9008	10629.55	9788
806.9397	343.1003	10461.25	9616.35
807.0829	345.2992	10341.45	9498.1
807.2261	347.4976	10256.15	9409.05
807.3693	349.6955	10175.8	9323
807.5126	351.8927	10137.55	9286.4
807.6559	354.0895	10076.6	9215.05
807.7991	356.2856	10042.8	9185.8
807.9424	358.4812	9955.45	9102.3
808.0857	360.6763	9956.35	9100.9
808.2291	362.8707	9921.2	9065.7
808.3724	365.0646	9996.8	9138.75
808.5158	367.258	10022.9	9168
808.6591	369.4508	10085.9	9222.9
808.8025	371.643	10243.85	9378.75
808.9459	373.8346	10312.6	9445.1
809.0893	376.0257	10398.8	9530.2
809.2327	378.2162	10438.85	9572.2
809.3762	380.4062	10463.05	9597.15
809.5196	382.5956	10382.5	9518.25
809.6631	384.7844	10289.6	9428.95
809.8066	386.9726	10153.3	9298.3
809.9501	389.1603	10075.15	9220.45
810.0936	391.3474	10040.2	9141
810.2371	393.5339	9999	9140.65
810.3806	395.7199	9960.05	9105.7
810.5241	397.9052	9997.4	9137.35
810.6677	400.09	10110.25	9250.8
810.8113	402.2743	10267.1	9409.65
810.9548	404.4579	10436.75	9580.3
811.0984	406.641	10621.75	9761.25
811.2421	408.8235	10776.6	9915.65
811.3857	411.0054	10893.25	10025.1
811.5293	413.1868	11005.75	10136.45
811.673	415.3675	11028.3	10155.85
811.8166	417.5477	10996.7	10126
811.9603	419.7273	10923.05	10051.35
812.104	421.9064	10882.55	9999.6
812.2477	424.0848	10803.8	9932.4
812.3914	426.2627	10679.5	9807.9
812.5351	428.4399	10499.55	9622.8
812.6788	430.6166	10218.2	9337.85
812.8226	432.7928	9894.85	9017.35
812.9663	434.9683	9661.55	8785.1
813.1101	437.1432	9449.95	8572.2
813.2539	439.3176	9288.9	8414.8
813.3977	441.4914	9180.95	8313.2
813.5415	443.6645	9166.85	8294.7
813.6853	445.8371	9116.15	8239.8
813.8291	448.0091	9107.7	8228.75
813.973	450.1806	9076.75	8199.65
814.1168	452.3514	9076.1	8202
814.2607	454.5216	9105.4	8219.55
814.4046	456.6913	9108.55	8232.3
814.5485	458.8603	9163.6	8286.2
814.6924	461.0288	9198.05	8324.85
814.8363	463.1967	9185.3	8314.45
814.9802	465.3639	9188.3	8310.2
815.1241	467.5306	9151.5	8273.9
815.2681	469.6967	9142.9	8268.4
815.412	471.8622	9152.7	8282.7
815.556	474.0271	9204.5	8332.9
815.7	476.1914	9221.45	8342.95
815.844	478.3551	9221.8	8340.9
815.988	480.5182	9302.65	8428.7
816.132	482.6807	9386.45	8515.65
816.276	484.8426	9557.75	8696.35
816.4201	487.0039	9856.45	8986
816.5641	489.1647	10202.95	9325.55
816.7082	491.3248	10484	9607.8
816.8522	493.4843	10570.5	9695.45
816.9963	495.6432	10541.9	9668.25
817.1404	497.8015	10422.5	9538.4
817.2845	499.9592	10292.2	9403.9
817.4286	502.1163	10080.75	9189.65
817.5727	504.2728	9800.75	8917.4
817.7168	506.4287	9545.4	8670
817.861	508.5839	9289.1	8414.25
818.0051	510.7386	9141.75	8262.45
818.1493	512.8927	9061.8	8171.55
818.2935	515.0461	9050.5	8164.95
818.4377	517.199	9144.55	8258.85
818.5818	519.3512	9318.55	8427.45
818.726	521.5029	9626.9	8733.65
818.8703	523.6539	9874.45	8989.8
819.0145	525.8043	9983.2	9094.25
819.1587	527.9541	9900.85	9007.9
819.303	530.1033	9697	8808.05
819.4472	532.2519	9548.35	8657.8
819.5915	534.3999	9477.1	8587.95
819.7357	536.5472	9494.85	8604.7
819.88	538.694	9641.65	8756.9
820.0243	540.8401	9837.85	8947.05
820.1686	542.9856	9999.85	9098.9
820.3129	545.1305	10015.2	9106.2
820.4572	547.2748	9979.2	9070.3
820.6016	549.4185	9824.1	8915.45
820.7459	551.5615	9717	8809.9
820.8902	553.704	9777.9	8878.6
821.0346	555.8458	9836.55	8936.85
821.1789	557.987	10031.15	9133.65
821.3233	560.1276	10269.2	9366.5
821.4677	562.2675	10676.65	9776.25
821.6121	564.4069	11190.1	10285.85
821.7565	566.5456	11678.85	10778.7
821.9009	568.6837	11854.7	10956.1
822.0453	570.8212	11487.8	10589.45
822.1897	572.958	10813.25	9912.5
822.3342	575.0942	10208	9314.3
822.4786	577.2299	9772.1	8880.85
822.6231	579.3648	9521.7	8637.1
822.7675	581.4992	9465.95	8591.5
822.912	583.6329	9558.45	8683.6
823.0565	585.766	9683.1	8801.65
823.201	587.8985	9812	8927.7
823.3454	590.0304	9873.55	8953.4
823.4899	592.1616	9862.85	8963.45
823.6345	594.2922	9761.9	8857.95
823.779	596.4222	9597.05	8690.9
823.9235	598.5515	9398.75	8491.15
824.068	600.6802	9236.15	8327.15
824.2126	602.8083	9097.1	8192.85
824.3571	604.9358	9080.75	8174.45
824.5017	607.0626	9118.1	8208
824.6462	609.1888	9234.5	8323.45
824.7908	611.3144	9437.15	8524.4
824.9354	613.4393	9564.15	8652.9
825.08	615.5636	9693.65	8782.4
825.2246	617.6873	9713.35	8801.35
825.3692	619.8103	9659.4	8744.05
825.5138	621.9327	9457.45	8548.45
825.6584	624.0544	9240.85	8334.95
825.803	626.1756	9069.2	8163.6
825.9477	628.2961	8940.95	8030.55
826.0923	630.4159	8851.3	7942.1
826.237	632.5351	8826.85	7914.2
826.3816	634.6537	8828.65	7914.45
826.5263	636.7716	8838.45	7919.85
826.6709	638.8889	8861.5	7942.95
826.8156	641.0056	8872.9	7956.25
826.9603	643.1216	8851.55	7935.3
827.105	645.237	8836.6	7921.35
827.2497	647.3518	8728.3	7820.2
827.3944	649.4659	8645.6	7738.9
827.5391	651.5793	8601.2	7697.4
827.6838	653.6922	8570.1	7662.3
827.8285	655.8043	8523.3	7613.35
827.9733	657.9159	8568.8	7660
828.118	660.0268	8549.15	7637.6
828.2627	662.137	8558.75	7645.2
828.4075	664.2466	8581.7	7662.25
828.5522	666.3556	8563.9	7645.7
828.697	668.4639	8509.6	7595.5
828.8418	670.5716	8457.1	7549
828.9865	672.6786	8437.4	7519.55
829.1313	674.785	8364.15	7440.95
829.2761	676.8907	8329.15	7412.75
829.4209	678.9958	8321.85	7410.2
829.5657	681.1002	8309.25	7396.3
829.7105	683.204	8304.95	7379.8
829.8553	685.3072	8284.3	7361.15
830.0001	687.4097	8313	7395.5
830.1449	689.5115	8291.3	7369.15
830.2898	691.6127	8291.15	7373.8
830.4346	693.7132	8285.25	7368.85
830.5794	695.8131	8320.1	7382.7
830.7243	697.9123	8342.45	7419.7
830.8691	700.0109	8370.5	7446.25
831.014	702.1089	8420.5	7500.3
831.1588	704.2061	8456.15	7536
831.3037	706.3028	8538.15	7615.2
831.4486	708.3987	8590.6	7667.45
831.5935	710.4941	8590.85	7670.55
831.7383	712.5887	8616.05	7693.75
831.8832	714.6827	8688.1	7764.7
832.0281	716.7761	8749.6	7832.85
832.173	718.8688	8880.2	7958.4
832.3179	720.9608	9013.8	8085.9
832.4628	723.0522	9158.2	8224.7
832.6077	725.1429	9246.15	8319.7
832.7527	727.233	9356.85	8429.85
832.8976	729.3224	9448.1	8524.4
833.0425	731.4112	9422.95	8498.85
833.1874	733.4993	9299.35	8374.8
833.3324	735.5867	9062.6	8138.95
833.4773	737.6735	8841.45	7916.4
833.6222	739.7596	8679.8	7752.7
833.7672	741.845	8539.9	7615
833.9122	743.9298	8452.8	7527.9
834.0571	746.014	8419.3	7494.6
834.2021	748.0974	8402.8	7473.55
834.347	750.1802	8403.8	7473
834.492	752.2624	8458.85	7527.95
834.637	754.3439	8503.4	7568.35
834.782	756.4247	8591.95	7652.25
834.9269	758.5048	8750.3	7818.35
835.0719	760.5843	9042.8	8109.35
835.2169	762.6631	9383.85	8449.95
835.3619	764.7413	9948.7	9021.45
835.5069	766.8188	10608	9675.15
835.6519	768.8956	11208.9	10274.25
835.7969	770.9718	11555.4	10622.15
835.9419	773.0473	11525.95	10598.1
836.0869	775.1221	11318.4	10387.15
836.232	777.1962	11079.7	10146.2
836.377	779.2697	11023.05	10087.55
836.522	781.3426	11081.4	10137.45
836.667	783.4147	11184.95	10251.2
836.8121	785.4862	11219.95	10285.9
836.9571	787.557	11007.4	10074.65
837.1021	789.6271	10563.15	9629.15
837.2472	791.6966	9977.95	9045.05
837.3922	793.7654	9428.85	8495.7
837.5373	795.8335	8991.75	8058.35
837.6823	797.901	8716.85	7786.7
837.8274	799.9678	8558.9	7620.55
837.9724	802.0339	8448.7	7513.95
838.1175	804.0993	8407.9	7463.15
838.2626	806.1641	8352.05	7416.75
838.4076	808.2282	8284.55	7349.7
838.5527	810.2916	8202.55	7267.9
838.6978	812.3544	8148.65	7214.7
838.8428	814.4164	8093.85	7159.95
838.9879	816.4778	8144.95	7204.55
839.133	818.5385	8191.2	7253.95
839.2781	820.5986	8333.45	7397.95
839.4232	822.658	8570.4	7631.95
839.5682	824.7166	8919.55	7983.55
839.7133	826.7747	9426.5	8488.3
839.8584	828.832	9984.1	9051.35
840.0035	830.8886	10373.7	9434.7
840.1486	832.9446	10557.35	9620.45
840.2937	834.9999	10431	9491.4
840.4388	837.0545	10113.8	9171.45
840.5839	839.1085	9744.85	8807.85
840.729	841.1618	9393.7	8454.35
840.8741	843.2143	9136.05	8197.7
841.0192	845.2662	8944.45	8004
841.1643	847.3175	8802.25	7863.95
841.3095	849.368	8694.6	7756.35
841.4546	851.4179	8621.25	7680
841.5997	853.467	8539.05	7598.4
841.7448	855.5155	8459.95	7522.15
841.8899	857.5633	8419.85	7480.8
842.0351	859.6105	8313.6	7374.8
842.1802	861.6569	8271.85	7332.9
842.3253	863.7027	8203.65	7261.3
842.4704	865.7478	8165.8	7225.35
842.6156	867.7922	8117.25	7179.2
842.7607	869.8359	8076.9	7134.3
842.9058	871.8789	8081.95	7142.05
843.0509	873.9212	8165.1	7190.85
843.1961	875.9629	8219.4	7275.3
843.3412	878.0039	8328.8	7384.9
843.4863	880.0441	8388.45	7446.7
843.6315	882.0837	8456.4	7517.7
843.7766	884.1226	8512.35	7572.35
843.9218	886.1609	8576.2	7637
844.0669	888.1984	8711.25	7771.4
844.212	890.2352	8859.95	7919.95
844.3572	892.2714	8889.05	7944.8
844.5023	894.3069	8841.9	7899.15
844.6475	896.3416	8677.3	7737.25
844.7926	898.3757	8516.75	7573.7
844.9377	900.4091	8417.5	7470.05
845.0829	902.4418	8435	7487.05
845.228	904.4739	8439.2	7492.8
845.3732	906.5052	8487.55	7542.7
845.5183	908.5358	8481.05	7539.95
845.6635	910.5658	8363.45	7415.95
845.8086	912.595	8156.7	7212.55
845.9538	914.6236	7963	7021.2
846.0989	916.6515	7830.9	6888.8
846.2441	918.6786	7734.55	6787.95
846.3892	920.7051	7723.2	6777.1
846.5344	922.7309	7761.8	6817.3
846.6795	924.756	7779.6	6836.15
846.8246	926.7804	7832.15	6888.45
846.9698	928.8041	7833.6	6888.75
847.1149	930.8272	7897.5	6950.4
847.2601	932.8495	7883.95	6937.9
847.4052	934.8711	7906.6	6958
847.5504	936.892	7862.65	6913.85
847.6955	938.9123	7882.8	6936.15
847.8407	940.9318	7952.9	7010.8
847.9858	942.9506	7970.95	7024.1
848.131	944.9688	7910.55	6968.8
848.2761	946.9862	7821.35	6877.45
848.4213	949.003	7689.6	6745.95
848.5664	951.019	7596.4	6654.85
848.7115	953.0344	7510.9	6566.05
848.8567	955.0491	7488.95	6546.25
849.0018	957.063	7490.75	6545.1
849.147	959.0763	7576.9	6631.4
849.2921	961.0888	7605.85	6660.65
849.4373	963.1007	7633.2	6691.8
849.5824	965.1119	7650.05	6716
849.7275	967.1223	7655.05	6725.95
849.8727	969.1321	7629.8	6698.9
850.0178	971.1412	7610.3	6675.15
850.1629	973.1495	7593.9	6651.75
850.3081	975.1572	7633.75	6644.55
850.4532	977.1641	7629.55	6685.05
850.5983	979.1704	7605.2	6660.55
850.7435	981.1759	7595.55	6648.25
850.8886	983.1808	7579.7	6635.05
851.0337	985.1849	7598.8	6645.25
851.1788	987.1884	7637.3	6690.25
851.324	989.1911	7694.55	6750.8
851.4691	991.1932	7765.25	6824.8
851.6142	993.1945	7787.9	6843.8
851.7593	995.1951	7752.65	6806.45
851.9045	997.1951	7729.95	6779.55
852.0496	999.1943	7697.05	6749.9
852.1947	1001.1928	7709.35	6764.4
852.3398	1003.1906	7751.25	6809.35
852.4849	1005.1877	7887.6	6941.85
852.63	1007.1841	7973.45	7029.8
852.7751	1009.1798	8027.4	7083.6
852.9202	1011.1748	7970.4	7029.3
853.0653	1013.1691	7838.05	6895.8
853.2104	1015.1627	7688.75	6745.45
853.3555	1017.1556	7486.7	6543.7
853.5006	1019.1477	7369.4	6429.4
853.6457	1021.1392	7274.75	6340
853.7908	1023.1299	7249.9	6318.8
853.9359	1025.12	7259.1	6331.05
854.081	1027.1093	7322.6	6407.05
854.2261	1029.0979	7418.9	6504.8
854.3712	1031.0859	7516.4	6591.8
854.5163	1033.0731	7562.05	6633.7
854.6613	1035.0596	7541.55	6606.1
854.8064	1037.0454	7429.55	6493.7
854.9515	1039.0304	7356.95	6414.05
855.0965	1041.0148	7262.95	6323.8
855.2416	1042.9985	7177.15	6234.75
855.3867	1044.9814	7118.55	6174.2
855.5317	1046.9636	7062.2	6122.55
855.6768	1048.9452	7064.9	6128.35
855.8219	1050.926	7117.8	6180
855.9669	1052.9061	7144.3	6204.9
856.112	1054.8855	7167.3	6225.3
856.257	1056.8642	7206.7	6266.75
856.4021	1058.8421	7273.65	6327.35
856.5471	1060.8194	7299.55	6355.85
856.6921	1062.7959	7339.15	6398.5
856.8372	1064.7717	7383.9	6441.45
856.9822	1066.7469	7477.65	6540.7
857.1272	1068.7213	7552.8	6607.85
857.2723	1070.695	7635.45	6695.65
857.4173	1072.6679	7682.75	6737.45
857.5623	1074.6402	7710.3	6768.3
857.7073	1076.6117	7688.3	6739.9
857.8523	1078.5826	7588.05	6644.35
857.9973	1080.5527	7448.5	6503.65
858.1423	1082.5221	7329.65	6389.4
858.2873	1084.4908	7258.2	6319.85
858.4323	1086.4587	7260.25	6318
858.5773	1088.426	7282.3	6340
858.7223	1090.3925	7310.2	6365.35
858.8673	1092.3584	7330.85	6388.75
859.0123	1094.3235	7359.3	6418.15
859.1573	1096.2879	7458.05	6519.15
859.3022	1098.2515	7599.8	6659.05
859.4472	1100.2145	7800.95	6863.9
859.5922	1102.1767	7954.35	7010.95
859.7371	1104.1382	8185.95	7245.5
859.8821	1106.099	8441.2	7500.25
860.027	1108.0591	8641.7	7704
860.172	1110.0185	8777.7	7833.8
860.3169	1111.9771	8860.8	7920.25
860.4619	1113.9351	8786.4	7844.3
860.6068	1115.8923	8688.8	7747.2
860.7517	1117.8488	8601.4	7660.25
860.8967	1119.8045	8467.55	7528.5
861.0416	1121.7596	8318.05	7380.1
861.1865	1123.7139	8185.2	7249.3
861.3314	1125.6675	8143.75	7207.45
861.4763	1127.6204	8164.5	7225.75
861.6212	1129.5726	8115.35	7175.85
861.7661	1131.524	8044.55	7101.7
861.911	1133.4748	7905.8	6965.2
862.0559	1135.4248	7706	6763.9
862.2008	1137.3741	7529.75	6590.15
862.3457	1139.3226	7421.05	6480
862.4905	1141.2705	7389.1	6449.85
862.6354	1143.2176	7308.9	6364.75
862.7803	1145.164	7278.85	6334.9
862.9251	1147.1097	7186.35	6244.3
863.07	1149.0546	7082.95	6142.5
863.2148	1150.9989	7004.6	6063.15
863.3597	1152.9424	6897.45	5956.35
863.5045	1154.8852	6841.9	5900.9
863.6493	1156.8272	6818.35	5876.25
863.7942	1158.7686	6851.9	5909.15
863.939	1160.7092	6864.05	5924.45
864.0838	1162.6491	6911.95	5972.15
864.2286	1164.5883	7028.3	6088.35
864.3734	1166.5267	7143.45	6202.05
864.5182	1168.4644	7287.15	6347.6
864.663	1170.4014	7475.75	6530.75
864.8078	1172.3377	7683.5	6747.8
864.9526	1174.2732	8016.05	7080.2
865.0974	1176.2081	8400.7	7461
865.2421	1178.1421	8929.55	7987.5
865.3869	1180.0755	9496.15	8559.15
865.5317	1182.0082	9879.95	8940.95
865.6764	1183.9401	10018.1	9084.6
865.8212	1185.8713	9859.25	8927.7
865.9659	1187.8017	9549	8621.75
866.1106	1189.7315	9145.2	8227.45
866.2554	1191.6605	8740.35	7820.85
866.4001	1193.5888	8458.85	7535.1
866.5448	1195.5163	8323.8	7395.6
866.6895	1197.4432	8232.55	7296.6
866.8342	1199.3693	8177.2	7240.2
866.9789	1201.2947	8144.4	7203.65
867.1236	1203.2193	8120.5	7183.15
867.2683	1205.1432	8107.05	7171.25
867.413	1207.0664	8039.75	7103.25
867.5576	1208.9889	8004.35	7063.9
867.7023	1210.9106	8011	7077.8
867.847	1212.8316	7980.05	7049.1
867.9916	1214.7519	8028.8	7083.25
868.1363	1216.6715	8074.2	7140.05
868.2809	1218.5903	8153.85	7218.05
868.4255	1220.5084	8247.15	7310.1
868.5701	1222.4257	8366.6	7431.5
868.7148	1224.3424	8454.2	7523.4
