Software Version:	3.9.2.0
Unit SN:	10000200
Spectrometer SN:	6960
Date:	3/8/2024 2:21:57 PM
Data Line Index:	25
Spectral Points:	2048
Integration time (ms):	125
Averages:	20
Delay (ms):	30000
Sequence Number:	1
Processing:	dark subtract
Laser Power (mW):	300
Laser Current (mA):	826
Laser Diode Temp (C):	25
Laser Case Temp (C):	26.1
System Temp (C):	26.1
Spectrometer Temp (C):	24.1
CCD Temp (C):	0.004
Secondary Temp (C):	20.011
Heatsink Temp (C):	20.941
CCDPCB Temp (C):	35.962
SecondaryPCB Temp (C):	30.782

Wavelength	RamanShift	Raw Counts	Dark Subtracted
787.061	30.1047	458	50.05
787.2016	32.3739	460.75	55.65
787.3422	34.6426	465.05	59.35
787.4828	36.9109	471.4	63.4
787.6235	39.1787	483	71.7
787.7642	41.4461	487.45	69.15
787.9049	43.7131	498.9	78.1
788.0456	45.9796	505.2	83.25
788.1863	48.2456	515.55	88.75
788.3271	50.5112	527.6	95.7
788.4679	52.7764	538.6	103.55
788.6087	55.0411	545.6	105.1
788.7496	57.3054	561.7	116.7
788.8904	59.5692	564.4	118.5
789.0313	61.8326	578.8	131.15
789.1722	64.0955	592.05	142.05
789.3132	66.3579	612.05	152.8
789.4541	68.6199	629.4	169.25
789.5951	70.8815	668.05	202.5
789.7361	73.1426	748.35	280.3
789.8771	75.4032	956.35	483.6
790.0181	77.6634	1473.5	996.05
790.1592	79.9231	2672.6	2185.35
790.3003	82.1824	5321.75	4819.35
790.4414	84.4412	10050.9	9518.9
790.5825	86.6995	16513.05	15943.1
790.7237	88.9574	22783.85	22182.15
790.8648	91.2148	27122.55	26501
791.006	93.4717	29174.8	28535.75
791.1472	95.7282	29619.45	28972.1
791.2885	97.9842	29584.7	28937.35
791.4297	100.2398	29079.9	28428.85
791.571	102.4949	28519.5	27869.3
791.7123	104.7495	27799.15	27143.8
791.8536	107.0036	27031.25	26374.95
791.9949	109.2573	26278.4	25624.95
792.1363	111.5105	25578.65	24920.05
792.2777	113.7632	24849.35	24187.6
792.4191	116.0154	24196.5	23524.25
792.5605	118.2672	23729.75	23062.25
792.7019	120.5185	23243.75	22574.05
792.8434	122.7693	22889.9	22223.3
792.9849	125.0197	22597.35	21926.4
793.1264	127.2696	22301.05	21622.3
793.2679	129.519	22216.3	21531.8
793.4094	131.7679	22023.75	21335.15
793.551	134.0163	21906.65	21218
793.6926	136.2642	21699.15	21009.1
793.8342	138.5117	21532.2	20833.3
793.9758	140.7587	21354.6	20658
794.1175	143.0052	21165.65	20468.15
794.2591	145.2512	20944.4	20243.25
794.4008	147.4967	20710.3	20011.95
794.5425	149.7417	20574.85	19873.2
794.6842	151.9863	20475.8	19768.6
794.826	154.2304	20446.1	19733.3
794.9677	156.4739	20283.3	19569.3
795.1095	158.717	20193.25	19476.3
795.2513	160.9596	20069.65	19345.8
795.3931	163.2017	19831.1	19107.6
795.535	165.4433	19571.7	18843.75
795.6768	167.6844	19245.5	18517.3
795.8187	169.925	18950.25	18222.75
795.9606	172.1651	18605.45	17874.6
796.1025	174.4047	18315.85	17581.6
796.2445	176.6439	18062.4	17330.45
796.3864	178.8825	17803.75	17064.5
796.5284	181.1206	17635.05	16890.4
796.6704	183.3582	17506.25	16753.7
796.8124	185.5954	17378.9	16628.4
796.9544	187.832	17311.65	16555.75
797.0965	190.0681	17286.25	16529.3
797.2386	192.3037	17298.35	16536.9
797.3806	194.5388	17276.9	16515.4
797.5228	196.7734	17328.55	16565.95
797.6649	199.0075	17405.1	16638.55
797.807	201.2411	17579.4	16811.3
797.9492	203.4742	17631.05	16864.1
798.0914	205.7068	17789.65	17014.7
798.2336	207.9389	17904	17130.2
798.3758	210.1704	18069.3	17304.35
798.518	212.4015	18200.65	17448.6
798.6603	214.632	18396.15	17647.7
798.8025	216.862	18559.55	17807
798.9448	219.0915	18731	17977.35
799.0871	221.3205	18973.35	18213.15
799.2294	223.549	19249.05	18493.25
799.3718	225.777	19579.05	18826.45
799.5141	228.0044	20003.1	19243.5
799.6565	230.2314	20472.3	19715.2
799.7989	232.4578	20915.45	20150.95
799.9413	234.6837	21333.65	20562.85
800.0837	236.909	21550.25	20778.15
800.2262	239.1339	21541.35	20739.4
800.3687	241.3582	21358.4	20573.1
800.5111	243.582	21025.4	20212.65
800.6536	245.8053	20683.6	19883.05
800.7961	248.0281	20319.95	19524.45
800.9387	250.2503	20063.3	19261
801.0812	252.472	19894.65	19096.8
801.2238	254.6932	19826.4	19032
801.3664	256.9139	19718.8	18922.4
801.509	259.134	19704.25	18901.4
801.6516	261.3536	19675.95	18872.6
801.7942	263.5727	19730.5	18920.65
801.9369	265.7912	19640.9	18840.95
802.0795	268.0092	19622.9	18817.2
802.2222	270.2267	19620.55	18815.25
802.3649	272.4436	19552.4	18742.8
802.5076	274.6601	19509.65	18691.3
802.6504	276.8759	19459.85	18652.5
802.7931	279.0913	19434.8	18624.45
802.9359	281.3061	19409.5	18593
803.0787	283.5204	19513.05	18694.45
803.2215	285.7341	19597.9	18777.35
803.3643	287.9473	19801.45	18969
803.5071	290.16	20044.5	19221.55
803.6499	292.3721	20366.2	19551.85
803.7928	294.5837	20828.15	20007.7
803.9357	296.7947	21170.9	20353.45
804.0786	299.0052	21409	20587.9
804.2215	301.2152	21260.35	20438.2
804.3644	303.4246	20960.9	20144.75
804.5074	305.6334	20414.95	19596.9
804.6503	307.8418	19877.25	19054.4
804.7933	310.0495	19477.9	18653.9
804.9363	312.2568	19194.15	18368.2
805.0793	314.4635	18955.95	18125.1
805.2223	316.6696	18903.45	18071.65
805.3653	318.8752	18879.25	18038.4
805.5084	321.0802	18917.05	18085.3
805.6514	323.2847	19013.25	18181.9
805.7945	325.4887	19096.2	18263.1
805.9376	327.692	19066.55	18230.95
806.0807	329.8949	18987.35	18151.1
806.2238	332.0972	18713.5	17876.05
806.367	334.2989	18459.6	17618.15
806.5101	336.5001	18173.85	17330.2
806.6533	338.7007	17949.05	17107.2
806.7965	340.9008	17867.15	17022.5
806.9397	343.1003	17720.75	16874.55
807.0829	345.2992	17655.05	16807.7
807.2261	347.4976	17679.35	16832.7
807.3693	349.6955	17679.9	16833
807.5126	351.8927	17781.2	16928.65
807.6559	354.0895	17789	16924.75
807.7991	356.2856	17862.1	17009.4
807.9424	358.4812	17832.5	16975.25
808.0857	360.6763	17879.8	17022.3
808.2291	362.8707	17845.05	16988.65
808.3724	365.0646	17904.1	17046.1
808.5158	367.258	17924.1	17066.5
808.6591	369.4508	17908.3	17042
808.8025	371.643	18021.85	17157.3
808.9459	373.8346	18020.65	17151.6
809.0893	376.0257	17996.3	17128.95
809.2327	378.2162	17892.25	17027.6
809.3762	380.4062	17841.7	16979.3
809.5196	382.5956	17652.7	16792.85
809.6631	384.7844	17581.5	16722.65
809.8066	386.9726	17470.2	16611.05
809.9501	389.1603	17397.85	16542.5
810.0936	391.3474	17409.2	16518.45
810.2371	393.5339	17403.1	16542
810.3806	395.7199	17343.4	16486.3
810.5241	397.9052	17378.9	16520.65
810.6677	400.09	17409.5	16552.1
810.8113	402.2743	17476.55	16616.2
810.9548	404.4579	17536.35	16676.45
811.0984	406.641	17700.75	16839.45
811.2421	408.8235	17894.65	17036.05
811.3857	411.0054	18252.1	17386.9
811.5293	413.1868	18726.25	17856.75
811.673	415.3675	19081.15	18206.6
811.8166	417.5477	19317.7	18443
811.9603	419.7273	19367.35	18491.9
812.104	421.9064	19275.85	18396
812.2477	424.0848	19127	18257.55
812.3914	426.2627	18934.8	18060.1
812.5351	428.4399	18668.2	17794.75
812.6788	430.6166	18271.5	17392.1
812.8226	432.7928	17920.25	17036.45
812.9663	434.9683	17583.3	16708
813.1101	437.1432	17390.7	16517.15
813.2539	439.3176	17203.15	16334.15
813.3977	441.4914	17099.8	16234.2
813.5415	443.6645	17088.35	16219.55
813.6853	445.8371	17053.5	16179.4
813.8291	448.0091	16962.4	16086.95
813.973	450.1806	16919.45	16044.45
814.1168	452.3514	16878.15	16005.4
814.2607	454.5216	16905.7	16021.25
814.4046	456.6913	16823.35	15947.95
814.5485	458.8603	16852.65	15976.75
814.6924	461.0288	16933.2	16063.3
814.8363	463.1967	16967.8	16100.9
814.9802	465.3639	17093.85	16221.95
815.1241	467.5306	17190.6	16318.05
815.2681	469.6967	17335.95	16466.5
815.412	471.8622	17489.65	16623.2
815.556	474.0271	17668.85	16796.1
815.7	476.1914	17771.6	16893.9
815.844	478.3551	17776.8	16900.85
815.988	480.5182	17762.25	16890.85
816.132	482.6807	17765	16901.3
816.276	484.8426	17846	16987.6
816.4201	487.0039	18140.4	17274.5
816.5641	489.1647	18524.85	17649.9
816.7082	491.3248	18964.45	18085.45
816.8522	493.4843	19188.65	18317.85
816.9963	495.6432	19186.8	18316.75
817.1404	497.8015	19123.55	18235.85
817.2845	499.9592	19150.9	18261
817.4286	502.1163	19098.45	18204.95
817.5727	504.2728	18894.7	18016.5
817.7168	506.4287	18601.3	17731.3
817.861	508.5839	18161.4	17291.85
818.0051	510.7386	17859.3	16984.1
818.1493	512.8927	17682.85	16796.5
818.2935	515.0461	17567.15	16685.45
818.4377	517.199	17522.5	16635.3
818.5818	519.3512	17536.15	16648.05
818.726	521.5029	17546.8	16652.65
818.8703	523.6539	17600.1	16713.4
819.0145	525.8043	17678.2	16789.1
819.1587	527.9541	17692.2	16801.55
819.303	530.1033	17673.65	16783.55
819.4472	532.2519	17716.75	16830.9
819.5915	534.3999	17885.55	16994.6
819.7357	536.5472	18172.35	17282.55
819.88	538.694	18694.2	17809.25
820.0243	540.8401	19273.2	18382.55
820.1686	542.9856	19821.95	18923.35
820.3129	545.1305	20010.9	19103
820.4572	547.2748	19903.2	18995.45
820.6016	549.4185	19508.1	18597.6
820.7459	551.5615	19157.5	18251.45
820.8902	553.704	19021.9	18118.2
821.0346	555.8458	18943.4	18045
821.1789	557.987	18942.4	18046.45
821.3233	560.1276	18896.1	17996.6
821.4677	562.2675	18912.85	18007.8
821.6121	564.4069	18906.1	18004.25
821.7565	566.5456	18897.25	17996.2
821.9009	568.6837	18812	17920.35
822.0453	570.8212	18527.95	17632
822.1897	572.958	18232.95	17336.4
822.3342	575.0942	17993.85	17102.25
822.4786	577.2299	17832.6	16942.55
822.6231	579.3648	17826.95	16949.8
822.7675	581.4992	17871.05	17004.3
822.912	583.6329	18077.15	17208.6
823.0565	585.766	18334.55	17460.75
823.201	587.8985	18459.3	17579.35
823.3454	590.0304	18471.55	17569.65
823.4899	592.1616	18439.25	17541.25
823.6345	594.2922	18349.3	17448.85
823.779	596.4222	18210.25	17306.7
823.9235	598.5515	18056.7	17151.8
824.068	600.6802	17863.2	16961.3
824.2126	602.8083	17733	16834.75
824.3571	604.9358	17692.3	16789.9
824.5017	607.0626	17626.75	16722.5
824.6462	609.1888	17567.15	16653.4
824.7908	611.3144	17533.7	16620.7
824.9354	613.4393	17393.2	16480.7
825.08	615.5636	17287.3	16375.45
825.2246	617.6873	17220.8	16312.5
825.3692	619.8103	17132.75	16225.65
825.5138	621.9327	17053.3	16148.65
825.6584	624.0544	17045.5	16139.9
825.803	626.1756	17052.65	16149.4
825.9477	628.2961	17027.15	16119.55
826.0923	630.4159	16958.45	16052.65
826.237	632.5351	16932	16019.75
826.3816	634.6537	16879.5	15970.1
826.5263	636.7716	16865.1	15950.25
826.6709	638.8889	16876.1	15959.75
826.8156	641.0056	16916.7	16000
826.9603	643.1216	16903.2	15987.05
827.105	645.237	16976.25	16063.15
827.2497	647.3518	16976.55	16069.6
827.3944	649.4659	17011.5	16109.65
827.5391	651.5793	17030.2	16127.3
827.6838	653.6922	17003.05	16098.4
827.8285	655.8043	17001.4	16094.45
827.9733	657.9159	16978.2	16068.9
828.118	660.0268	16932.25	16025.95
828.2627	662.137	16873.75	15961.3
828.4075	664.2466	16852.3	15934.6
828.5522	666.3556	16870.75	15956.55
828.697	668.4639	16863.7	15952.1
828.8418	670.5716	16929.5	16022.9
828.9865	672.6786	17022.85	16111.65
829.1313	674.785	17073.95	16156.8
829.2761	676.8907	17153.5	16242.55
829.4209	678.9958	17225.75	16320.05
829.5657	681.1002	17186	16269.65
829.7105	683.204	17201.4	16279.45
829.8553	685.3072	17143.3	16221.55
830.0001	687.4097	17089.4	16175.5
830.1449	689.5115	17053.95	16133.8
830.2898	691.6127	17024.6	16109.45
830.4346	693.7132	16947.75	16035.65
830.5794	695.8131	16931.4	15994.95
830.7243	697.9123	16940.65	16018.4
830.8691	700.0109	16904.95	15986.5
831.014	702.1089	16892.9	15972.1
831.1588	704.2061	16933.5	16017.9
831.3037	706.3028	16956.15	16032.8
831.4486	708.3987	17047.6	16125.35
831.5935	710.4941	17087.75	16171.15
831.7383	712.5887	17300.3	16381.8
831.8832	714.6827	17555.45	16636.5
832.0281	716.7761	17940.35	17024.25
832.173	718.8688	18320.15	17402.85
832.3179	720.9608	18547.1	17621.3
832.4628	723.0522	18644.1	17714.4
832.6077	725.1429	18427.5	17502.5
832.7527	727.233	18158.95	17234.85
832.8976	729.3224	17897.45	16976.95
833.0425	731.4112	17602.5	16681.5
833.1874	733.4993	17410.85	16487.95
833.3324	735.5867	17256.8	16338.35
833.4773	737.6735	17146.8	16223.15
833.6222	739.7596	17114.2	16189.25
833.7672	741.845	17072.75	16152.9
833.9122	743.9298	17058.65	16136.1
834.0571	746.014	17053.8	16132.8
834.2021	748.0974	17105.5	16175.1
834.347	750.1802	17129.4	16199
834.492	752.2624	17095.75	16165.3
834.637	754.3439	17117.45	16188.8
834.782	756.4247	17228.85	16293.85
834.9269	758.5048	17304.6	16376.85
835.0719	760.5843	17497.75	16568.5
835.2169	762.6631	17799.4	16872.3
835.3619	764.7413	18234.35	17306.4
835.5069	766.8188	18797.9	17868.7
835.6519	768.8956	19253.4	18327.2
835.7969	770.9718	19642.8	18717.4
835.9419	773.0473	19492.65	18565.1
836.0869	775.1221	19182.8	18251.65
836.232	777.1962	18801.8	17871.7
836.377	779.2697	18608.9	17676.7
836.522	781.3426	18654.8	17705.55
836.667	783.4147	18897.25	17966.3
836.8121	785.4862	19312.6	18382.25
836.9571	787.557	19324.3	18393.95
837.1021	789.6271	18971.3	18036.85
837.2472	791.6966	18459.65	17528.7
837.3922	793.7654	17948.45	17020.4
837.5373	795.8335	17635.3	16703.9
837.6823	797.901	17440.35	16511.8
837.8274	799.9678	17378.15	16448.85
837.9724	802.0339	17430.35	16499.15
838.1175	804.0993	17486	16541.9
838.2626	806.1641	17448.45	16514.85
838.4076	808.2282	17429.1	16496.25
838.5527	810.2916	17357.85	16425.3
838.6978	812.3544	17267.75	16338.65
838.8428	814.4164	17169.4	16238.7
838.9879	816.4778	17182.2	16247.35
839.133	818.5385	17174	16239.45
839.2781	820.5986	17283.5	16346.45
839.4232	822.658	17350.1	16413.05
839.5682	824.7166	17461.55	16525.4
839.7133	826.7747	17688.7	16752.95
839.8584	828.832	17814.7	16878.85
840.0035	830.8886	17954.25	17020.95
840.1486	832.9446	18115.55	17175.95
840.2937	834.9999	18154.05	17220.5
840.4388	837.0545	18229.95	17290.95
840.5839	839.1085	18222	17285.75
840.729	841.1618	18224.2	17284.45
840.8741	843.2143	18230.3	17297.05
841.0192	845.2662	18124.2	17188.85
841.1643	847.3175	18090.45	17155.45
841.3095	849.368	17996.95	17062.2
841.4546	851.4179	17921.15	16988.5
841.5997	853.467	17762.8	16828.45
841.7448	855.5155	17638.85	16704
841.8899	857.5633	17578.55	16642.3
842.0351	859.6105	17462.45	16523.15
842.1802	861.6569	17390.3	16453.7
842.3253	863.7027	17380.05	16440.1
842.4704	865.7478	17377.15	16436.85
842.6156	867.7922	17382.55	16445.95
842.7607	869.8359	17407.95	16471.85
842.9058	871.8789	17563.05	16625.35
843.0509	873.9212	17755.05	16783.75
843.1961	875.9629	17873.75	16932
843.3412	878.0039	18105.25	17165.25
843.4863	880.0441	18236.2	17300.65
843.6315	882.0837	18219.8	17284
843.7766	884.1226	18148.95	17209
843.9218	886.1609	18008.3	17073.6
844.0669	888.1984	17931.1	16992.3
844.212	890.2352	17956	17016.55
844.3572	892.2714	17898.9	16960.6
844.5023	894.3069	17926.8	16983.6
844.6475	896.3416	17834.95	16894.7
844.7926	898.3757	17833.55	16890.3
844.9377	900.4091	17857.1	16915.6
845.0829	902.4418	17878.5	16931.05
845.228	904.4739	17851.8	16904.6
845.3732	906.5052	17862.7	16922.3
845.5183	908.5358	17758.95	16814.1
845.6635	910.5658	17640	16695.35
845.8086	912.595	17489.85	16551.55
845.9538	914.6236	17338.5	16395.2
846.0989	916.6515	17310.85	16370.25
846.2441	918.6786	17298	16357.5
846.3892	920.7051	17371.35	16425.5
846.5344	922.7309	17527.1	16584.8
846.6795	924.756	17549.9	16608.95
846.8246	926.7804	17673.8	16729.75
846.9698	928.8041	17599.2	16656.35
847.1149	930.8272	17665.55	16721.7
847.2601	932.8495	17542.25	16599.6
847.4052	934.8711	17531.2	16586.05
847.5504	936.892	17413.45	16468
847.6955	938.9123	17270.1	16328.35
847.8407	940.9318	17105.75	16163.3
847.9858	942.9506	16989.8	16051
848.131	944.9688	16893.7	15951.3
848.2761	946.9862	16858.8	15919.65
848.4213	949.003	16779.6	15838.75
848.5664	951.019	16771	15828.7
848.7115	953.0344	16836.6	15893.95
848.8567	955.0491	16849.35	15905
849.0018	957.063	16978.85	16036
849.147	959.0763	17082.7	16140.2
849.2921	961.0888	17136.05	16193.45
849.4373	963.1007	17225.5	16282.5
849.5824	965.1119	17284.35	16348.85
849.7275	967.1223	17330.4	16404.1
849.8727	969.1321	17357.8	16430.85
850.0178	971.1412	17386.5	16451.45
850.1629	973.1495	17411.1	16472.9
850.3081	975.1572	17464.1	16488.1
850.4532	977.1641	17519.65	16573.7
850.5983	979.1704	17463.2	16520.15
850.7435	981.1759	17498.2	16548.9
850.8886	983.1808	17562.8	16620
851.0337	985.1849	17639.3	16685.2
851.1788	987.1884	17787	16843.8
851.324	989.1911	17990.85	17049.25
851.4691	991.1932	18105.45	17166.1
851.6142	993.1945	18156.75	17216.75
851.7593	995.1951	18085.75	17143.75
851.9045	997.1951	18090.45	17140.35
852.0496	999.1943	18025.95	17080.9
852.1947	1001.1928	17957.35	17016.1
852.3398	1003.1906	17943.7	17004.4
852.4849	1005.1877	18014.9	17071.75
852.63	1007.1841	17945.95	17006.95
852.7751	1009.1798	17863.55	16923.1
852.9202	1011.1748	17673	16730.25
853.0653	1013.1691	17488.75	16547.65
853.2104	1015.1627	17237.25	16300.2
853.3555	1017.1556	17023.45	16084.05
853.5006	1019.1477	16971.95	16035.2
853.6457	1021.1392	16842.15	15908.95
853.7908	1023.1299	16855.55	15924.25
853.9359	1025.12	16849.85	15924.15
854.081	1027.1093	16876.5	15960.2
854.2261	1029.0979	16976	16063.15
854.3712	1031.0859	17061.1	16141.7
854.5163	1033.0731	17042.15	16116.05
854.6613	1035.0596	16978.95	16047.65
854.8064	1037.0454	16836.7	15901.45
854.9515	1039.0304	16739.7	15804.9
855.0965	1041.0148	16597.6	15656.15
855.2416	1042.9985	16517.55	15574.8
855.3867	1044.9814	16494.4	15557
855.5317	1046.9636	16420.45	15481.3
855.6768	1048.9452	16425.5	15486.1
855.8219	1050.926	16428.9	15489.55
855.9669	1052.9061	16428.65	15489.35
856.112	1054.8855	16422.15	15483.5
856.257	1056.8642	16424.75	15485.4
856.4021	1058.8421	16482.6	15537.75
856.5471	1060.8194	16521.7	15583.4
856.6921	1062.7959	16534.15	15592.55
856.8372	1064.7717	16585.6	15643.9
856.9822	1066.7469	16601.7	15660.95
857.1272	1068.7213	16634.75	15692.15
857.2723	1070.695	16618.4	15680.05
857.4173	1072.6679	16501.95	15561.45
857.5623	1074.6402	16477.55	15537.65
857.7073	1076.6117	16464.75	15519.3
857.8523	1078.5826	16484.05	15546.55
857.9973	1080.5527	16478.4	15532.75
858.1423	1082.5221	16596.75	15657.95
858.2873	1084.4908	16749.95	15812
858.4323	1086.4587	16973.75	16031.85
858.5773	1088.426	17120.9	16180.25
858.7223	1090.3925	17095.65	16152.45
858.8673	1092.3584	17070.7	16129.35
859.0123	1094.3235	16941.6	16003.8
859.1573	1096.2879	16853.3	15913.65
859.3022	1098.2515	16800.9	15862.75
859.4472	1100.2145	16888.7	15949.4
859.5922	1102.1767	16935.6	15993.3
859.7371	1104.1382	17089.8	16149.45
859.8821	1106.099	17294.45	16353.7
860.027	1108.0591	17499.15	16557.95
860.172	1110.0185	17635.8	16694.95
860.3169	1111.9771	17683.7	16743.1
860.4619	1113.9351	17465.55	16525.05
860.6068	1115.8923	17200.35	16263.9
860.7517	1117.8488	16894.9	15954.95
860.8967	1119.8045	16578.5	15643.25
861.0416	1121.7596	16449.7	15512.25
861.1865	1123.7139	16345.3	15412.15
861.3314	1125.6675	16349.2	15412.8
861.4763	1127.6204	16449.8	15511.2
861.6212	1129.5726	16427.55	15485.8
861.7661	1131.524	16433.15	15494.9
861.911	1133.4748	16459.3	15521.15
862.0559	1135.4248	16446.35	15504.9
862.2008	1137.3741	16451.75	15513.55
862.3457	1139.3226	16387	15446.45
862.4905	1141.2705	16357.65	15420.4
862.6354	1143.2176	16323.85	15378.2
862.7803	1145.164	16287.8	15346.45
862.9251	1147.1097	16319.5	15377.7
863.07	1149.0546	16333.1	15391.4
863.2148	1150.9989	16220.7	15281.45
863.3597	1152.9424	16125.95	15185.15
863.5045	1154.8852	15934.1	14994.1
863.6493	1156.8272	15834.55	14894.05
863.7942	1158.7686	15769.4	14826.5
863.939	1160.7092	15690.6	14748.25
864.0838	1162.6491	15677.95	14737
864.2286	1164.5883	15753.85	14815.6
864.3734	1166.5267	15830.1	14890.1
864.5182	1168.4644	16005.25	15066.55
864.663	1170.4014	16142.35	15196.65
864.8078	1172.3377	16414.3	15479.2
864.9526	1174.2732	16620.7	15684.5
865.0974	1176.2081	16841.3	15901.1
865.2421	1178.1421	17083.3	16142.7
865.3869	1180.0755	17296.1	16360.55
865.5317	1182.0082	17318.85	16384.65
865.6764	1183.9401	17313.55	16378.05
