Software Version:	3.9.2.0
Unit SN:	10000200
Spectrometer SN:	6960
Date:	3/8/2024 11:21:25 AM
Data Line Index:	25
Spectral Points:	2048
Integration time (ms):	125
Averages:	20
Delay (ms):	30000
Sequence Number:	1
Processing:	dark subtract
Laser Power (mW):	300
Laser Current (mA):	823
Laser Diode Temp (C):	25.1
Laser Case Temp (C):	24.9
System Temp (C):	24.8
Spectrometer Temp (C):	22.6
CCD Temp (C):	0.005
Secondary Temp (C):	20.007
Heatsink Temp (C):	19.677
CCDPCB Temp (C):	33.239
SecondaryPCB Temp (C):	26.736

Wavelength	RamanShift	Raw Counts	Dark Subtracted
787.061	30.1047	418.25	7.1
787.2016	32.3739	417.45	10.6
787.3422	34.6426	419.45	10.9
787.4828	36.9109	419.65	8.7
787.6235	39.1787	424.2	6.05
787.7642	41.4461	429.35	10.65
787.9049	43.7131	433.65	9.95
788.0456	45.9796	437.8	12.75
788.1863	48.2456	442.75	13.7
788.3271	50.5112	446.05	11.65
788.4679	52.7764	449	14
788.6087	55.0411	456.25	15.1
788.7496	57.3054	458.6	13.35
788.8904	59.5692	462.15	14.1
789.0313	61.8326	468.8	18.7
789.1722	64.0955	471.15	17.25
789.3132	66.3579	481.4	23.8
789.4541	68.6199	485.85	23.85
789.5951	70.8815	496.5	29.6
789.7361	73.1426	517.15	47.8
789.8771	75.4032	558.15	85.2
790.0181	77.6634	649.95	172.6
790.1592	79.9231	866.3	386.9
790.3003	82.1824	1305.55	818.75
790.4414	84.4412	2039.25	1537.55
790.5825	86.6995	2966.2	2450.9
790.7237	88.9574	3868.3	3339.5
790.8648	91.2148	4469.45	3934.25
791.006	93.4717	4751.9	4208.7
791.1472	95.7282	4794.1	4245.8
791.2885	97.9842	4785.2	4238.7
791.4297	100.2398	4729.85	4178.05
791.571	102.4949	4661.6	4103.85
791.7123	104.7495	4618.55	4060.9
791.8536	107.0036	4567.25	4009.2
791.9949	109.2573	4487.95	3928.5
792.1363	111.5105	4379.05	3819
792.2777	113.7632	4262.05	3697.85
792.4191	116.0154	4153.85	3579
792.5605	118.2672	4022.6	3455.1
792.7019	120.5185	3883.4	3314.6
792.8434	122.7693	3766.9	3195.5
792.9849	125.0197	3663.45	3084.4
793.1264	127.2696	3560.9	2980.6
793.2679	129.519	3510.3	2926.35
793.4094	131.7679	3458.9	2874.9
793.551	134.0163	3452.55	2862.15
793.6926	136.2642	3427.6	2833.05
793.8342	138.5117	3435.75	2842.25
793.9758	140.7587	3395.5	2800.9
794.1175	143.0052	3349.1	2749.5
794.2591	145.2512	3287.8	2690.25
794.4008	147.4967	3222.65	2621.8
794.5425	149.7417	3169.4	2565.55
794.6842	151.9863	3121.55	2510.5
794.826	154.2304	3107.45	2492.55
794.9677	156.4739	3083.35	2466.6
795.1095	158.717	3093.7	2473.8
795.2513	160.9596	3134.05	2515.35
795.3931	163.2017	3174.2	2550.15
795.535	165.4433	3200.8	2575.3
795.6768	167.6844	3197.35	2571.9
795.8187	169.925	3164.15	2530.5
795.9606	172.1651	3097.1	2463
796.1025	174.4047	3037.35	2400.4
796.2445	176.6439	2984.1	2346.95
796.3864	178.8825	2942.65	2301.55
796.5284	181.1206	2933.35	2287.55
796.6704	183.3582	2913.5	2263.75
796.8124	185.5954	2914	2262.05
796.9544	187.832	2907.9	2251.75
797.0965	190.0681	2910.7	2251.55
797.2386	192.3037	2931.8	2269
797.3806	194.5388	2928.2	2263.45
797.5228	196.7734	2942	2275.9
797.6649	199.0075	2946.25	2278.9
797.807	201.2411	2983.45	2316.15
797.9492	203.4742	3022.05	2352.2
798.0914	205.7068	3057.65	2381
798.2336	207.9389	3080.55	2404.8
798.3758	210.1704	3100.4	2432.55
798.518	212.4015	3074.05	2411.25
798.6603	214.632	3083.65	2428.05
798.8025	216.862	3087.85	2432.7
798.9448	219.0915	3101.2	2450.85
799.0871	221.3205	3122	2463.25
799.2294	223.549	3130.2	2479
799.3718	225.777	3135.4	2484.75
799.5141	228.0044	3128	2464.85
799.6565	230.2314	3133.1	2471
799.7989	232.4578	3102.35	2434.05
799.9413	234.6837	3092.15	2416.6
800.0837	236.909	3092.2	2413.55
800.2262	239.1339	3074.65	2371.4
800.3687	241.3582	3063.5	2377.4
800.5111	243.582	3090.3	2373.5
800.6536	245.8053	3090.3	2384.1
800.7961	248.0281	3093.4	2393.5
800.9387	250.2503	3099.5	2396.2
801.0812	252.472	3105.6	2397.6
801.2238	254.6932	3107.65	2403.1
801.3664	256.9139	3127.8	2420.3
801.509	259.134	3140.75	2430.2
801.6516	261.3536	3160.3	2453.5
801.7942	263.5727	3204.5	2493.3
801.9369	265.7912	3261.45	2552.35
802.0795	268.0092	3346	2637.85
802.2222	270.2267	3421.35	2706.7
802.3649	272.4436	3483.55	2769.75
802.5076	274.6601	3527.6	2803.25
802.6504	276.8759	3553.9	2835.2
802.7931	279.0913	3593.35	2873.65
802.9359	281.3061	3605	2884.1
803.0787	283.5204	3624.5	2897.85
803.2215	285.7341	3663.05	2935.75
803.3643	287.9473	3702.5	2976.8
803.5071	290.16	3704.8	2974.55
803.6499	292.3721	3647	2923.9
803.7928	294.5837	3590.2	2863.65
803.9357	296.7947	3548.55	2824.7
804.0786	299.0052	3520.4	2793.05
804.2215	301.2152	3504.7	2777
804.3644	303.4246	3497.55	2773.35
804.5074	305.6334	3470.7	2741.5
804.6503	307.8418	3456.5	2725.45
804.7933	310.0495	3431.35	2700.8
804.9363	312.2568	3392.1	2661.25
805.0793	314.4635	3327.2	2593.85
805.2223	316.6696	3267.9	2530.95
805.3653	318.8752	3202.15	2455.2
805.5084	321.0802	3162.85	2422.15
805.6514	323.2847	3153	2413.55
805.7945	325.4887	3151.45	2410.05
805.9376	327.692	3175.1	2431.7
806.0807	329.8949	3226.8	2480.05
806.2238	332.0972	3293.55	2546.05
806.367	334.2989	3345.45	2598.2
806.5101	336.5001	3350.15	2602
806.6533	338.7007	3320.15	2569.45
806.7965	340.9008	3251.4	2498.55
806.9397	343.1003	3176.35	2419.65
807.0829	345.2992	3111.8	2355.2
807.2261	347.4976	3046.85	2289.95
807.3693	349.6955	3009.4	2250.1
807.5126	351.8927	2973.1	2210.9
807.6559	354.0895	2971.95	2201.05
807.7991	356.2856	2941.6	2177.45
807.9424	358.4812	2933.6	2170.7
808.0857	360.6763	2918.15	2150.7
808.2291	362.8707	2923.1	2157.15
808.3724	365.0646	2935.95	2166.2
808.5158	367.258	2937.85	2164.35
808.6591	369.4508	2946.7	2173.3
808.8025	371.643	2996.25	2220.3
808.9459	373.8346	3028.4	2252
809.0893	376.0257	3060.75	2279.1
809.2327	378.2162	3108.75	2331.9
809.3762	380.4062	3116.9	2341.65
809.5196	382.5956	3091.95	2317.05
809.6631	384.7844	3052.55	2281.5
809.8066	386.9726	2982.95	2212.15
809.9501	389.1603	2933.25	2163.95
810.0936	391.3474	2937.55	2134.4
810.2371	393.5339	2912.85	2140.25
810.3806	395.7199	2912.35	2139.9
810.5241	397.9052	2946.4	2175.45
810.6677	400.09	3002.65	2230.25
810.8113	402.2743	3066.95	2294.15
810.9548	404.4579	3110.75	2335.85
811.0984	406.641	3165.35	2387.85
811.2421	408.8235	3221.1	2441.85
811.3857	411.0054	3281.55	2501.45
811.5293	413.1868	3349.25	2565.2
811.673	415.3675	3407.45	2620.8
811.8166	417.5477	3397.7	2607.95
811.9603	419.7273	3338.15	2549.95
812.104	421.9064	3253.85	2457.15
812.2477	424.0848	3179.85	2388.35
812.3914	426.2627	3101.05	2311.5
812.5351	428.4399	3011.1	2217.3
812.6788	430.6166	2941.55	2141.8
812.8226	432.7928	2881.05	2083.5
812.9663	434.9683	2832.05	2034.6
813.1101	437.1432	2796.75	1998.7
813.2539	439.3176	2770.8	1973.45
813.3977	441.4914	2747.6	1951.45
813.5415	443.6645	2740.5	1937.95
813.6853	445.8371	2743.25	1945.35
813.8291	448.0091	2757.4	1958.45
813.973	450.1806	2733.5	1934.05
814.1168	452.3514	2724.2	1921.4
814.2607	454.5216	2745.9	1934.55
814.4046	456.6913	2709.2	1905.3
814.5485	458.8603	2730.45	1929.05
814.6924	461.0288	2749.9	1950.5
814.8363	463.1967	2741.45	1940.3
814.9802	465.3639	2742.5	1938.8
815.1241	467.5306	2734.85	1929.75
815.2681	469.6967	2717.2	1912.95
815.412	471.8622	2704.45	1900.4
815.556	474.0271	2703.55	1900.3
815.7	476.1914	2706.3	1899.45
815.844	478.3551	2690.5	1884.55
815.988	480.5182	2691.95	1886.65
816.132	482.6807	2705.25	1899.5
816.276	484.8426	2707.35	1902.35
816.4201	487.0039	2775.55	1969.55
816.5641	489.1647	2853.05	2046.15
816.7082	491.3248	2913.65	2104.7
816.8522	493.4843	2927.7	2120
816.9963	495.6432	2920.3	2110.55
817.1404	497.8015	2876.1	2062.7
817.2845	499.9592	2832.2	2020.2
817.4286	502.1163	2758.4	1944.55
817.5727	504.2728	2702.15	1888.7
817.7168	506.4287	2652.7	1840.55
817.861	508.5839	2630.45	1817.9
818.0051	510.7386	2623.25	1810.3
818.1493	512.8927	2642.25	1818.95
818.2935	515.0461	2641.4	1826.3
818.4377	517.199	2658.8	1840.45
818.5818	519.3512	2715.45	1898.05
818.726	521.5029	2808.5	1985.45
818.8703	523.6539	2886.7	2066.85
819.0145	525.8043	2910	2088.15
819.1587	527.9541	2833.55	2010.1
819.303	530.1033	2733.8	1912.85
819.4472	532.2519	2665.8	1844.35
819.5915	534.3999	2647.4	1822.4
819.7357	536.5472	2631.7	1808.9
819.88	538.694	2624.25	1800.45
820.0243	540.8401	2637.45	1812.3
820.1686	542.9856	2663.75	1838.3
820.3129	545.1305	2696.4	1870.5
820.4572	547.2748	2708.05	1879.4
820.6016	549.4185	2719.1	1890.65
820.7459	551.5615	2714.25	1883.45
820.8902	553.704	2743.95	1917.55
821.0346	555.8458	2772.35	1944.75
821.1789	557.987	2796.9	1969.85
821.3233	560.1276	2829.15	2002.1
821.4677	562.2675	2915.85	2086.6
821.6121	564.4069	3003	2172.15
821.7565	566.5456	3067.4	2237.35
821.9009	568.6837	3037.6	2206.7
822.0453	570.8212	2930.95	2103.8
822.1897	572.958	2808.8	1979.65
822.3342	575.0942	2731.45	1900.55
822.4786	577.2299	2678.9	1847.6
822.6231	579.3648	2639.8	1810.65
822.7675	581.4992	2622.1	1797.35
822.912	583.6329	2638.3	1812.85
823.0565	585.766	2665	1839.05
823.201	587.8985	2723.1	1894.35
823.3454	590.0304	2807.75	1966.2
823.4899	592.1616	2854.9	2019.65
823.6345	594.2922	2852.85	2017.9
823.779	596.4222	2811.8	1975.1
823.9235	598.5515	2737.55	1901.7
824.068	600.6802	2652.85	1818.15
824.2126	602.8083	2589.55	1753.2
824.3571	604.9358	2551.25	1712.1
824.5017	607.0626	2559	1722.25
824.6462	609.1888	2570.9	1730.1
824.7908	611.3144	2602.3	1762.35
824.9354	613.4393	2654.4	1811.25
825.08	615.5636	2723.9	1882.85
825.2246	617.6873	2794.1	1956.65
825.3692	619.8103	2846	2005.45
825.5138	621.9327	2845.5	2002.65
825.6584	624.0544	2795.55	1958
825.803	626.1756	2715.6	1875
825.9477	628.2961	2643.4	1800.15
826.0923	630.4159	2611.6	1767.7
826.237	632.5351	2595.7	1750.25
826.3816	634.6537	2580.95	1735.6
826.5263	636.7716	2569.75	1724.5
826.6709	638.8889	2553.9	1706.4
826.8156	641.0056	2564.1	1716.8
826.9603	643.1216	2589.15	1741.5
827.105	645.237	2597.25	1750.75
827.2497	647.3518	2570.2	1724.9
827.3944	649.4659	2536.85	1692.75
827.5391	651.5793	2508.9	1664.35
827.6838	653.6922	2486.05	1642.1
827.8285	655.8043	2468.25	1624.35
827.9733	657.9159	2450.85	1600.75
828.118	660.0268	2443.4	1592.65
828.2627	662.137	2447.9	1597.8
828.4075	664.2466	2441.05	1589
828.5522	666.3556	2443.35	1592.95
828.697	668.4639	2437.75	1586.15
828.8418	670.5716	2431.15	1582.7
828.9865	672.6786	2429.55	1581.2
829.1313	674.785	2405.1	1553.75
829.2761	676.8907	2395.7	1545.75
829.4209	678.9958	2391	1543.4
829.5657	681.1002	2396.85	1542.05
829.7105	683.204	2400.85	1542.35
829.8553	685.3072	2390.75	1537.85
830.0001	687.4097	2387.4	1536.5
830.1449	689.5115	2394.85	1540.15
830.2898	691.6127	2389.1	1537
830.4346	693.7132	2377.7	1526.65
830.5794	695.8131	2397.8	1531.2
830.7243	697.9123	2394.85	1538.45
830.8691	700.0109	2401.4	1543.55
831.014	702.1089	2404.75	1552.8
831.1588	704.2061	2423.3	1567.35
831.3037	706.3028	2450.1	1592
831.4486	708.3987	2478.1	1618.85
831.5935	710.4941	2509.3	1654.25
831.7383	712.5887	2515.9	1659.75
831.8832	714.6827	2496.05	1637.45
832.0281	716.7761	2487.1	1632.45
832.173	718.8688	2483.1	1628.2
832.3179	720.9608	2483.15	1618.45
832.4628	723.0522	2510.35	1646.2
832.6077	725.1429	2531.35	1670.85
832.7527	727.233	2579.55	1719.05
832.8976	729.3224	2655.4	1795.9
833.0425	731.4112	2734.2	1872.45
833.1874	733.4993	2756.3	1891.9
833.3324	735.5867	2697.2	1834.9
833.4773	737.6735	2592.6	1731.65
833.6222	739.7596	2509.85	1645.95
833.7672	741.845	2464.15	1602.05
833.9122	743.9298	2437.45	1573.8
834.0571	746.014	2449.9	1588.65
834.2021	748.0974	2465.35	1600.5
834.347	750.1802	2471	1606.65
834.492	752.2624	2459.4	1595.7
834.637	754.3439	2440.4	1577.6
834.782	756.4247	2448.45	1572.45
834.9269	758.5048	2444.35	1580.25
835.0719	760.5843	2465.15	1597.3
835.2169	762.6631	2510.1	1645.15
835.3619	764.7413	2579.45	1712.8
835.5069	766.8188	2684.6	1816.35
835.6519	768.8956	2804.85	1938.2
835.7969	770.9718	2882.85	2014.7
835.9419	773.0473	2869.65	2004.65
836.0869	775.1221	2820.85	1955.8
836.232	777.1962	2796.25	1928.05
836.377	779.2697	2877	2007.95
836.522	781.3426	3023.85	2137.65
836.667	783.4147	3121.15	2249.65
836.8121	785.4862	3124	2258.05
836.9571	787.557	3005.6	2134.3
837.1021	789.6271	2836.75	1966.85
837.2472	791.6966	2648.95	1780.05
837.3922	793.7654	2512.6	1644.75
837.5373	795.8335	2440.75	1573.05
837.6823	797.901	2390.1	1521.05
837.8274	799.9678	2379.65	1508.4
837.9724	802.0339	2375.6	1506.9
838.1175	804.0993	2385.65	1504.9
838.2626	806.1641	2374.6	1505
838.4076	808.2282	2350.7	1477.45
838.5527	810.2916	2323.95	1454.4
838.6978	812.3544	2296.35	1428.5
838.8428	814.4164	2302.3	1435
838.9879	816.4778	2310.15	1439.15
839.133	818.5385	2319.3	1448.95
839.2781	820.5986	2358.3	1489.45
839.4232	822.658	2427	1552.85
839.5682	824.7166	2516.8	1645.95
839.7133	826.7747	2642.3	1770.45
839.8584	828.832	2739.65	1865.8
840.0035	830.8886	2823.5	1948.45
840.1486	832.9446	2852.95	1978.95
840.2937	834.9999	2812.2	1939.65
840.4388	837.0545	2735.7	1861.15
840.5839	839.1085	2619.9	1744.1
840.729	841.1618	2509.2	1633.95
840.8741	843.2143	2432.7	1560.05
841.0192	845.2662	2384.1	1510.1
841.1643	847.3175	2365.65	1492.4
841.3095	849.368	2344.7	1472.35
841.4546	851.4179	2338.95	1466.1
841.5997	853.467	2338.55	1464.35
841.7448	855.5155	2346.9	1471.1
841.8899	857.5633	2360.95	1486.65
842.0351	859.6105	2347.15	1471.8
842.1802	861.6569	2341.1	1467.85
842.3253	863.7027	2311.75	1437.4
842.4704	865.7478	2296.85	1419.55
842.6156	867.7922	2269.95	1396.25
842.7607	869.8359	2271.55	1393.6
842.9058	871.8789	2273.45	1396.2
843.0509	873.9212	2286.15	1377.4
843.1961	875.9629	2267.05	1391.05
843.3412	878.0039	2286.25	1407.5
843.4863	880.0441	2292.6	1417.35
843.6315	882.0837	2325.9	1447.8
843.7766	884.1226	2339.45	1461.25
843.9218	886.1609	2389.5	1514.35
844.0669	888.1984	2461.75	1585.05
844.212	890.2352	2533.45	1657.8
844.3572	892.2714	2550.85	1670.2
844.5023	894.3069	2521.9	1645.25
844.6475	896.3416	2439.4	1560.45
844.7926	898.3757	2378.5	1501.45
844.9377	900.4091	2346.95	1467.7
845.0829	902.4418	2358.4	1475.75
845.228	904.4739	2384.3	1502.35
845.3732	906.5052	2397.55	1517.75
845.5183	908.5358	2410.25	1532.6
845.6635	910.5658	2376.15	1495.3
845.8086	912.595	2330.95	1451.45
845.9538	914.6236	2285.65	1405.8
846.0989	916.6515	2232.8	1353.75
846.2441	918.6786	2213.65	1329.8
846.3892	920.7051	2193.75	1312.7
846.5344	922.7309	2206.65	1325.6
846.6795	924.756	2196.6	1313.85
846.8246	926.7804	2223.4	1342.7
846.9698	928.8041	2231.15	1350.8
847.1149	930.8272	2255.45	1375.55
847.2601	932.8495	2253.4	1370.5
847.4052	934.8711	2278	1395.45
847.5504	936.892	2277.15	1397.6
847.6955	938.9123	2310.55	1427.2
847.8407	940.9318	2339.7	1457.5
847.9858	942.9506	2357.25	1473.5
848.131	944.9688	2349.7	1467.2
848.2761	946.9862	2329.95	1447.55
848.4213	949.003	2287.35	1403.55
848.5664	951.019	2249.5	1368.75
848.7115	953.0344	2216	1332.8
848.8567	955.0491	2203.5	1319.35
849.0018	957.063	2190.25	1308.6
849.147	959.0763	2183.25	1301.9
849.2921	961.0888	2173.95	1290.75
849.4373	963.1007	2179.6	1297.05
849.5824	965.1119	2170.4	1291.75
849.7275	967.1223	2151.45	1272.05
849.8727	969.1321	2147.8	1268.1
850.0178	971.1412	2138.3	1260.7
850.1629	973.1495	2140.9	1260
850.3081	975.1572	2171.7	1257.55
850.4532	977.1641	2146.55	1262.15
850.5983	979.1704	2147.2	1263.25
850.7435	981.1759	2144.05	1257.95
850.8886	983.1808	2135.15	1251.5
851.0337	985.1849	2121	1221.8
851.1788	987.1884	2118.85	1232.9
851.324	989.1911	2117.45	1230.7
851.4691	991.1932	2130.05	1247.15
851.6142	993.1945	2145.4	1264.25
851.7593	995.1951	2133.2	1247.55
851.9045	997.1951	2128.35	1238.85
852.0496	999.1943	2114.9	1230.8
852.1947	1001.1928	2124.35	1241.95
852.3398	1003.1906	2135.7	1251.5
852.4849	1005.1877	2180.6	1298.25
852.63	1007.1841	2208.1	1321.1
852.7751	1009.1798	2235.3	1351.1
852.9202	1011.1748	2221.25	1336.95
853.0653	1013.1691	2185.9	1301.8
853.2104	1015.1627	2135.05	1249.05
853.3555	1017.1556	2096.1	1209.85
853.5006	1019.1477	2069.8	1184.7
853.6457	1021.1392	2046.1	1163.4
853.7908	1023.1299	2041	1160
853.9359	1025.12	2040.8	1157.3
854.081	1027.1093	2045.75	1166.85
854.2261	1029.0979	2067.7	1192.9
854.3712	1031.0859	2101.95	1224.25
854.5163	1033.0731	2118.75	1236.9
854.6613	1035.0596	2119.25	1234.05
854.8064	1037.0454	2114.5	1229.15
854.9515	1039.0304	2089.55	1202.25
855.0965	1041.0148	2068.25	1183.5
855.2416	1042.9985	2031.05	1145.25
855.3867	1044.9814	2024.55	1136.85
855.5317	1046.9636	2007.3	1119.1
855.6768	1048.9452	2023.8	1138.05
855.8219	1050.926	2045.5	1160
855.9669	1052.9061	2068.55	1185.25
856.112	1054.8855	2082.75	1195.85
856.257	1056.8642	2068.2	1181.25
856.4021	1058.8421	2077.35	1186.3
856.5471	1060.8194	2071.15	1180.35
856.6921	1062.7959	2066.3	1179.15
856.8372	1064.7717	2060.7	1173.2
856.9822	1066.7469	2059.95	1172.25
857.1272	1068.7213	2057.65	1168
857.2723	1070.695	2082.25	1198.1
857.4173	1072.6679	2102.6	1216.05
857.5623	1074.6402	2140.85	1254.3
857.7073	1076.6117	2170.85	1276.75
857.8523	1078.5826	2133.35	1247.25
857.9973	1080.5527	2092.05	1201
858.1423	1082.5221	2034.65	1147.6
858.2873	1084.4908	1996.9	1110
858.4323	1086.4587	1982.6	1093.45
858.5773	1088.426	1969.55	1082.25
858.7223	1090.3925	1968.05	1074.5
858.8673	1092.3584	1976.7	1088.2
859.0123	1094.3235	1982.55	1097.4
859.1573	1096.2879	2004.1	1114.75
859.3022	1098.2515	2037.65	1150.9
859.4472	1100.2145	2067.35	1180.15
859.5922	1102.1767	2113.35	1221.2
859.7371	1104.1382	2171.95	1282.7
859.8821	1106.099	2235.3	1344.35
860.027	1108.0591	2301.7	1415.7
860.172	1110.0185	2358.55	1469.1
860.3169	1111.9771	2405	1518.45
860.4619	1113.9351	2473.9	1585.15
860.6068	1115.8923	2559.9	1671.3
860.7517	1117.8488	2604.25	1713.85
860.8967	1119.8045	2556	1667.5
861.0416	1121.7596	2432.35	1541.55
861.1865	1123.7139	2288.15	1400.25
861.3314	1125.6675	2195.2	1306
861.4763	1127.6204	2199.4	1312.25
861.6212	1129.5726	2212.65	1325.9
861.7661	1131.524	2228.5	1341.6
861.911	1133.4748	2178.35	1288.55
862.0559	1135.4248	2097.1	1206.25
862.2008	1137.3741	2025.3	1137.55
862.3457	1139.3226	1993.9	1102.95
862.4905	1141.2705	1980.15	1091.55
862.6354	1143.2176	2008.6	1113.5
862.7803	1145.164	2022.2	1132.9
862.9251	1147.1097	2019.05	1127.15
863.07	1149.0546	1992.8	1104.25
863.2148	1150.9989	1952.75	1063.95
863.3597	1152.9424	1926.45	1035.35
863.5045	1154.8852	1911	1021.8
863.6493	1156.8272	1905.05	1016.8
863.7942	1158.7686	1894.7	998.25
863.939	1160.7092	1901.1	1007.5
864.0838	1162.6491	1898.05	1007.15
864.2286	1164.5883	1908.8	1019.95
864.3734	1166.5267	1935.75	1045
864.5182	1168.4644	1969.5	1080.05
864.663	1170.4014	1991.8	1099.25
864.8078	1172.3377	2049.8	1162.55
864.9526	1174.2732	2111.9	1222.8
865.0974	1176.2081	2225.1	1338.8
865.2421	1178.1421	2393.15	1503
865.3869	1180.0755	2555.65	1667.5
865.5317	1182.0082	2662.75	1776
865.6764	1183.9401	2666.25	1777.6
865.8212	1185.8713	2537.6	1650
865.9659	1187.8017	2359.4	1474.7
866.1106	1189.7315	2193.3	1308.2
866.2554	1191.6605	2112.1	1200.7
866.4001	1193.5888	2027.8	1142.6
866.5448	1195.5163	1988.4	1100.9
866.6895	1197.4432	1962.6	1071
866.8342	1199.3693	1934.25	1048
866.9789	1201.2947	1914.75	1021.65
867.1236	1203.2193	1901.6	1010.55
867.2683	1205.1432	1905.4	1016.1
867.413	1207.0664	1904.35	1013.7
867.5576	1208.9889	1909.45	1015.65
867.7023	1210.9106	1891.1	1001.6
867.847	1212.8316	1901.8	1013.65
867.9916	1214.7519	1924.55	1026.5
868.1363	1216.6715	1931.6	1041.75
868.2809	1218.5903	1942.9	1051.75
868.4255	1220.5084	1956.6	1066.75
868.5701	1222.4257	1983.3	1095.25
868.7148	1224.3424	1999.85	1112.55
868.8594	1226.2583	2018.85	1122.75
869.004	1228.1735	2055.25	1164.2
869.1486	1230.0879	2105.15	1215.05
869.2932	1232.0016	2157.85	1269.05
869.4377	1233.9146	2198.4	1306.5
869.5823	1235.8269	2225.75	1334.7
869.7269	1237.7384	2231.75	1342.95
869.8715	1239.6492	2232.2	1341.55
870.016	1241.5592	2260.2	1366.95
