Software Version:	3.9.2.0
Unit SN:	10000200
Spectrometer SN:	6960
Date:	3/8/2024 2:04:20 PM
Data Line Index:	25
Spectral Points:	2048
Integration time (ms):	125
Averages:	20
Delay (ms):	30000
Sequence Number:	1
Processing:	dark subtract
Laser Power (mW):	305
Laser Current (mA):	823
Laser Diode Temp (C):	25.1
Laser Case Temp (C):	26.2
System Temp (C):	26.2
Spectrometer Temp (C):	24.1
CCD Temp (C):	0.01
Secondary Temp (C):	20.011
Heatsink Temp (C):	21.057
CCDPCB Temp (C):	36.174
SecondaryPCB Temp (C):	29.426

Wavelength	RamanShift	Raw Counts	Dark Subtracted
787.061	30.1047	462.25	54.7
787.2016	32.3739	461.35	56.9
787.3422	34.6426	468.5	62.3
787.4828	36.9109	474.4	65.5
787.6235	39.1787	485.35	72.6
787.7642	41.4461	491.5	75.7
787.9049	43.7131	504	84.4
788.0456	45.9796	511.8	90.15
788.1863	48.2456	520	93.85
788.3271	50.5112	528.9	97.8
788.4679	52.7764	538.55	102.75
788.6087	55.0411	555.05	116.5
788.7496	57.3054	561.7	117.2
788.8904	59.5692	573.35	127.5
789.0313	61.8326	582.55	136.15
789.1722	64.0955	593.45	139.9
789.3132	66.3579	615.2	159.1
789.4541	68.6199	636.2	176.6
789.5951	70.8815	670.4	204.65
789.7361	73.1426	754.55	285.7
789.8771	75.4032	967.55	494.85
790.0181	77.6634	1481.5	1002.9
790.1592	79.9231	2707.15	2222.45
790.3003	82.1824	5365.15	4863.05
790.4414	84.4412	10172.45	9647.95
790.5825	86.6995	16739.25	16182.2
790.7237	88.9574	23130.1	22541.1
790.8648	91.2148	27577.95	26969.85
791.006	93.4717	29626.45	29006.75
791.1472	95.7282	30103.3	29477.4
791.2885	97.9842	30091.2	29458.15
791.4297	100.2398	29585.3	28951.6
791.571	102.4949	29020.8	28383.3
791.7123	104.7495	28279.5	27639.15
791.8536	107.0036	27483.7	26840.05
791.9949	109.2573	26763.9	26123.75
792.1363	111.5105	26041.55	25400.45
792.2777	113.7632	25346.15	24701.45
792.4191	116.0154	24716.2	24061
792.5605	118.2672	24321.4	23673.8
792.7019	120.5185	23845.45	23196.95
792.8434	122.7693	23498.45	22839.9
792.9849	125.0197	23224.1	22566.65
793.1264	127.2696	22921.6	22262.4
793.2679	129.519	22783.45	22121
793.4094	131.7679	22625.15	21956.2
793.551	134.0163	22504.15	21834.35
793.6926	136.2642	22307.35	21632.4
793.8342	138.5117	22090.8	21414.1
793.9758	140.7587	21888.4	21208.4
794.1175	143.0052	21701.75	21020.1
794.2591	145.2512	21513	20830.45
794.4008	147.4967	21310.3	20628.9
794.5425	149.7417	21149.2	20467.35
794.6842	151.9863	21045.3	20359.95
794.826	154.2304	20981.7	20287.55
794.9677	156.4739	20838.25	20139.35
795.1095	158.717	20803.55	20104.1
795.2513	160.9596	20690.15	19987.45
795.3931	163.2017	20449.15	19745.45
795.535	165.4433	20141.75	19435.05
795.6768	167.6844	19815.55	19105.45
795.8187	169.925	19530.15	18818
795.9606	172.1651	19170.45	18452.95
796.1025	174.4047	18929.6	18216.5
796.2445	176.6439	18635.5	17917.3
796.3864	178.8825	18423.95	17699.25
796.5284	181.1206	18262.7	17530.15
796.6704	183.3582	18104.95	17370.4
796.8124	185.5954	18035.3	17305.75
796.9544	187.832	17970.95	17235.2
797.0965	190.0681	17933.75	17194.7
797.2386	192.3037	17953.8	17210.8
797.3806	194.5388	17943.9	17199.9
797.5228	196.7734	18009.9	17262.4
797.6649	199.0075	18096.85	17343.15
797.807	201.2411	18263.65	17509.65
797.9492	203.4742	18324.25	17577.55
798.0914	205.7068	18492.25	17736.4
798.2336	207.9389	18586.45	17829.45
798.3758	210.1704	18775.05	18021.85
798.518	212.4015	18892.5	18155.35
798.6603	214.632	19086.8	18354.2
798.8025	216.862	19275.9	18545.35
798.9448	219.0915	19462.15	18727.2
799.0871	221.3205	19678.85	18937.85
799.2294	223.549	19941.3	19207.65
799.3718	225.777	20292.75	19557.85
799.5141	228.0044	20651	19909.4
799.6565	230.2314	21139.65	20398.4
799.7989	232.4578	21524.4	20779.85
799.9413	234.6837	21914.95	21166.05
800.0837	236.909	22175.95	21418.15
800.2262	239.1339	22158.35	21373.65
800.3687	241.3582	21942.65	21173.95
800.5111	243.582	21632.4	20839.05
800.6536	245.8053	21294.2	20512.8
800.7961	248.0281	20957.6	20179.2
800.9387	250.2503	20739.25	19956.9
801.0812	252.472	20602.3	19818.6
801.2238	254.6932	20541.3	19764.55
801.3664	256.9139	20432.6	19647.55
801.509	259.134	20486.1	19696.8
801.6516	261.3536	20456.95	19671.4
801.7942	263.5727	20517.35	19727
801.9369	265.7912	20481.1	19695.3
802.0795	268.0092	20536.3	19753.35
802.2222	270.2267	20497	19710.25
802.3649	272.4436	20425.85	19640.85
802.5076	274.6601	20396.4	19595
802.6504	276.8759	20351.7	19559.75
802.7931	279.0913	20325.25	19531.25
802.9359	281.3061	20313.7	19516.75
803.0787	283.5204	20383.55	19582.45
803.2215	285.7341	20501.75	19694.25
803.3643	287.9473	20649.7	19837.85
803.5071	290.16	20904.05	20097.25
803.6499	292.3721	21253.95	20455.6
803.7928	294.5837	21644.15	20844.1
803.9357	296.7947	22008.55	21206.3
804.0786	299.0052	22242.25	21435.9
804.2215	301.2152	22068.35	21259.95
804.3644	303.4246	21767.45	20968.55
804.5074	305.6334	21242.2	20444.6
804.6503	307.8418	20760.2	19953.25
804.7933	310.0495	20330.3	19522.9
804.9363	312.2568	20031.8	19223.65
805.0793	314.4635	19806.3	18995.75
805.2223	316.6696	19746.25	18926.15
805.3653	318.8752	19700.05	18878.2
805.5084	321.0802	19752.3	18937.7
805.6514	323.2847	19886.2	19071.65
805.7945	325.4887	19954.5	19139.7
805.9376	327.692	19894.15	19076.5
806.0807	329.8949	19844.45	19021.85
806.2238	332.0972	19534.5	18713.8
806.367	334.2989	19298.85	18475.1
806.5101	336.5001	19005.4	18181.95
806.6533	338.7007	18831.75	18005.25
806.7965	340.9008	18711.4	17888.2
806.9397	343.1003	18628	17800.8
807.0829	345.2992	18577.7	17750.75
807.2261	347.4976	18543.8	17713.45
807.3693	349.6955	18563.2	17729.2
807.5126	351.8927	18667.85	17835.7
807.6559	354.0895	18637.5	17791.65
807.7991	356.2856	18721.65	17886.1
807.9424	358.4812	18696.25	17856.45
808.0857	360.6763	18749.35	17910.35
808.2291	362.8707	18753.4	17912.95
808.3724	365.0646	18802.65	17960.15
808.5158	367.258	18780.7	17939.15
808.6591	369.4508	18848.55	18002.05
808.8025	371.643	18928.65	18083.1
808.9459	373.8346	18934.6	18086.35
809.0893	376.0257	18921.15	18071.75
809.2327	378.2162	18822.5	17975.35
809.3762	380.4062	18765.55	17917.9
809.5196	382.5956	18564.4	17720.35
809.6631	384.7844	18515.4	17675.75
809.8066	386.9726	18414.7	17575.3
809.9501	389.1603	18363.05	17524.85
810.0936	391.3474	18357.15	17492.2
810.2371	393.5339	18381.05	17540.1
810.3806	395.7199	18300.2	17459.1
810.5241	397.9052	18310.8	17470.8
810.6677	400.09	18335	17493.4
810.8113	402.2743	18441.9	17599.7
810.9548	404.4579	18527.35	17685.25
811.0984	406.641	18708.9	17862.3
811.2421	408.8235	18926.95	18081.2
811.3857	411.0054	19260.05	18410.7
811.5293	413.1868	19699.05	18849.9
811.673	415.3675	20005.05	19150.65
811.8166	417.5477	20236.55	19383.95
811.9603	419.7273	20289.95	19436.85
812.104	421.9064	20173.25	19311.4
812.2477	424.0848	20019.6	19165.45
812.3914	426.2627	19831.6	18973.75
812.5351	428.4399	19574.75	18716.6
812.6788	430.6166	19214.1	18348.7
812.8226	432.7928	18860.7	17998.2
812.9663	434.9683	18541.95	17681.35
813.1101	437.1432	18336.5	17478.75
813.2539	439.3176	18185.5	17332.25
813.3977	441.4914	18055.85	17197.5
813.5415	443.6645	18067.2	17210.1
813.6853	445.8371	18015.95	17157.55
813.8291	448.0091	17918.7	17060.15
813.973	450.1806	17920.5	17063.85
814.1168	452.3514	17906.45	17047.1
814.2607	454.5216	17888	17016.05
814.4046	456.6913	17808.15	16947.5
814.5485	458.8603	17858.85	16998.75
814.6924	461.0288	17933.25	17078.15
814.8363	463.1967	17965.9	17112.2
814.9802	465.3639	18096.05	17238.65
815.1241	467.5306	18175.6	17316.8
815.2681	469.6967	18354.85	17499.45
815.412	471.8622	18528.3	17673.3
815.556	474.0271	18656.3	17797.75
815.7	476.1914	18728.9	17863.1
815.844	478.3551	18740.2	17880.45
815.988	480.5182	18728.65	17870
816.132	482.6807	18756.7	17902.45
816.276	484.8426	18854.6	18005.4
816.4201	487.0039	19157.2	18300.75
816.5641	489.1647	19552.95	18690.9
816.7082	491.3248	20006.05	19143.45
816.8522	493.4843	20190.15	19328.3
816.9963	495.6432	20215.65	19355.35
817.1404	497.8015	20101.55	19233.35
817.2845	499.9592	20131.55	19264.15
817.4286	502.1163	20110.05	19238.2
817.5727	504.2728	19882.15	19014.95
817.7168	506.4287	19594.95	18734.85
817.861	508.5839	19189.15	18329.55
818.0051	510.7386	18839.65	17973.05
818.1493	512.8927	18654.85	17780.9
818.2935	515.0461	18593.5	17722.05
818.4377	517.199	18558.25	17685.4
818.5818	519.3512	18556.25	17683.15
818.726	521.5029	18640.35	17764.15
818.8703	523.6539	18701.6	17829.25
819.0145	525.8043	18750.3	17874.05
819.1587	527.9541	18770.8	17896.35
819.303	530.1033	18762.25	17885.55
819.4472	532.2519	18832.25	17956.35
819.5915	534.3999	18952.1	18072.2
819.7357	536.5472	19262.45	18386
819.88	538.694	19747.3	18876.55
820.0243	540.8401	20355.8	19479.85
820.1686	542.9856	20832	19951.2
820.3129	545.1305	20985.8	20094.95
820.4572	547.2748	20890.35	19997.95
820.6016	549.4185	20512.35	19617.8
820.7459	551.5615	20158.7	19267.1
820.8902	553.704	20063.85	19175.3
821.0346	555.8458	20007.15	19123.15
821.1789	557.987	20036.05	19152.65
821.3233	560.1276	20011.05	19128.95
821.4677	562.2675	20046.95	19160.7
821.6121	564.4069	20050.65	19166.2
821.7565	566.5456	20062.3	19180.5
821.9009	568.6837	19994.1	19112.85
822.0453	570.8212	19733.35	18857.7
822.1897	572.958	19406.85	18522.95
822.3342	575.0942	19131.8	18252.7
822.4786	577.2299	18946.85	18069.95
822.6231	579.3648	18949.7	18081.15
822.7675	581.4992	19027	18163.35
822.912	583.6329	19229	18370.15
823.0565	585.766	19439.25	18572.8
823.201	587.8985	19598.25	18729.6
823.3454	590.0304	19612.35	18718.75
823.4899	592.1616	19555.85	18673.55
823.6345	594.2922	19500.55	18613.7
823.779	596.4222	19309.55	18418.45
823.9235	598.5515	19151.3	18259.7
824.068	600.6802	19003.05	18110.25
824.2126	602.8083	18824.45	17938.35
824.3571	604.9358	18793.45	17904.25
824.5017	607.0626	18720.15	17826.95
824.6462	609.1888	18695	17799.1
824.7908	611.3144	18676.65	17779.6
824.9354	613.4393	18580.5	17684.2
825.08	615.5636	18446.25	17554.7
825.2246	617.6873	18369.4	17476.2
825.3692	619.8103	18348.3	17453.6
825.5138	621.9327	18265.95	17375.65
825.6584	624.0544	18194.7	17305.9
825.803	626.1756	18214.65	17324.5
825.9477	628.2961	18155.95	17263.05
826.0923	630.4159	18128.45	17232.4
826.237	632.5351	18112.55	17219.4
826.3816	634.6537	18094.55	17198.65
826.5263	636.7716	18071.45	17170.45
826.6709	638.8889	18072.3	17171.5
826.8156	641.0056	18164.55	17259.1
826.9603	643.1216	18147.9	17249.3
827.105	645.237	18169.05	17273.55
827.2497	647.3518	18168.3	17279
827.3944	649.4659	18224.5	17335.6
827.5391	651.5793	18186.75	17298.55
827.6838	653.6922	18164.4	17272.25
827.8285	655.8043	18202.55	17313
827.9733	657.9159	18239.35	17345.2
828.118	660.0268	18116.65	17222.8
828.2627	662.137	18053.95	17157.6
828.4075	664.2466	18078.4	17175.2
828.5522	666.3556	18076.15	17177.2
828.697	668.4639	18070.6	17172.2
828.8418	670.5716	18133.95	17239.4
828.9865	672.6786	18213.35	17314.6
829.1313	674.785	18273.7	17373.3
829.2761	676.8907	18367.8	17469.6
829.4209	678.9958	18437.75	17541.25
829.5657	681.1002	18408.25	17508.95
829.7105	683.204	18412.85	17505.8
829.8553	685.3072	18393.7	17486.65
830.0001	687.4097	18327.35	17427.25
830.1449	689.5115	18297.1	17394.2
830.2898	691.6127	18242.65	17345.65
830.4346	693.7132	18170.55	17273.5
830.5794	695.8131	18164.3	17242.45
830.7243	697.9123	18163.95	17259.2
830.8691	700.0109	18144.45	17236.85
831.014	702.1089	18140.15	17234.65
831.1588	704.2061	18151.9	17249.6
831.3037	706.3028	18197.2	17287.75
831.4486	708.3987	18291.3	17385.4
831.5935	710.4941	18335.95	17429.85
831.7383	712.5887	18541.95	17638
831.8832	714.6827	18829.55	17923.5
832.0281	716.7761	19201.2	18296.4
832.173	718.8688	19573.3	18669.45
832.3179	720.9608	19727.2	18819.65
832.4628	723.0522	19854.2	18942.8
832.6077	725.1429	19651.4	18740.55
832.7527	727.233	19404.45	18497.9
832.8976	729.3224	19169.35	18264.1
833.0425	731.4112	18906.25	17998.95
833.1874	733.4993	18669.45	17760.6
833.3324	735.5867	18508.9	17602.85
833.4773	737.6735	18428.6	17518.5
833.6222	739.7596	18388.1	17476.5
833.7672	741.845	18369.25	17459.15
833.9122	743.9298	18321.35	17410.5
834.0571	746.014	18349.35	17442.5
834.2021	748.0974	18381.25	17466.3
834.347	750.1802	18366.05	17449
834.492	752.2624	18408.45	17497.75
834.637	754.3439	18415.2	17497.8
834.782	756.4247	18482.45	17560.5
834.9269	758.5048	18604.9	17693.95
835.0719	760.5843	18818.25	17909.05
835.2169	762.6631	19116.95	18204.25
835.3619	764.7413	19560.65	18648.65
835.5069	766.8188	20146.35	19232
835.6519	768.8956	20589.95	19674.15
835.7969	770.9718	20935.5	20022.8
835.9419	773.0473	20803.5	19892.3
836.0869	775.1221	20512.35	19603.85
836.232	777.1962	20078.85	19168.05
836.377	779.2697	19879.9	18964.65
836.522	781.3426	19993.8	19060.65
836.667	783.4147	20250.7	19335.25
836.8121	785.4862	20569.85	19654.8
836.9571	787.557	20591.1	19675.85
837.1021	789.6271	20269.9	19352.55
837.2472	791.6966	19730.7	18815.05
837.3922	793.7654	19188.5	18274.9
837.5373	795.8335	18891.75	17975.05
837.6823	797.901	18717.6	17802.5
837.8274	799.9678	18683.05	17763
837.9724	802.0339	18667.55	17749.35
838.1175	804.0993	18737.65	17812.35
838.2626	806.1641	18721.05	17801.2
838.4076	808.2282	18683.45	17766.3
838.5527	810.2916	18641.1	17728
838.6978	812.3544	18562.9	17648.15
838.8428	814.4164	18466.7	17552.2
838.9879	816.4778	18499.95	17582.05
839.133	818.5385	18500.75	17582.4
839.2781	820.5986	18552.95	17632
839.4232	822.658	18673.65	17752.7
839.5682	824.7166	18772.6	17853.9
839.7133	826.7747	19009.15	18091.5
839.8584	828.832	19220.45	18299.15
840.0035	830.8886	19350.5	18430.55
840.1486	832.9446	19464.45	18539.75
840.2937	834.9999	19548.45	18630.45
840.4388	837.0545	19580.45	18656
840.5839	839.1085	19590.05	18670
840.729	841.1618	19561.8	18640.35
840.8741	843.2143	19531.8	18611
841.0192	845.2662	19426.4	18503.7
841.1643	847.3175	19394.9	18476.05
841.3095	849.368	19256.35	18334.35
841.4546	851.4179	19161.35	18243
841.5997	853.467	19009.6	18087.9
841.7448	855.5155	18941.55	18020.8
841.8899	857.5633	18843.35	17924.25
842.0351	859.6105	18732.4	17811.1
842.1802	861.6569	18672.15	17750.05
842.3253	863.7027	18656.6	17729.45
842.4704	865.7478	18672.9	17748.35
842.6156	867.7922	18667.15	17744.4
842.7607	869.8359	18708.75	17785.1
842.9058	871.8789	18883.6	17961.85
843.0509	873.9212	19050.1	18095.05
843.1961	875.9629	19170.5	18246.65
843.3412	878.0039	19338.95	18414.35
843.4863	880.0441	19476.65	18557.5
843.6315	882.0837	19514.95	18593.75
843.7766	884.1226	19419.2	18499.6
843.9218	886.1609	19323.15	18404.55
844.0669	888.1984	19268.5	18348.35
844.212	890.2352	19287.2	18362
844.3572	892.2714	19250.85	18321.4
844.5023	894.3069	19219.55	18297.1
844.6475	896.3416	19162.1	18241.1
844.7926	898.3757	19164.35	18241.8
844.9377	900.4091	19146.8	18218.5
845.0829	902.4418	19189.95	18256.4
845.228	904.4739	19195.35	18267.05
845.3732	906.5052	19230.05	18305.65
845.5183	908.5358	19088.55	18164.15
845.6635	910.5658	18979.15	18050.7
845.8086	912.595	18795.05	17870.95
845.9538	914.6236	18682.4	17756.9
846.0989	916.6515	18623.25	17696.65
846.2441	918.6786	18615.2	17687.4
846.3892	920.7051	18718.6	17793.1
846.5344	922.7309	18867.15	17942.8
846.6795	924.756	18889.85	17965.65
846.8246	926.7804	18990.25	18061.85
846.9698	928.8041	18942.3	18015.5
847.1149	930.8272	19011.15	18082.45
847.2601	932.8495	18890.25	17962.35
847.4052	934.8711	18878.9	17948.5
847.5504	936.892	18677.6	17745.5
847.6955	938.9123	18537.95	17610.45
847.8407	940.9318	18462.8	17533.1
847.9858	942.9506	18363.9	17437.9
848.131	944.9688	18263	17334.5
848.2761	946.9862	18230.65	17302.85
848.4213	949.003	18126.4	17197.1
848.5664	951.019	18144.85	17217.85
848.7115	953.0344	18177.2	17249.7
848.8567	955.0491	18216.85	17290.5
849.0018	957.063	18320.95	17393.85
849.147	959.0763	18465.5	17541.25
849.2921	961.0888	18467.5	17541.5
849.4373	963.1007	18565.75	17640.15
849.5824	965.1119	18616.45	17698.15
849.7275	967.1223	18641.55	17726
849.8727	969.1321	18673.25	17757.8
850.0178	971.1412	18717.2	17798.05
850.1629	973.1495	18741.55	17817.1
850.3081	975.1572	18827.8	17853.85
850.4532	977.1641	18860.25	17932.1
850.5983	979.1704	18825.6	17898.1
850.7435	981.1759	18825.75	17896.45
850.8886	983.1808	18851.55	17921.4
851.0337	985.1849	18955.05	18016.45
851.1788	987.1884	19105.4	18176.45
851.324	989.1911	19277.25	18349.4
851.4691	991.1932	19403.65	18480.45
851.6142	993.1945	19442.95	18517.75
851.7593	995.1951	19384.4	18459.2
851.9045	997.1951	19363.5	18429.7
852.0496	999.1943	19267.95	18345
852.1947	1001.1928	19221.95	18291.8
852.3398	1003.1906	19218.2	18290.6
852.4849	1005.1877	19292.9	18366.9
852.63	1007.1841	19263.4	18334.35
852.7751	1009.1798	19168.95	18243.35
852.9202	1011.1748	18966.5	18040.25
853.0653	1013.1691	18783.2	17852.9
853.2104	1015.1627	18580.6	17653.25
853.3555	1017.1556	18351.4	17426.2
853.5006	1019.1477	18253.35	17325.8
853.6457	1021.1392	18155.65	17235.9
853.7908	1023.1299	18164.05	17246
853.9359	1025.12	18150.8	17234.8
854.081	1027.1093	18203.9	17296.4
854.2261	1029.0979	18301.65	17399.25
854.3712	1031.0859	18347.05	17438.7
854.5163	1033.0731	18370.85	17457.05
854.6613	1035.0596	18280.9	17359.55
854.8064	1037.0454	18132.2	17208.35
854.9515	1039.0304	18005.1	17080.3
855.0965	1041.0148	17882.55	16958.3
855.2416	1042.9985	17779.1	16852.35
855.3867	1044.9814	17758.2	16835.25
855.5317	1046.9636	17691.9	16769.1
855.6768	1048.9452	17688.1	16764.3
855.8219	1050.926	17734.05	16810.9
855.9669	1052.9061	17717.95	16792.15
856.112	1054.8855	17674	16747.9
856.257	1056.8642	17709.05	16782.3
856.4021	1058.8421	17781.7	16848.75
856.5471	1060.8194	17805.2	16877.85
856.6921	1062.7959	17852	16927.45
856.8372	1064.7717	17915.55	16989.45
856.9822	1066.7469	17921.5	16995.5
857.1272	1068.7213	17902.55	16972.55
857.2723	1070.695	17865.35	16939.15
857.4173	1072.6679	17798.5	16872.65
857.5623	1074.6402	17795.3	16868.95
857.7073	1076.6117	17791.25	16857.55
857.8523	1078.5826	17780.6	16851.7
857.9973	1080.5527	17792.2	16862.25
858.1423	1082.5221	17855.95	16933.3
858.2873	1084.4908	18048.85	17120.85
858.4323	1086.4587	18223.5	17300.8
858.5773	1088.426	18365.85	17436.9
858.7223	1090.3925	18373.3	17442.65
858.8673	1092.3584	18324.35	17397.1
859.0123	1094.3235	18177.9	17254.2
859.1573	1096.2879	18102.95	17178.1
859.3022	1098.2515	18079.3	17151.05
859.4472	1100.2145	18185.3	17263.55
859.5922	1102.1767	18252.75	17323.05
859.7371	1104.1382	18379.55	17455.95
859.8821	1106.099	18603	17674.7
860.027	1108.0591	18794.7	17871.55
860.172	1110.0185	18929.85	18002.85
860.3169	1111.9771	18979.2	18053.9
860.4619	1113.9351	18786.5	17858.95
860.6068	1115.8923	18444.65	17520.6
860.7517	1117.8488	18185.5	17259.75
860.8967	1119.8045	17902.95	16979.7
861.0416	1121.7596	17771.45	16846.95
861.1865	1123.7139	17666.7	16742.45
861.3314	1125.6675	17711.2	16787.15
861.4763	1127.6204	17786.5	16859.85
861.6212	1129.5726	17749.45	16822.8
861.7661	1131.524	17775.05	16849.25
861.911	1133.4748	17761.45	16834.95
862.0559	1135.4248	17730.25	16804.5
862.2008	1137.3741	17713	16788.4
862.3457	1139.3226	17674.15	16749.7
862.4905	1141.2705	17662.4	16735.95
862.6354	1143.2176	17529.05	16598.2
862.7803	1145.164	17541.9	16613.3
862.9251	1147.1097	17555.95	16632
863.07	1149.0546	17547.6	16621.85
863.2148	1150.9989	17469.35	16543.1
863.3597	1152.9424	17349.85	16425.15
863.5045	1154.8852	17188.8	16262.55
863.6493	1156.8272	17075.5	16149.7
863.7942	1158.7686	17026.3	16094.55
863.939	1160.7092	16962.95	16037.15
864.0838	1162.6491	16972.95	16042.9
864.2286	1164.5883	17067.05	16141.35
864.3734	1166.5267	17113.4	16186.65
864.5182	1168.4644	17292.5	16365.3
864.663	1170.4014	17464.65	16539.5
864.8078	1172.3377	17710.3	16788.55
864.9526	1174.2732	17919.3	16996.85
865.0974	1176.2081	18154.9	17229.85
865.2421	1178.1421	18388.95	17462.5
865.3869	1180.0755	18635.55	17713
