Software Version:	3.9.2.0
Unit SN:	10000200
Spectrometer SN:	6960
Date:	3/8/2024 1:09:10 PM
Data Line Index:	25
Spectral Points:	2048
Integration time (ms):	125
Averages:	20
Delay (ms):	30000
Sequence Number:	1
Processing:	dark subtract
Laser Power (mW):	300
Laser Current (mA):	823
Laser Diode Temp (C):	25
Laser Case Temp (C):	26.2
System Temp (C):	26.1
Spectrometer Temp (C):	24
CCD Temp (C):	0.01
Secondary Temp (C):	20.011
Heatsink Temp (C):	20.718
CCDPCB Temp (C):	36.14
SecondaryPCB Temp (C):	30.182

Wavelength	RamanShift	Raw Counts	Dark Subtracted
787.061	30.1047	456.7	46.95
787.2016	32.3739	458.4	51.3
787.3422	34.6426	464.2	55.35
787.4828	36.9109	468	58.55
787.6235	39.1787	477.45	60.6
787.7642	41.4461	484.1	66.2
787.9049	43.7131	495.8	72.3
788.0456	45.9796	503.6	78.8
788.1863	48.2456	512.5	82.8
788.3271	50.5112	523.25	89.2
788.4679	52.7764	528.65	91.65
788.6087	55.0411	542.75	102.45
788.7496	57.3054	550.25	103.75
788.8904	59.5692	560.95	113.9
789.0313	61.8326	567.75	120.15
789.1722	64.0955	584.65	133.85
789.3132	66.3579	603.4	146.75
789.4541	68.6199	616.8	154.6
789.5951	70.8815	656.15	189.1
789.7361	73.1426	737	267.05
789.8771	75.4032	943.15	466.3
790.0181	77.6634	1446.65	968.2
790.1592	79.9231	2640.95	2154.35
790.3003	82.1824	5189.7	4683.6
790.4414	84.4412	9831.55	9294.1
790.5825	86.6995	16157.75	15577.05
790.7237	88.9574	22328.8	21716.05
790.8648	91.2148	26610.8	25974.15
791.006	93.4717	28544.1	27889.9
791.1472	95.7282	28894.8	28232.85
791.2885	97.9842	28683.6	28018.9
791.4297	100.2398	28061.35	27395.45
791.571	102.4949	27318	26645.55
791.7123	104.7495	26485.85	25813.35
791.8536	107.0036	25627.65	24953.9
791.9949	109.2573	24853.95	24177.75
792.1363	111.5105	24093.8	23414.75
792.2777	113.7632	23378.85	22699.6
792.4191	116.0154	22791.15	22102.65
792.5605	118.2672	22388.1	21703.7
792.7019	120.5185	21943.75	21256.8
792.8434	122.7693	21628.3	20936.95
792.9849	125.0197	21339.15	20646.55
793.1264	127.2696	21054.2	20354.95
793.2679	129.519	20860.1	20160.65
793.4094	131.7679	20603.85	19901.4
793.551	134.0163	20396.6	19689.8
793.6926	136.2642	20118.05	19407.85
793.8342	138.5117	19839.6	19123.5
793.9758	140.7587	19507.6	18795.5
794.1175	143.0052	19270.65	18548.95
794.2591	145.2512	18982.55	18266.2
794.4008	147.4967	18696.7	17976.2
794.5425	149.7417	18529.05	17806.45
794.6842	151.9863	18350.25	17627.55
794.826	154.2304	18265.2	17536.8
794.9677	156.4739	18102.7	17372.2
795.1095	158.717	18009.65	17273
795.2513	160.9596	17848.15	17109.2
795.3931	163.2017	17624.05	16882.65
795.535	165.4433	17336.5	16593.8
795.6768	167.6844	17015.3	16270.5
795.8187	169.925	16683.25	15935.5
795.9606	172.1651	16307.1	15557.1
796.1025	174.4047	16035.7	15283.65
796.2445	176.6439	15825.8	15071.65
796.3864	178.8825	15558.95	14807.8
796.5284	181.1206	15460.2	14696.6
796.6704	183.3582	15308.25	14540.45
796.8124	185.5954	15204.95	14437.75
796.9544	187.832	15133.15	14364.95
797.0965	190.0681	15081.2	14310.4
797.2386	192.3037	15083	14298.2
797.3806	194.5388	15106.7	14329.7
797.5228	196.7734	15117.25	14339.75
797.6649	199.0075	15186.4	14401.95
797.807	201.2411	15342.5	14557
797.9492	203.4742	15417.1	14622.35
798.0914	205.7068	15573.5	14779.4
798.2336	207.9389	15664.5	14872.25
798.3758	210.1704	15862.75	15079.65
798.518	212.4015	15929.55	15149.55
798.6603	214.632	16099.6	15328.25
798.8025	216.862	16282.8	15514.25
798.9448	219.0915	16409.75	15638.55
799.0871	221.3205	16556.65	15783.2
799.2294	223.549	16748.4	15980.55
799.3718	225.777	16942.35	16172.15
799.5141	228.0044	17213.95	16436.25
799.6565	230.2314	17496.5	16716.65
799.7989	232.4578	17765.55	16986.7
799.9413	234.6837	18047.5	17259.85
800.0837	236.909	18178.9	17388.65
800.2262	239.1339	18167.95	17350.3
800.3687	241.3582	18068.45	17262.75
800.5111	243.582	17856	17026.2
800.6536	245.8053	17627.9	16807.3
800.7961	248.0281	17463.5	16651.85
800.9387	250.2503	17372.75	16558.55
801.0812	252.472	17262.35	16444.65
801.2238	254.6932	17319.35	16503.25
801.3664	256.9139	17318.85	16502.8
801.509	259.134	17438.15	16611.3
801.6516	261.3536	17578.65	16754.35
801.7942	263.5727	17726.9	16903.15
801.9369	265.7912	17884.35	17062.45
802.0795	268.0092	18068.8	17245.4
802.2222	270.2267	18125.9	17304.8
802.3649	272.4436	18170.05	17343.3
802.5076	274.6601	18139.7	17304.1
802.6504	276.8759	18083.75	17255.65
802.7931	279.0913	17964.9	17133.8
802.9359	281.3061	17858.2	17027.7
803.0787	283.5204	17906.15	17070.2
803.2215	285.7341	17912.7	17072.25
803.3643	287.9473	17997.85	17149.85
803.5071	290.16	18134.1	17294.75
803.6499	292.3721	18364.8	17527.75
803.7928	294.5837	18679.3	17844.5
803.9357	296.7947	18979.2	18143.75
804.0786	299.0052	19192.9	18354.8
804.2215	301.2152	19054.5	18214.3
804.3644	303.4246	18809.2	17971.3
804.5074	305.6334	18356.8	17520.4
804.6503	307.8418	17876.1	17036.45
804.7933	310.0495	17477.7	16637.75
804.9363	312.2568	17144.25	16301.4
805.0793	314.4635	16809.2	15962.7
805.2223	316.6696	16647.4	15799.55
805.3653	318.8752	16516.7	15657.35
805.5084	321.0802	16520.5	15668.65
805.6514	323.2847	16602.6	15750.3
805.7945	325.4887	16629.3	15778.65
805.9376	327.692	16592.2	15738.1
806.0807	329.8949	16506.5	15651.7
806.2238	332.0972	16299.8	15442.2
806.367	334.2989	16051.75	15192.85
806.5101	336.5001	15790.55	14927.85
806.6533	338.7007	15617.85	14754.6
806.7965	340.9008	15447.1	14588.25
806.9397	343.1003	15331.85	14467.75
807.0829	345.2992	15257.65	14396.35
807.2261	347.4976	15217.5	14353.45
807.3693	349.6955	15181.6	14315.1
807.5126	351.8927	15254.85	14386.15
807.6559	354.0895	15164.75	14288.65
807.7991	356.2856	15200.05	14326.55
807.9424	358.4812	15133.25	14261.25
808.0857	360.6763	15170.7	14295.3
808.2291	362.8707	15165.25	14290.65
808.3724	365.0646	15228.7	14351.75
808.5158	367.258	15261.35	14385.85
808.6591	369.4508	15313.45	14432.3
808.8025	371.643	15413.85	14528.9
808.9459	373.8346	15450.7	14565.75
809.0893	376.0257	15462.1	14576.6
809.2327	378.2162	15441.2	14562.5
809.3762	380.4062	15373.35	14491.25
809.5196	382.5956	15278.8	14400.4
809.6631	384.7844	15169.05	14297.95
809.8066	386.9726	15080.6	14212.55
809.9501	389.1603	14971.45	14098.5
810.0936	391.3474	14946.75	14040.05
810.2371	393.5339	14904.4	14026.5
810.3806	395.7199	14849.55	13974.6
810.5241	397.9052	14890.3	14014.2
810.6677	400.09	14944.35	14069.15
810.8113	402.2743	15078.25	14204.15
810.9548	404.4579	15195.8	14318.5
811.0984	406.641	15366	14487.2
811.2421	408.8235	15582.45	14705.85
811.3857	411.0054	15830.1	14944.7
811.5293	413.1868	16173.55	15279.45
811.673	415.3675	16348.7	15456.6
811.8166	417.5477	16460.7	15568.15
811.9603	419.7273	16456.45	15566.35
812.104	421.9064	16398.7	15503.75
812.2477	424.0848	16271.9	15385.6
812.3914	426.2627	16084.5	15195.8
812.5351	428.4399	15840.7	14948.8
812.6788	430.6166	15471.15	14574.45
812.8226	432.7928	15138.25	14244.6
812.9663	434.9683	14835.35	13942.4
813.1101	437.1432	14599.45	13708.8
813.2539	439.3176	14439.6	13556.3
813.3977	441.4914	14350.7	13470.95
813.5415	443.6645	14321.3	13435.05
813.6853	445.8371	14263.3	13372.6
813.8291	448.0091	14196.9	13308.8
813.973	450.1806	14186.95	13297.65
814.1168	452.3514	14178.55	13290
814.2607	454.5216	14172.55	13273.6
814.4046	456.6913	14156.6	13263
814.5485	458.8603	14227.2	13335.15
814.6924	461.0288	14251.25	13367.05
814.8363	463.1967	14251.7	13370.55
814.9802	465.3639	14325.8	13433.15
815.1241	467.5306	14375.2	13486.6
815.2681	469.6967	14450.7	13564.3
815.412	471.8622	14519.5	13634.85
815.556	474.0271	14649.85	13761.65
815.7	476.1914	14712.8	13817.5
815.844	478.3551	14724.85	13830.6
815.988	480.5182	14742.55	13853.9
816.132	482.6807	14784.85	13903.25
816.276	484.8426	14940.15	14064.45
816.4201	487.0039	15254.65	14371.7
816.5641	489.1647	15632.05	14742.95
816.7082	491.3248	16039.25	15143.55
816.8522	493.4843	16167.7	15279.3
816.9963	495.6432	16148	15259.1
817.1404	497.8015	16023.1	15120.55
817.2845	499.9592	15990.1	15084.45
817.4286	502.1163	15842.4	14935.7
817.5727	504.2728	15584.35	14688.05
817.7168	506.4287	15291.95	14409.75
817.861	508.5839	14929.45	14046.15
818.0051	510.7386	14698.6	13807.45
818.1493	512.8927	14584.15	13679.55
818.2935	515.0461	14491.15	13586.95
818.4377	517.199	14507.3	13602.25
818.5818	519.3512	14636.55	13733.3
818.726	521.5029	14779.15	13873.75
818.8703	523.6539	14936.55	14037.65
819.0145	525.8043	15019	14114.05
819.1587	527.9541	14973.9	14069.25
819.303	530.1033	14870.7	13967.65
819.4472	532.2519	14825.45	13920.15
819.5915	534.3999	14892.5	13989
819.7357	536.5472	15041.1	14138.25
819.88	538.694	15435.6	14537.35
820.0243	540.8401	15873.05	14965.65
820.1686	542.9856	16220	15305.2
820.3129	545.1305	16303.1	15381.45
820.4572	547.2748	16193.1	15269.7
820.6016	549.4185	15938.2	15016
820.7459	551.5615	15699.5	14781.8
820.8902	553.704	15619.45	14703.25
821.0346	555.8458	15596.8	14685.15
821.1789	557.987	15749.25	14837.1
821.3233	560.1276	15879.1	14960.15
821.4677	562.2675	16094.45	15182.4
821.6121	564.4069	16401.45	15487.2
821.7565	566.5456	16602.05	15690.6
821.9009	568.6837	16644.95	15735.4
822.0453	570.8212	16259.85	15351.55
822.1897	572.958	15748.2	14839.25
822.3342	575.0942	15306.45	14398.6
822.4786	577.2299	14988.2	14080.6
822.6231	579.3648	14854.7	13964.85
822.7675	581.4992	14875.05	13991.25
822.912	583.6329	15018.6	14136.2
823.0565	585.766	15215.7	14323.2
823.201	587.8985	15354.2	14457.85
823.3454	590.0304	15390.6	14459.25
823.4899	592.1616	15336.65	14423.1
823.6345	594.2922	15235.1	14317.9
823.779	596.4222	15024.1	14103.75
823.9235	598.5515	14851.9	13929.9
824.068	600.6802	14694.25	13776.75
824.2126	602.8083	14521.05	13606
824.3571	604.9358	14476.9	13562.6
824.5017	607.0626	14485.3	13565.65
824.6462	609.1888	14557.8	13629.15
824.7908	611.3144	14601.55	13671.2
824.9354	613.4393	14591.8	13665.55
825.08	615.5636	14615.1	13689.2
825.2246	617.6873	14588.5	13662.35
825.3692	619.8103	14519.6	13593.6
825.5138	621.9327	14383.75	13461.9
825.6584	624.0544	14270.4	13351.55
825.803	626.1756	14157.25	13241.55
825.9477	628.2961	14093.1	13173.8
826.0923	630.4159	13974	13046.6
826.237	632.5351	13954.3	13030.8
826.3816	634.6537	13936.15	13002.8
826.5263	636.7716	13969.95	13034.95
826.6709	638.8889	13959.9	13025.55
826.8156	641.0056	13979.8	13038.4
826.9603	643.1216	13966.3	13037.65
827.105	645.237	13979.85	13051.35
827.2497	647.3518	13925.9	13002.3
827.3944	649.4659	13912.3	12995.15
827.5391	651.5793	13842.85	12927.75
827.6838	653.6922	13838.55	12919.65
827.8285	655.8043	13825.5	12907.6
827.9733	657.9159	13855.95	12933.9
828.118	660.0268	13755.45	12830.75
828.2627	662.137	13779.85	12856.7
828.4075	664.2466	13793.95	12860.4
828.5522	666.3556	13769.85	12841.55
828.697	668.4639	13726.85	12799.4
828.8418	670.5716	13726.75	12803.15
828.9865	672.6786	13769.35	12839.75
829.1313	674.785	13769	12834.7
829.2761	676.8907	13813.85	12886.05
829.4209	678.9958	13838.4	12915.8
829.5657	681.1002	13847.5	12919.2
829.7105	683.204	13791.15	12852.3
829.8553	685.3072	13789.25	12853.9
830.0001	687.4097	13760.55	12827.1
830.1449	689.5115	13741.5	12802.85
830.2898	691.6127	13728.1	12798.8
830.4346	693.7132	13646.2	12721.1
830.5794	695.8131	13652.6	12711.2
830.7243	697.9123	13677.3	12745.55
830.8691	700.0109	13680.8	12743.35
831.014	702.1089	13679.3	12743.5
831.1588	704.2061	13716.85	12784
831.3037	706.3028	13740.8	12805.85
831.4486	708.3987	13805.6	12864.55
831.5935	710.4941	13841.75	12907.9
831.7383	712.5887	13970.75	13036.85
831.8832	714.6827	14162.6	13224.7
832.0281	716.7761	14389.45	13458.1
832.173	718.8688	14672.4	13739.35
832.3179	720.9608	14842.9	13900
832.4628	723.0522	14950.75	14006.75
832.6077	725.1429	14901.55	13957.35
832.7527	727.233	14774.9	13839.05
832.8976	729.3224	14691.45	13756
833.0425	731.4112	14519.65	13583
833.1874	733.4993	14391.65	13450.8
833.3324	735.5867	14154.1	13218.45
833.4773	737.6735	14014.15	13072.7
833.6222	739.7596	13889.7	12950.35
833.7672	741.845	13799.7	12861.35
833.9122	743.9298	13734.3	12797.2
834.0571	746.014	13751.35	12813.4
834.2021	748.0974	13751.8	12809.85
834.347	750.1802	13746.3	12801.2
834.492	752.2624	13753.25	12810.1
834.637	754.3439	13810.35	12863.5
834.782	756.4247	13879.5	12927.85
834.9269	758.5048	14038.4	13094.4
835.0719	760.5843	14309.1	13362.4
835.2169	762.6631	14697.1	13750.9
835.3619	764.7413	15206.05	14259.8
835.5069	766.8188	15853.2	14905.65
835.6519	768.8956	16334.2	15385.8
835.7969	770.9718	16691.95	15748.45
835.9419	773.0473	16569.5	15630.15
836.0869	775.1221	16293.7	15349.4
836.232	777.1962	15952.65	15010.3
836.377	779.2697	15799.65	14853.1
836.522	781.3426	15851.9	14894.3
836.667	783.4147	16019.7	15072.35
836.8121	785.4862	16215.55	15268.95
836.9571	787.557	16137.15	15189.2
837.1021	789.6271	15723.95	14778.1
837.2472	791.6966	15152.7	14205.2
837.3922	793.7654	14580.1	13635.3
837.5373	795.8335	14259.45	13313.8
837.6823	797.901	13991.5	13045.6
837.8274	799.9678	13896.3	12945.3
837.9724	802.0339	13861.5	12911.75
838.1175	804.0993	13847.65	12883.15
838.2626	806.1641	13825.1	12878.75
838.4076	808.2282	13783.5	12839.8
838.5527	810.2916	13688.15	12743.2
838.6978	812.3544	13603.45	12663.1
838.8428	814.4164	13563	12614.4
838.9879	816.4778	13559	12607.7
839.133	818.5385	13578.95	12629.45
839.2781	820.5986	13710.2	12761.5
839.4232	822.658	13888.45	12939.55
839.5682	824.7166	14128.8	13182.15
839.7133	826.7747	14499.9	13548.7
839.8584	828.832	14851.9	13897.5
840.0035	830.8886	15119.3	14167.55
840.1486	832.9446	15242.45	14290.35
840.2937	834.9999	15202.1	14255.3
840.4388	837.0545	15030.45	14074.95
840.5839	839.1085	14895.7	13944.6
840.729	841.1618	14709	13753.25
840.8741	843.2143	14577.35	13632.9
841.0192	845.2662	14432	13480.15
841.1643	847.3175	14367.1	13415.4
841.3095	849.368	14225.4	13273.15
841.4546	851.4179	14102.1	13152.7
841.5997	853.467	14004.3	13051.95
841.7448	855.5155	13955.35	13003
841.8899	857.5633	13867.95	12917.05
842.0351	859.6105	13767.2	12812.75
842.1802	861.6569	13704.85	12751.5
842.3253	863.7027	13617.15	12659.7
842.4704	865.7478	13598.7	12645.35
842.6156	867.7922	13585.45	12630.7
842.7607	869.8359	13618.05	12665.15
842.9058	871.8789	13671.05	12715
843.0509	873.9212	13816.65	12828.1
843.1961	875.9629	13918.25	12963.45
843.3412	878.0039	14069.3	13117.45
843.4863	880.0441	14155.2	13203.75
843.6315	882.0837	14201.4	13250.95
843.7766	884.1226	14177.2	13223.8
843.9218	886.1609	14146.1	13195.15
844.0669	888.1984	14169.9	13222.4
844.212	890.2352	14223.95	13270.7
844.3572	892.2714	14207.5	13247.1
844.5023	894.3069	14178.4	13222.2
844.6475	896.3416	14044.55	13090.55
844.7926	898.3757	13961.15	13004.5
844.9377	900.4091	13918.2	12958.45
845.0829	902.4418	13942.05	12976.55
845.228	904.4739	13954.1	12990.5
845.3732	906.5052	14021.75	13063.85
845.5183	908.5358	13941.35	12984
845.6635	910.5658	13803.5	12845.1
845.8086	912.595	13618.9	12662.65
845.9538	914.6236	13408.7	12450.4
846.0989	916.6515	13298.45	12339.85
846.2441	918.6786	13274.75	12315.15
846.3892	920.7051	13320.65	12362.6
846.5344	922.7309	13396.9	12440.95
846.6795	924.756	13442.35	12486.75
846.8246	926.7804	13550.45	12592.5
846.9698	928.8041	13508.2	12551.1
847.1149	930.8272	13589.8	12635.05
847.2601	932.8495	13524.2	12561
847.4052	934.8711	13481.5	12523.2
847.5504	936.892	13409.25	12451.95
847.6955	938.9123	13329.25	12372.4
847.8407	940.9318	13261.8	12308.3
847.9858	942.9506	13216.75	12257.95
848.131	944.9688	13137	12176.05
848.2761	946.9862	13058.35	12103.65
848.4213	949.003	12946	11986.95
848.5664	951.019	12906.45	11946.45
848.7115	953.0344	12896.3	11940.1
848.8567	955.0491	12901.45	11943.75
849.0018	957.063	12950.1	11993.85
849.147	959.0763	13067.25	12108.5
849.2921	961.0888	13108.15	12154.1
849.4373	963.1007	13156.1	12203.25
849.5824	965.1119	13200.25	12255.25
849.7275	967.1223	13207.95	12270.7
849.8727	969.1321	13211.3	12272
850.0178	971.1412	13255.5	12308.4
850.1629	973.1495	13253.35	12303.4
850.3081	975.1572	13298.1	12300.95
850.4532	977.1641	13334.95	12378.05
850.5983	979.1704	13288.95	12331.65
850.7435	981.1759	13271.2	12311.3
850.8886	983.1808	13320.6	12361.45
851.0337	985.1849	13351.75	12382.95
851.1788	987.1884	13439.65	12481.85
851.324	989.1911	13608.9	12654.95
851.4691	991.1932	13681.95	12725.75
851.6142	993.1945	13702.45	12746.9
851.7593	995.1951	13655.2	12699.8
851.9045	997.1951	13640	12678.05
852.0496	999.1943	13614.4	12655.25
852.1947	1001.1928	13567.25	12609.15
852.3398	1003.1906	13577.4	12620.35
852.4849	1005.1877	13678.7	12720.5
852.63	1007.1841	13677.85	12724.5
852.7751	1009.1798	13668.35	12715.25
852.9202	1011.1748	13542.5	12583.4
853.0653	1013.1691	13379.15	12420.6
853.2104	1015.1627	13145.05	12188.95
853.3555	1017.1556	12940.7	11986.65
853.5006	1019.1477	12860.1	11906.05
853.6457	1021.1392	12765.6	11820
853.7908	1023.1299	12738.2	11792.9
853.9359	1025.12	12730.45	11792.6
854.081	1027.1093	12779.55	11855.95
854.2261	1029.0979	12874.75	11952.75
854.3712	1031.0859	12955.35	12027.1
854.5163	1033.0731	12968.75	12026.2
854.6613	1035.0596	12944.2	12000.1
854.8064	1037.0454	12790.65	11842.85
854.9515	1039.0304	12697.85	11749.1
855.0965	1041.0148	12564.95	11610.7
855.2416	1042.9985	12485.25	11530.1
855.3867	1044.9814	12429.2	11481.9
855.5317	1046.9636	12375.8	11419.7
855.6768	1048.9452	12383.4	11431.85
855.8219	1050.926	12415.5	11463.15
855.9669	1052.9061	12418.6	11464.25
856.112	1054.8855	12440.85	11484.6
856.257	1056.8642	12486.4	11537
856.4021	1058.8421	12536	11578
856.5471	1060.8194	12564.4	11608.2
856.6921	1062.7959	12585.85	11629.9
856.8372	1064.7717	12642.95	11689.2
856.9822	1066.7469	12673.1	11715.15
857.1272	1068.7213	12707.25	11754.55
857.2723	1070.695	12760.65	11809.8
857.4173	1072.6679	12726.15	11774.3
857.5623	1074.6402	12723.1	11769.55
857.7073	1076.6117	12671.5	11711.25
857.8523	1078.5826	12633.65	11681.6
857.9973	1080.5527	12580.6	11623.2
858.1423	1082.5221	12580.95	11626.95
858.2873	1084.4908	12649.4	11697.35
858.4323	1086.4587	12764.25	11808.4
858.5773	1088.426	12839.7	11884.8
858.7223	1090.3925	12834.45	11874.45
858.8673	1092.3584	12812.85	11857
859.0123	1094.3235	12735.5	11785.65
859.1573	1096.2879	12803.35	11851.45
859.3022	1098.2515	12825.6	11873.95
859.4472	1100.2145	12964.75	12012.95
859.5922	1102.1767	13121.15	12165.55
859.7371	1104.1382	13284.95	12332.6
859.8821	1106.099	13525.15	12571.7
860.027	1108.0591	13726.2	12772.85
860.172	1110.0185	13909.6	12954
860.3169	1111.9771	13952.05	12998.7
860.4619	1113.9351	13805.4	12854.45
860.6068	1115.8923	13566.15	12612.75
860.7517	1117.8488	13363.35	12407.45
860.8967	1119.8045	13135.65	12184.2
861.0416	1121.7596	13022.9	12071.9
861.1865	1123.7139	12903.25	11953.65
861.3314	1125.6675	12890	11941.3
861.4763	1127.6204	12954.25	12003.7
861.6212	1129.5726	12893.05	11938.1
861.7661	1131.524	12871.25	11921.25
861.911	1133.4748	12745.6	11794.3
862.0559	1135.4248	12665.4	11709.4
862.2008	1137.3741	12604.4	11654.1
862.3457	1139.3226	12517.2	11564.65
862.4905	1141.2705	12482.6	11529.35
862.6354	1143.2176	12369.5	11412.4
862.7803	1145.164	12330.55	11376.2
862.9251	1147.1097	12311.05	11359.65
863.07	1149.0546	12274.65	11320.15
863.2148	1150.9989	12181.25	11227.5
863.3597	1152.9424	12062.8	11110.3
863.5045	1154.8852	11946.65	10996.85
863.6493	1156.8272	11874.2	10921.7
863.7942	1158.7686	11877	10920.45
863.939	1160.7092	11863.55	10911
864.0838	1162.6491	11856.45	10902.6
864.2286	1164.5883	11972.95	11021.9
864.3734	1166.5267	12076.3	11124.55
864.5182	1168.4644	12203.85	11252.2
864.663	1170.4014	12413.45	11461.6
864.8078	1172.3377	12652.05	11703.9
864.9526	1174.2732	12924.6	11973.85
865.0974	1176.2081	13274.85	12324.85
865.2421	1178.1421	13637.55	12683.5
865.3869	1180.0755	14054.7	13103.85
865.5317	1182.0082	14252.55	13304
