Software Version:	3.9.2.0
Unit SN:	10000200
Spectrometer SN:	6960
Date:	3/8/2024 2:13:07 PM
Data Line Index:	25
Spectral Points:	2048
Integration time (ms):	125
Averages:	20
Delay (ms):	30000
Sequence Number:	1
Processing:	dark subtract
Laser Power (mW):	305
Laser Current (mA):	823
Laser Diode Temp (C):	25.1
Laser Case Temp (C):	26.3
System Temp (C):	26.3
Spectrometer Temp (C):	24.2
CCD Temp (C):	0.013
Secondary Temp (C):	20.008
Heatsink Temp (C):	21.112
CCDPCB Temp (C):	36.362
SecondaryPCB Temp (C):	31.238

Wavelength	RamanShift	Raw Counts	Dark Subtracted
787.061	30.1047	466.15	58.65
787.2016	32.3739	465.7	60.45
787.3422	34.6426	474.75	67.7
787.4828	36.9109	478.55	69.25
787.6235	39.1787	483.9	70.9
787.7642	41.4461	492.75	74.3
787.9049	43.7131	504.05	85.4
788.0456	45.9796	515.55	91.9
788.1863	48.2456	526.1	100.85
788.3271	50.5112	531.25	98.25
788.4679	52.7764	542.75	108.9
788.6087	55.0411	553.1	112.8
788.7496	57.3054	565.65	121.65
788.8904	59.5692	576.65	129.1
789.0313	61.8326	585.05	137
789.1722	64.0955	599.85	148.45
789.3132	66.3579	612.95	155.5
789.4541	68.6199	638.75	177.05
789.5951	70.8815	672.7	205.7
789.7361	73.1426	757.85	288.4
789.8771	75.4032	968.5	494.55
790.0181	77.6634	1496.5	1018.5
790.1592	79.9231	2742.75	2255.85
790.3003	82.1824	5442.15	4939.9
790.4414	84.4412	10306.8	9773.2
790.5825	86.6995	16949.25	16375.35
790.7237	88.9574	23430.6	22820.8
790.8648	91.2148	27924.95	27295.8
791.006	93.4717	30043.15	29398.55
791.1472	95.7282	30526.8	29873.35
791.2885	97.9842	30526.95	29873.3
791.4297	100.2398	30061	29404.7
791.571	102.4949	29497.15	28839.35
791.7123	104.7495	28788.1	28122.45
791.8536	107.0036	28022.2	27358.3
791.9949	109.2573	27311.45	26647.65
792.1363	111.5105	26584.3	25915.9
792.2777	113.7632	25914.35	25244.35
792.4191	116.0154	25279.1	24595.4
792.5605	118.2672	24845.6	24168.85
792.7019	120.5185	24387.85	23714
792.8434	122.7693	24047.9	23369.05
792.9849	125.0197	23734.4	23050.6
793.1264	127.2696	23480.6	22796.85
793.2679	129.519	23392.75	22702.15
793.4094	131.7679	23222.9	22530.85
793.551	134.0163	23091.05	22395.8
793.6926	136.2642	22924.55	22223.85
793.8342	138.5117	22746.8	22037.7
793.9758	140.7587	22555.25	21852.5
794.1175	143.0052	22364.5	21656.75
794.2591	145.2512	22142.5	21433.25
794.4008	147.4967	21906.5	21196.6
794.5425	149.7417	21806.6	21096.6
794.6842	151.9863	21693.45	20976.85
794.826	154.2304	21659.55	20937.45
794.9677	156.4739	21516.2	20790.6
795.1095	158.717	21467.85	20742.75
795.2513	160.9596	21335.05	20601.85
795.3931	163.2017	21108.75	20373.8
795.535	165.4433	20868.55	20133.85
795.6768	167.6844	20509.8	19773.35
795.8187	169.925	20227.4	19491.05
795.9606	172.1651	19838.1	19098.9
796.1025	174.4047	19596.65	18854.1
796.2445	176.6439	19340.4	18595.25
796.3864	178.8825	19107.05	18360.1
796.5284	181.1206	18985.05	18231.3
796.6704	183.3582	18853.5	18093.3
796.8124	185.5954	18735.35	17973.7
796.9544	187.832	18659.95	17895.5
797.0965	190.0681	18641.45	17877.15
797.2386	192.3037	18659.95	17887.35
797.3806	194.5388	18707.75	17935.2
797.5228	196.7734	18753.9	17979.15
797.6649	199.0075	18817.1	18038.95
797.807	201.2411	18970.35	18192.95
797.9492	203.4742	19081.05	18300.5
798.0914	205.7068	19258.95	18474.5
798.2336	207.9389	19359	18576.05
798.3758	210.1704	19562.1	18789
798.518	212.4015	19628.35	18868
798.6603	214.632	19833.2	19074.25
798.8025	216.862	20036.45	19279.4
798.9448	219.0915	20205.35	19444.4
799.0871	221.3205	20457.75	19693
799.2294	223.549	20724.5	19964.1
799.3718	225.777	21061.65	20298.25
799.5141	228.0044	21431.05	20659.7
799.6565	230.2314	21960.3	21189.85
799.7989	232.4578	22360.55	21584.45
799.9413	234.6837	22750.5	21967.45
800.0837	236.909	22963	22182.8
800.2262	239.1339	23016.55	22210
800.3687	241.3582	22805.9	22011.65
800.5111	243.582	22456.4	21631.6
800.6536	245.8053	22125.75	21317.5
800.7961	248.0281	21798.85	20992.1
800.9387	250.2503	21505.55	20698.4
801.0812	252.472	21396.7	20583.05
801.2238	254.6932	21396.4	20586.5
801.3664	256.9139	21278.85	20470.2
801.509	259.134	21256.25	20441.15
801.6516	261.3536	21244.95	20434.85
801.7942	263.5727	21260.65	20442.75
801.9369	265.7912	21239.15	20425.2
802.0795	268.0092	21283.95	20469.6
802.2222	270.2267	21221.95	20408.3
802.3649	272.4436	21204.25	20387.3
802.5076	274.6601	21166.05	20340
802.6504	276.8759	21082.9	20261.05
802.7931	279.0913	21107.45	20286.15
802.9359	281.3061	21084.15	20260.55
803.0787	283.5204	21151.7	20320.8
803.2215	285.7341	21285.4	20457.7
803.3643	287.9473	21457.3	20616.5
803.5071	290.16	21725.05	20893.5
803.6499	292.3721	22040.9	21208.05
803.7928	294.5837	22497.85	21670.15
803.9357	296.7947	22871.2	22043.85
804.0786	299.0052	23046.9	22216.85
804.2215	301.2152	22907.55	22070.95
804.3644	303.4246	22583.55	21753.2
804.5074	305.6334	22057.8	21227.9
804.6503	307.8418	21571	20742.2
804.7933	310.0495	21178.25	20344.55
804.9363	312.2568	20872.2	20035.3
805.0793	314.4635	20668.4	19829.95
805.2223	316.6696	20632.55	19791
805.3653	318.8752	20591.1	19738.9
805.5084	321.0802	20627.15	19790.55
805.6514	323.2847	20762.15	19917.35
805.7945	325.4887	20814.95	19967.35
805.9376	327.692	20773.65	19925.1
806.0807	329.8949	20707.1	19858.1
806.2238	332.0972	20459.45	19609.7
806.367	334.2989	20174.85	19322.6
806.5101	336.5001	19885.9	19034.45
806.6533	338.7007	19716.55	18862.95
806.7965	340.9008	19646.8	18790.75
806.9397	343.1003	19530.15	18679.5
807.0829	345.2992	19475.1	18616.8
807.2261	347.4976	19509.85	18653.7
807.3693	349.6955	19507.85	18643.3
807.5126	351.8927	19569.4	18711.05
807.6559	354.0895	19580.9	18709.3
807.7991	356.2856	19664.85	18801.05
807.9424	358.4812	19663.6	18796.65
808.0857	360.6763	19702.7	18837.1
808.2291	362.8707	19655.15	18781.2
808.3724	365.0646	19765.85	18893.5
808.5158	367.258	19752	18880.4
808.6591	369.4508	19802.15	18924.75
808.8025	371.643	19898.75	19021.35
808.9459	373.8346	19866.2	18985.65
809.0893	376.0257	19863.55	18979.6
809.2327	378.2162	19778.3	18901.45
809.3762	380.4062	19691.3	18814.8
809.5196	382.5956	19539.6	18665.15
809.6631	384.7844	19469.55	18601.15
809.8066	386.9726	19404	18539.45
809.9501	389.1603	19371.65	18504.65
810.0936	391.3474	19328.35	18439.05
810.2371	393.5339	19317.75	18445.75
810.3806	395.7199	19250.5	18379.55
810.5241	397.9052	19275.9	18410.15
810.6677	400.09	19352.45	18485.65
810.8113	402.2743	19415.5	18548.35
810.9548	404.4579	19488.85	18622.7
811.0984	406.641	19673.05	18799.95
811.2421	408.8235	19890.45	19016.95
811.3857	411.0054	20225.6	19350.6
811.5293	413.1868	20712.65	19833.8
811.673	415.3675	21037.7	20154.95
811.8166	417.5477	21267.2	20382.3
811.9603	419.7273	21347.7	20460.9
812.104	421.9064	21207.35	20316.35
812.2477	424.0848	21062.3	20181.8
812.3914	426.2627	20864.85	19983.5
812.5351	428.4399	20609.45	19722.65
812.6788	430.6166	20257	19367.4
812.8226	432.7928	19877.05	18986.55
812.9663	434.9683	19591.55	18706.75
813.1101	437.1432	19351.95	18467
813.2539	439.3176	19188.45	18312.25
813.3977	441.4914	19060.65	18187.35
813.5415	443.6645	19083.7	18208.9
813.6853	445.8371	19014.2	18129.6
813.8291	448.0091	18952.45	18065.45
813.973	450.1806	18943.3	18060.25
814.1168	452.3514	18874.25	17995
814.2607	454.5216	18889.7	17997.3
814.4046	456.6913	18837.65	17952.4
814.5485	458.8603	18882.95	17999.35
814.6924	461.0288	18957.9	18080.65
814.8363	463.1967	18960.25	18086.45
814.9802	465.3639	19155.35	18280.5
815.1241	467.5306	19224.5	18338.4
815.2681	469.6967	19382.45	18502.65
815.412	471.8622	19524.5	18649.05
815.556	474.0271	19762.35	18882.6
815.7	476.1914	19807.25	18919.55
815.844	478.3551	19830.15	18943.4
815.988	480.5182	19798	18916.75
816.132	482.6807	19811.7	18938.45
816.276	484.8426	19910.75	19041.5
816.4201	487.0039	20192.35	19320.45
816.5641	489.1647	20609.2	19725.15
816.7082	491.3248	21068.75	20183.65
816.8522	493.4843	21270.7	20390.7
816.9963	495.6432	21299.05	20418.95
817.1404	497.8015	21230.35	20339.85
817.2845	499.9592	21254.4	20356.25
817.4286	502.1163	21176.25	20279.05
817.5727	504.2728	20947.6	20060.5
817.7168	506.4287	20684.5	19804.9
817.861	508.5839	20269.75	19390.8
818.0051	510.7386	19991.75	19104.95
818.1493	512.8927	19798.7	18903.5
818.2935	515.0461	19673.65	18778.8
818.4377	517.199	19609.95	18714.7
818.5818	519.3512	19613.25	18713.2
818.726	521.5029	19737.85	18838.15
818.8703	523.6539	19792.65	18897.1
819.0145	525.8043	19873.4	18974.8
819.1587	527.9541	19880.4	18977.25
819.303	530.1033	19867.15	18969.6
819.4472	532.2519	19948.5	19047.7
819.5915	534.3999	20086.15	19181.9
819.7357	536.5472	20371.95	19476.25
819.88	538.694	20840.15	19945.35
820.0243	540.8401	21485.5	20585
820.1686	542.9856	21995.1	21086.95
820.3129	545.1305	22144.45	21224.35
820.4572	547.2748	22037.1	21121.6
820.6016	549.4185	21703.3	20778.25
820.7459	551.5615	21347	20427.6
820.8902	553.704	21208.7	20295.65
821.0346	555.8458	21138.25	20230.25
821.1789	557.987	21186.2	20280.05
821.3233	560.1276	21160.35	20248.25
821.4677	562.2675	21192.05	20278.7
821.6121	564.4069	21201.15	20290.25
821.7565	566.5456	21160.85	20258.55
821.9009	568.6837	21114.75	20208.65
822.0453	570.8212	20861.35	19955.15
822.1897	572.958	20523.45	19614.7
822.3342	575.0942	20287.3	19385.35
822.4786	577.2299	20085	19190.4
822.6231	579.3648	20109.25	19223.5
822.7675	581.4992	20139.1	19261.65
822.912	583.6329	20359.55	19485.25
823.0565	585.766	20580.7	19697
823.201	587.8985	20748.2	19858.65
823.3454	590.0304	20765.4	19854.95
823.4899	592.1616	20720.1	19808.25
823.6345	594.2922	20626.55	19715.85
823.779	596.4222	20541.45	19629.9
823.9235	598.5515	20291.2	19375.7
824.068	600.6802	20184	19267.6
824.2126	602.8083	19994.95	19085.1
824.3571	604.9358	19988.95	19079.85
824.5017	607.0626	19888.4	18973.35
824.6462	609.1888	19901.1	18979.25
824.7908	611.3144	19847.5	18923.6
824.9354	613.4393	19732.2	18811.45
825.08	615.5636	19655.9	18732.6
825.2246	617.6873	19543.45	18624.8
825.3692	619.8103	19529.95	18610.35
825.5138	621.9327	19457.4	18539
825.6584	624.0544	19400.9	18489.7
825.803	626.1756	19390.7	18474.95
825.9477	628.2961	19365.85	18448.7
826.0923	630.4159	19297.8	18379.4
826.237	632.5351	19300.15	18379.3
826.3816	634.6537	19255.1	18332.7
826.5263	636.7716	19288.3	18361.35
826.6709	638.8889	19291.4	18361.55
826.8156	641.0056	19348.45	18423.05
826.9603	643.1216	19348.2	18423.3
827.105	645.237	19414.3	18491.6
827.2497	647.3518	19362.25	18450.3
827.3944	649.4659	19456.6	18546.75
827.5391	651.5793	19452.15	18539.85
827.6838	653.6922	19409.8	18499.5
827.8285	655.8043	19469.45	18554.55
827.9733	657.9159	19433.4	18516.6
828.118	660.0268	19352.3	18435.8
828.2627	662.137	19349.2	18430.4
828.4075	664.2466	19333.4	18405.4
828.5522	666.3556	19320.95	18397.95
828.697	668.4639	19317.8	18396.1
828.8418	670.5716	19371.7	18457.75
828.9865	672.6786	19481.6	18559.75
829.1313	674.785	19526.7	18600.95
829.2761	676.8907	19590.65	18668
829.4209	678.9958	19690.5	18769.6
829.5657	681.1002	19689.15	18764.65
829.7105	683.204	19699.1	18763.6
829.8553	685.3072	19644.35	18711.55
830.0001	687.4097	19602.9	18677
830.1449	689.5115	19597.2	18671.2
830.2898	691.6127	19564.3	18640.4
830.4346	693.7132	19432.6	18513.6
830.5794	695.8131	19459.15	18517.9
830.7243	697.9123	19426	18490.15
830.8691	700.0109	19433.7	18498.2
831.014	702.1089	19424.8	18495.55
831.1588	704.2061	19459.2	18528.05
831.3037	706.3028	19504.05	18569.45
831.4486	708.3987	19575.15	18644.3
831.5935	710.4941	19676.85	18750.85
831.7383	712.5887	19856.75	18926.55
831.8832	714.6827	20164.15	19234.75
832.0281	716.7761	20504.55	19577.3
832.173	718.8688	20889.25	19963.4
832.3179	720.9608	21087.35	20147.4
832.4628	723.0522	21204.35	20262.25
832.6077	725.1429	20974.9	20042.7
832.7527	727.233	20721.6	19791.8
832.8976	729.3224	20489.25	19558.1
833.0425	731.4112	20213	19280.9
833.1874	733.4993	19984	19049.9
833.3324	735.5867	19836.85	18904.8
833.4773	737.6735	19775.7	18843.9
833.6222	739.7596	19736.25	18802.8
833.7672	741.845	19708.05	18772.7
833.9122	743.9298	19677.35	18739.75
834.0571	746.014	19713.4	18780.25
834.2021	748.0974	19730.05	18789.65
834.347	750.1802	19733.45	18791.65
834.492	752.2624	19717.4	18776.5
834.637	754.3439	19743.3	18796.4
834.782	756.4247	19813.05	18861.8
834.9269	758.5048	19947.45	19010
835.0719	760.5843	20132.95	19190.85
835.2169	762.6631	20440.05	19499.8
835.3619	764.7413	20909.45	19975.8
835.5069	766.8188	21447.05	20511.05
835.6519	768.8956	21900.95	20956.9
835.7969	770.9718	22251.9	21312.85
835.9419	773.0473	22092.65	21152.2
836.0869	775.1221	21777.2	20838.8
836.232	777.1962	21425.65	20487.1
836.377	779.2697	21225.1	20284
836.522	781.3426	21348	20392.3
836.667	783.4147	21533.6	20589.85
836.8121	785.4862	21915.45	20972.2
836.9571	787.557	21971.3	21028.85
837.1021	789.6271	21580.6	20635.7
837.2472	791.6966	21082.5	20141.95
837.3922	793.7654	20513.5	19571.15
837.5373	795.8335	20229.45	19289.75
837.6823	797.901	20054.45	19110.75
837.8274	799.9678	20055.85	19111.15
837.9724	802.0339	20078.1	19132.05
838.1175	804.0993	20138.9	19179.55
838.2626	806.1641	20113.4	19169.85
838.4076	808.2282	20090.25	19149.25
838.5527	810.2916	19960.9	19016.7
838.6978	812.3544	19894.75	18955.05
838.8428	814.4164	19842.1	18901.9
838.9879	816.4778	19860.95	18915.6
839.133	818.5385	19863	18914.35
839.2781	820.5986	19972.8	19023.9
839.4232	822.658	20071.1	19125.7
839.5682	824.7166	20126.15	19181.45
839.7133	826.7747	20387.2	19440.15
839.8584	828.832	20582.6	19636.85
840.0035	830.8886	20719.45	19770.5
840.1486	832.9446	20841.55	19892.4
840.2937	834.9999	20936	19990.75
840.4388	837.0545	20956	20006.85
840.5839	839.1085	21019.65	20070.75
840.729	841.1618	20946.7	19997.8
840.8741	843.2143	20899.65	19953.35
841.0192	845.2662	20825.3	19879.5
841.1643	847.3175	20797.85	19850.85
841.3095	849.368	20708.2	19761.15
841.4546	851.4179	20590.45	19644.05
841.5997	853.467	20436.2	19490.15
841.7448	855.5155	20354.35	19407.45
841.8899	857.5633	20280.15	19332.85
842.0351	859.6105	20171.9	19222.85
842.1802	861.6569	20143.4	19193.2
842.3253	863.7027	20109.65	19157.4
842.4704	865.7478	20099.55	19150.35
842.6156	867.7922	20131.25	19180.95
842.7607	869.8359	20186.3	19236.05
842.9058	871.8789	20316.05	19368.15
843.0509	873.9212	20546.4	19567.45
843.1961	875.9629	20655.9	19708.1
843.3412	878.0039	20830.3	19882.9
843.4863	880.0441	20943.2	19997.15
843.6315	882.0837	20982.75	20034.8
843.7766	884.1226	20916.6	19966.35
843.9218	886.1609	20819.1	19870.15
844.0669	888.1984	20740.8	19790.05
844.212	890.2352	20758.55	19805.8
844.3572	892.2714	20721.8	19764.15
844.5023	894.3069	20719.7	19766.2
844.6475	896.3416	20657.5	19707.4
844.7926	898.3757	20626.5	19674.05
844.9377	900.4091	20626.6	19672
845.0829	902.4418	20650.25	19693.4
845.228	904.4739	20671.3	19716.45
845.3732	906.5052	20665.45	19711.1
845.5183	908.5358	20574.45	19621.15
845.6635	910.5658	20483.55	19527.9
845.8086	912.595	20308.45	19354.6
845.9538	914.6236	20146.9	19193.85
846.0989	916.6515	20121.6	19168.55
846.2441	918.6786	20093.55	19139.6
846.3892	920.7051	20240.45	19286.35
846.5344	922.7309	20345.1	19391.1
846.6795	924.756	20399.85	19449.45
846.8246	926.7804	20515.85	19562.35
846.9698	928.8041	20452.4	19499.9
847.1149	930.8272	20514.25	19563.15
847.2601	932.8495	20400.95	19444.95
847.4052	934.8711	20376	19418.5
847.5504	936.892	20204.9	19249.8
847.6955	938.9123	20057.95	19101.75
847.8407	940.9318	19964.3	19012.2
847.9858	942.9506	19832.5	18878.75
848.131	944.9688	19742.7	18787.3
848.2761	946.9862	19684.25	18731.85
848.4213	949.003	19581.25	18627.45
848.5664	951.019	19633.9	18677.3
848.7115	953.0344	19679.05	18727.6
848.8567	955.0491	19704.3	18749.45
849.0018	957.063	19812.8	18856.85
849.147	959.0763	19972.5	19021.65
849.2921	961.0888	19992.05	19034.95
849.4373	963.1007	20068.3	19119.9
849.5824	965.1119	20135.25	19191.65
849.7275	967.1223	20138.3	19204.95
849.8727	969.1321	20188.8	19251.7
850.0178	971.1412	20232	19287
850.1629	973.1495	20269.05	19322.9
850.3081	975.1572	20331.3	19324.2
850.4532	977.1641	20353.65	19400.25
850.5983	979.1704	20332.5	19380.9
850.7435	981.1759	20295.8	19338.65
850.8886	983.1808	20417.3	19465.75
851.0337	985.1849	20485.3	19523
851.1788	987.1884	20640.35	19685.65
851.324	989.1911	20797.95	19841.8
851.4691	991.1932	20967	20016.5
851.6142	993.1945	20996.55	20047.2
851.7593	995.1951	20933.25	19980.05
851.9045	997.1951	20928.2	19970.7
852.0496	999.1943	20845.65	19891.55
852.1947	1001.1928	20744.7	19788.75
852.3398	1003.1906	20744.95	19792.85
852.4849	1005.1877	20831.9	19877.1
852.63	1007.1841	20752.6	19800
852.7751	1009.1798	20691.6	19741.9
852.9202	1011.1748	20489	19539.95
853.0653	1013.1691	20311.6	19361.45
853.2104	1015.1627	20096.9	19144.8
853.3555	1017.1556	19848.85	18900.55
853.5006	1019.1477	19791.2	18840.2
853.6457	1021.1392	19691.05	18746.7
853.7908	1023.1299	19655.75	18712.9
853.9359	1025.12	19669.25	18733.55
854.081	1027.1093	19692	18769.85
854.2261	1029.0979	19818.8	18900.25
854.3712	1031.0859	19826.65	18902.65
854.5163	1033.0731	19850.85	18913.1
854.6613	1035.0596	19774.9	18833.15
854.8064	1037.0454	19611.95	18664.15
854.9515	1039.0304	19488.95	18540.35
855.0965	1041.0148	19373.95	18422.55
855.2416	1042.9985	19302.2	18351.4
855.3867	1044.9814	19261.6	18314.55
855.5317	1046.9636	19204.15	18252.75
855.6768	1048.9452	19194.75	18248.8
855.8219	1050.926	19181.85	18234.3
855.9669	1052.9061	19200.25	18248
856.112	1054.8855	19181.1	18231.65
856.257	1056.8642	19200.95	18252.9
856.4021	1058.8421	19263.25	18311.7
856.5471	1060.8194	19294.2	18342.05
856.6921	1062.7959	19341.35	18390.55
856.8372	1064.7717	19369.1	18415.65
856.9822	1066.7469	19369.5	18414.55
857.1272	1068.7213	19365.05	18413.05
857.2723	1070.695	19377.85	18426.7
857.4173	1072.6679	19279.2	18327.35
857.5623	1074.6402	19249.3	18297.2
857.7073	1076.6117	19236.6	18279.55
857.8523	1078.5826	19242.9	18291.8
857.9973	1080.5527	19260.6	18308.9
858.1423	1082.5221	19354.95	18405.85
858.2873	1084.4908	19512.35	18561.85
858.4323	1086.4587	19719.1	18769.3
858.5773	1088.426	19867.55	18915.6
858.7223	1090.3925	19871.4	18913.8
858.8673	1092.3584	19851.8	18898.45
859.0123	1094.3235	19659.9	18710.6
859.1573	1096.2879	19592.9	18643.35
859.3022	1098.2515	19596.55	18647.4
859.4472	1100.2145	19649.85	18703.4
859.5922	1102.1767	19722.5	18770.95
859.7371	1104.1382	19858.8	18909.05
859.8821	1106.099	20061.25	19108.95
860.027	1108.0591	20272.4	19321.7
860.172	1110.0185	20387	19436.15
860.3169	1111.9771	20409.1	19460.85
860.4619	1113.9351	20172.25	19224.65
860.6068	1115.8923	19867.7	18917.4
860.7517	1117.8488	19595.4	18646.05
860.8967	1119.8045	19330.55	18381.5
861.0416	1121.7596	19220.85	18269.65
861.1865	1123.7139	19126.05	18177.25
861.3314	1125.6675	19159.2	18211.8
861.4763	1127.6204	19232.55	18285.95
861.6212	1129.5726	19201.35	18246.65
861.7661	1131.524	19198.95	18251.15
861.911	1133.4748	19191.25	18244.45
862.0559	1135.4248	19178.6	18229.35
862.2008	1137.3741	19159.05	18208.4
862.3457	1139.3226	19107.85	18159.3
862.4905	1141.2705	19116.55	18166.45
862.6354	1143.2176	18991.05	18038.1
862.7803	1145.164	19010.8	18059.75
862.9251	1147.1097	19032.85	18082.1
863.07	1149.0546	18985.9	18035.2
863.2148	1150.9989	18938.9	17989.35
863.3597	1152.9424	18815.9	17867.9
863.5045	1154.8852	18654.15	17708
863.6493	1156.8272	18531.75	17582.85
863.7942	1158.7686	18537.35	17581.6
863.939	1160.7092	18420.65	17468.05
864.0838	1162.6491	18413.85	17462.25
864.2286	1164.5883	18504.95	17557.3
864.3734	1166.5267	18570.95	17619.5
864.5182	1168.4644	18734.6	17787.75
864.663	1170.4014	18901.15	17949.15
864.8078	1172.3377	19146.6	18200.8
864.9526	1174.2732	19349.45	18402.55
865.0974	1176.2081	19607.6	18661.15
865.2421	1178.1421	19812.25	18860
865.3869	1180.0755	20034.65	19089.55
