Software Version:	3.9.2.0
Unit SN:	10000200
Spectrometer SN:	6960
Date:	3/8/2024 1:01:17 PM
Data Line Index:	25
Spectral Points:	2048
Integration time (ms):	125
Averages:	20
Delay (ms):	30000
Sequence Number:	1
Processing:	dark subtract
Laser Power (mW):	300
Laser Current (mA):	822
Laser Diode Temp (C):	25
Laser Case Temp (C):	26.1
System Temp (C):	26.1
Spectrometer Temp (C):	23.9
CCD Temp (C):	0.002
Secondary Temp (C):	20.016
Heatsink Temp (C):	20.777
CCDPCB Temp (C):	36.04
SecondaryPCB Temp (C):	29.059

Wavelength	RamanShift	Raw Counts	Dark Subtracted
787.061	30.1047	456.35	46.55
787.2016	32.3739	455.05	48.65
787.3422	34.6426	460.9	53.2
787.4828	36.9109	466.85	58.25
787.6235	39.1787	476.95	62.55
787.7642	41.4461	485.25	68.65
787.9049	43.7131	495.4	73.35
788.0456	45.9796	503	78.9
788.1863	48.2456	509.85	82.6
788.3271	50.5112	519.25	87.65
788.4679	52.7764	529.8	93.55
788.6087	55.0411	538.4	96.35
788.7496	57.3054	554.4	109.1
788.8904	59.5692	561.85	116.7
789.0313	61.8326	570.45	121.85
789.1722	64.0955	585.8	132.9
789.3132	66.3579	598.4	139.15
789.4541	68.6199	619.6	156.65
789.5951	70.8815	663.45	195.65
789.7361	73.1426	740.35	270.5
789.8771	75.4032	956.5	482.25
790.0181	77.6634	1476.5	996.1
790.1592	79.9231	2697.1	2206.25
790.3003	82.1824	5340.4	4833.1
790.4414	84.4412	10076.2	9534.75
790.5825	86.6995	16561	15978.95
790.7237	88.9574	22804.5	22182.4
790.8648	91.2148	27047.95	26400.4
791.006	93.4717	28951.15	28291.8
791.1472	95.7282	29246.95	28576.3
791.2885	97.9842	28989.95	28315.55
791.4297	100.2398	28276.25	27597.05
791.571	102.4949	27487.25	26808.25
791.7123	104.7495	26580.7	25895.1
791.8536	107.0036	25676.7	24995.3
791.9949	109.2573	24853.9	24173.2
792.1363	111.5105	24092	23406.35
792.2777	113.7632	23368.55	22678.8
792.4191	116.0154	22786.55	22088.95
792.5605	118.2672	22360.45	21667
792.7019	120.5185	21893.55	21192.95
792.8434	122.7693	21590.9	20888.4
792.9849	125.0197	21282.5	20581.8
793.1264	127.2696	20999.15	20297.35
793.2679	129.519	20826.2	20119.05
793.4094	131.7679	20557.85	19849.95
793.551	134.0163	20302.55	19587.95
793.6926	136.2642	19984.85	19265.95
793.8342	138.5117	19692.4	18962.45
793.9758	140.7587	19309.55	18583.9
794.1175	143.0052	19034.4	18306.25
794.2591	145.2512	18704.3	17976.35
794.4008	147.4967	18422.2	17696.35
794.5425	149.7417	18218.45	17493
794.6842	151.9863	18060.1	17323.85
794.826	154.2304	17951.2	17213.5
794.9677	156.4739	17784.6	17039.7
795.1095	158.717	17692.15	16946.1
795.2513	160.9596	17548.75	16802.4
795.3931	163.2017	17285.65	16536.45
795.535	165.4433	16951.15	16197.9
795.6768	167.6844	16640.9	15884.8
795.8187	169.925	16308.8	15550.95
795.9606	172.1651	15939.9	15183.7
796.1025	174.4047	15640.75	14878.65
796.2445	176.6439	15415.45	14651.6
796.3864	178.8825	15185.4	14419.95
796.5284	181.1206	15051.3	14281.05
796.6704	183.3582	14889.55	14116.8
796.8124	185.5954	14779.45	13999.85
796.9544	187.832	14699.05	13913.9
797.0965	190.0681	14665.85	13879.4
797.2386	192.3037	14698.45	13912.25
797.3806	194.5388	14680.75	13891.15
797.5228	196.7734	14703.6	13914.65
797.6649	199.0075	14781.8	13989.55
797.807	201.2411	14917.15	14124.7
797.9492	203.4742	14995.85	14199.75
798.0914	205.7068	15164.85	14365.25
798.2336	207.9389	15295.2	14495.45
798.3758	210.1704	15443.15	14648.3
798.518	212.4015	15564	14781.9
798.6603	214.632	15679.05	14902.55
798.8025	216.862	15867.9	15091.75
798.9448	219.0915	15991.4	15212.5
799.0871	221.3205	16158.15	15379.9
799.2294	223.549	16305.05	15530.25
799.3718	225.777	16461.15	15681.35
799.5141	228.0044	16689.55	15900.25
799.6565	230.2314	16945.3	16158.75
799.7989	232.4578	17171.15	16379.5
799.9413	234.6837	17391.25	16595.3
800.0837	236.909	17554.25	16752.5
800.2262	239.1339	17545.15	16718.65
800.3687	241.3582	17425.45	16613.85
800.5111	243.582	17209.9	16367.3
800.6536	245.8053	17025.85	16196.65
800.7961	248.0281	16887.6	16069.85
800.9387	250.2503	16775	15950.15
801.0812	252.472	16771.35	15947.7
801.2238	254.6932	16859.75	16032.25
801.3664	256.9139	16899.1	16070.85
801.509	259.134	17048.6	16216.55
801.6516	261.3536	17189.65	16361.25
801.7942	263.5727	17412.1	16583.45
801.9369	265.7912	17573.6	16742.45
802.0795	268.0092	17816.15	16985.7
802.2222	270.2267	17910.75	17079.3
802.3649	272.4436	17978	17143.3
802.5076	274.6601	17976.6	17133.2
802.6504	276.8759	17876.4	17036
802.7931	279.0913	17792.2	16952.95
802.9359	281.3061	17636.3	16800.85
803.0787	283.5204	17656.85	16813.3
803.2215	285.7341	17647.2	16795.95
803.3643	287.9473	17715.3	16856.15
803.5071	290.16	17836.75	16984.1
803.6499	292.3721	18023.65	17180.05
803.7928	294.5837	18345.05	17496.85
803.9357	296.7947	18638.95	17791.55
804.0786	299.0052	18796.25	17946.6
804.2215	301.2152	18735.05	17887.7
804.3644	303.4246	18475.35	17630.25
804.5074	305.6334	18039.95	17196.5
804.6503	307.8418	17602.5	16758.3
804.7933	310.0495	17145.45	16296.15
804.9363	312.2568	16768.8	15914.9
805.0793	314.4635	16426.85	15572.15
805.2223	316.6696	16217.45	15362.7
805.3653	318.8752	16083.55	15217.4
805.5084	321.0802	16026	15168.65
805.6514	323.2847	16088.25	15229.65
805.7945	325.4887	16122	15264
805.9376	327.692	16111.35	15246.7
806.0807	329.8949	16036.45	15178.45
806.2238	332.0972	15816.1	14953.65
806.367	334.2989	15600.55	14736.7
806.5101	336.5001	15329.3	14464
806.6533	338.7007	15092.15	14224.7
806.7965	340.9008	14963.7	14095.45
806.9397	343.1003	14826.1	13961.9
807.0829	345.2992	14719.4	13850.8
807.2261	347.4976	14677.1	13806.25
807.3693	349.6955	14631.85	13753.6
807.5126	351.8927	14676.95	13796.5
807.6559	354.0895	14594.5	13704.7
807.7991	356.2856	14608.5	13728.25
807.9424	358.4812	14558.1	13678.8
808.0857	360.6763	14577.15	13696
808.2291	362.8707	14563.25	13683.4
808.3724	365.0646	14614.85	13727.3
808.5158	367.258	14662.95	13779.8
808.6591	369.4508	14713.45	13826.65
808.8025	371.643	14814.4	13924.85
808.9459	373.8346	14872.25	13978.5
809.0893	376.0257	14952.9	14063.45
809.2327	378.2162	14956	14066.95
809.3762	380.4062	14881	13994
809.5196	382.5956	14739.45	13850.85
809.6631	384.7844	14621.1	13740
809.8066	386.9726	14493.2	13612.25
809.9501	389.1603	14440.3	13560.65
810.0936	391.3474	14387.25	13478.85
810.2371	393.5339	14336.4	13456.45
810.3806	395.7199	14304.6	13422.1
810.5241	397.9052	14364.45	13483.6
810.6677	400.09	14412.65	13529.3
810.8113	402.2743	14550.05	13668.3
810.9548	404.4579	14679.6	13796.65
811.0984	406.641	14874.35	13987.5
811.2421	408.8235	15067.8	14183.2
811.3857	411.0054	15305.15	14415.05
811.5293	413.1868	15581.95	14684.7
811.673	415.3675	15739.05	14836.7
811.8166	417.5477	15826.25	14927.95
811.9603	419.7273	15822.65	14927.95
812.104	421.9064	15717.05	14817.75
812.2477	424.0848	15603.6	14708.75
812.3914	426.2627	15410.7	14515.3
812.5351	428.4399	15230.05	14333.4
812.6788	430.6166	14884.8	13981.45
812.8226	432.7928	14523.9	13623.65
812.9663	434.9683	14230.4	13330
813.1101	437.1432	14004.5	13106.75
813.2539	439.3176	13829	12936.3
813.3977	441.4914	13693.05	12807.1
813.5415	443.6645	13635.8	12740.05
813.6853	445.8371	13633.65	12734.55
813.8291	448.0091	13547.6	12650.75
813.973	450.1806	13531.65	12636.45
814.1168	452.3514	13498.75	12609.9
814.2607	454.5216	13552.5	12648.4
814.4046	456.6913	13502.1	12605.35
814.5485	458.8603	13542.55	12644.9
814.6924	461.0288	13629.45	12738
814.8363	463.1967	13599.95	12713.15
814.9802	465.3639	13678.55	12787.15
815.1241	467.5306	13708.05	12815.85
815.2681	469.6967	13779.3	12888.7
815.412	471.8622	13830.35	12941.15
815.556	474.0271	13919.25	13031.05
815.7	476.1914	13971.45	13072.2
815.844	478.3551	13997.85	13101.15
815.988	480.5182	14011.25	13117.05
816.132	482.6807	14090.1	13205.55
816.276	484.8426	14224.2	13341.4
816.4201	487.0039	14559.4	13671.25
816.5641	489.1647	14945.25	14049.8
816.7082	491.3248	15338	14435.85
816.8522	493.4843	15486.3	14597.45
816.9963	495.6432	15444.65	14552.2
817.1404	497.8015	15341.1	14439.75
817.2845	499.9592	15249.6	14339.25
817.4286	502.1163	15108.8	14199.75
817.5727	504.2728	14809.15	13908.95
817.7168	506.4287	14550.55	13663.15
817.861	508.5839	14175.5	13279.5
818.0051	510.7386	13910.95	13011.8
818.1493	512.8927	13768.3	12856.15
818.2935	515.0461	13750.65	12845.5
818.4377	517.199	13824.6	12919.9
818.5818	519.3512	13881.15	12973.85
818.726	521.5029	14114.7	13203.1
818.8703	523.6539	14287	13376.9
819.0145	525.8043	14391.65	13485.4
819.1587	527.9541	14345.65	13433.4
819.303	530.1033	14234.15	13325.5
819.4472	532.2519	14127.7	13218.95
819.5915	534.3999	14144.85	13233.5
819.7357	536.5472	14275.5	13367.35
819.88	538.694	14568.55	13667.4
820.0243	540.8401	14982.9	14073
820.1686	542.9856	15317.8	14398.35
820.3129	545.1305	15412.4	14488.3
820.4572	547.2748	15304.45	14375.45
820.6016	549.4185	15056.8	14127.25
820.7459	551.5615	14829.7	13903.25
820.8902	553.704	14796.85	13873.5
821.0346	555.8458	14816.2	13897.25
821.1789	557.987	14945.45	14029
821.3233	560.1276	15101.05	14182
821.4677	562.2675	15350.55	14428.35
821.6121	564.4069	15692.6	14772.45
821.7565	566.5456	16022.3	15103.35
821.9009	568.6837	16090.55	15174.2
822.0453	570.8212	15741.65	14826.2
822.1897	572.958	15158.45	14241.55
822.3342	575.0942	14623.45	13712.85
822.4786	577.2299	14263.8	13354.15
822.6231	579.3648	14118.85	13220.1
822.7675	581.4992	14117.3	13226.45
822.912	583.6329	14237.25	13349.2
823.0565	585.766	14418.35	13524.25
823.201	587.8985	14585.4	13683.75
823.3454	590.0304	14609.25	13673.25
823.4899	592.1616	14536.8	13615.65
823.6345	594.2922	14447.95	13522.95
823.779	596.4222	14260.4	13333.55
823.9235	598.5515	14041.25	13115.6
824.068	600.6802	13871.7	12950
824.2126	602.8083	13724.2	12805.3
824.3571	604.9358	13707.75	12781.55
824.5017	607.0626	13693.5	12766.1
824.6462	609.1888	13775.5	12841.1
824.7908	611.3144	13834.35	12901.55
824.9354	613.4393	13879.3	12947.95
825.08	615.5636	13895.6	12965.6
825.2246	617.6873	13892.15	12962.35
825.3692	619.8103	13827.45	12899.7
825.5138	621.9327	13660.9	12732.95
825.6584	624.0544	13516	12595.5
825.803	626.1756	13394.05	12470
825.9477	628.2961	13265.85	12338.4
826.0923	630.4159	13215.85	12290.3
826.237	632.5351	13224.35	12292.7
826.3816	634.6537	13179.7	12250.55
826.5263	636.7716	13152.6	12220.1
826.6709	638.8889	13151.25	12214.7
826.8156	641.0056	13203.15	12267.4
826.9603	643.1216	13176.3	12237.75
827.105	645.237	13183.75	12252.4
827.2497	647.3518	13104.1	12177.3
827.3944	649.4659	13074.35	12156.55
827.5391	651.5793	13035.1	12115.4
827.6838	653.6922	12999.05	12076.7
827.8285	655.8043	12991	12067.3
827.9733	657.9159	12990.05	12061.3
828.118	660.0268	12925.25	11996.1
828.2627	662.137	12915.5	11984.1
828.4075	664.2466	12913.8	11975.1
828.5522	666.3556	12927.95	11991.85
828.697	668.4639	12898.1	11967.4
828.8418	670.5716	12880	11956.9
828.9865	672.6786	12871.7	11942.9
829.1313	674.785	12867.5	11932.65
829.2761	676.8907	12873.7	11940.8
829.4209	678.9958	12918.55	11993.4
829.5657	681.1002	12923.65	11989.55
829.7105	683.204	12919.1	11974.5
829.8553	685.3072	12871.3	11931.5
830.0001	687.4097	12827.6	11893.9
830.1449	689.5115	12827.05	11893
830.2898	691.6127	12788.75	11856.35
830.4346	693.7132	12763.6	11832
830.5794	695.8131	12781.05	11835.3
830.7243	697.9123	12771.8	11831.6
830.8691	700.0109	12777.5	11834.7
831.014	702.1089	12798.65	11860
831.1588	704.2061	12839.35	11902.5
831.3037	706.3028	12888.5	11948.25
831.4486	708.3987	12926.1	11982.1
831.5935	710.4941	12987.4	12051.35
831.7383	712.5887	13092.25	12154.5
831.8832	714.6827	13209.85	12269.7
832.0281	716.7761	13426.25	12491.45
832.173	718.8688	13698.15	12762.4
832.3179	720.9608	13868.7	12926.3
832.4628	723.0522	13995.35	13047.75
832.6077	725.1429	13952.9	13008.45
832.7527	727.233	13891.75	12951.6
832.8976	729.3224	13848.45	12908.05
833.0425	731.4112	13713	12775.45
833.1874	733.4993	13541.9	12601.7
833.3324	735.5867	13343.95	12403.9
833.4773	737.6735	13178.4	12238.65
833.6222	739.7596	13025.7	12083.05
833.7672	741.845	12889.8	11951.75
833.9122	743.9298	12847	11908.1
834.0571	746.014	12817.8	11880.25
834.2021	748.0974	12835.2	11890.05
834.347	750.1802	12830.1	11878.95
834.492	752.2624	12817.05	11871.5
834.637	754.3439	12881	11931.15
834.782	756.4247	13000	12047.9
834.9269	758.5048	13163.6	12216
835.0719	760.5843	13420.15	12472.65
835.2169	762.6631	13797.05	12849.9
835.3619	764.7413	14371.8	13427.25
835.5069	766.8188	15047.4	14096.05
835.6519	768.8956	15589.95	14640.05
835.7969	770.9718	15950.7	15004.45
835.9419	773.0473	15819.65	14873.75
836.0869	775.1221	15550.05	14607.5
836.232	777.1962	15201.3	14256.5
836.377	779.2697	15097.55	14147.7
836.522	781.3426	15163.3	14203.9
836.667	783.4147	15283.95	14337.25
836.8121	785.4862	15443.05	14494.8
836.9571	787.557	15342.35	14393.55
837.1021	789.6271	14913.55	13959.75
837.2472	791.6966	14307.7	13359.75
837.3922	793.7654	13702.15	12751.6
837.5373	795.8335	13351.15	12402.35
837.6823	797.901	13072.35	12125
837.8274	799.9678	12931	11979.65
837.9724	802.0339	12889.7	11938.9
838.1175	804.0993	12876.3	11911.4
838.2626	806.1641	12820.95	11871.25
838.4076	808.2282	12779.05	11830.25
838.5527	810.2916	12694.2	11743.2
838.6978	812.3544	12615.1	11670.25
838.8428	814.4164	12541.7	11593.2
838.9879	816.4778	12559.35	11605.5
839.133	818.5385	12613.05	11661.7
839.2781	820.5986	12760.2	11808.05
839.4232	822.658	12955.55	11998.85
839.5682	824.7166	13202.35	12254.45
839.7133	826.7747	13651.55	12701.6
839.8584	828.832	14066.7	13110.7
840.0035	830.8886	14353.3	13400.1
840.1486	832.9446	14529.1	13572.1
840.2937	834.9999	14418.25	13467.95
840.4388	837.0545	14219.15	13264.75
840.5839	839.1085	13979.4	13027.4
840.729	841.1618	13784.05	12828.8
840.8741	843.2143	13599.3	12645.55
841.0192	845.2662	13457.4	12505.25
841.1643	847.3175	13342.6	12388.6
841.3095	849.368	13190.75	12235.75
841.4546	851.4179	13107.45	12153
841.5997	853.467	13001.3	12052.65
841.7448	855.5155	12945.55	11990.65
841.8899	857.5633	12815.55	11862.75
842.0351	859.6105	12710.5	11756.65
842.1802	861.6569	12676.6	11721.5
842.3253	863.7027	12588.2	11630.1
842.4704	865.7478	12570.65	11610.2
842.6156	867.7922	12552.65	11597
842.7607	869.8359	12550.75	11591.1
842.9058	871.8789	12635.4	11677.3
843.0509	873.9212	12768.75	11778.7
843.1961	875.9629	12853.5	11898.2
843.3412	878.0039	13000.6	12043.35
843.4863	880.0441	13111.55	12158
843.6315	882.0837	13139.3	12185
843.7766	884.1226	13115.8	12158.85
843.9218	886.1609	13118.9	12164.75
844.0669	888.1984	13159.75	12202.3
844.212	890.2352	13254.75	12297.7
844.3572	892.2714	13239.25	12279.55
844.5023	894.3069	13194.6	12235
844.6475	896.3416	13062.65	12107.7
844.7926	898.3757	12946.2	11987.95
844.9377	900.4091	12913.65	11954.25
845.0829	902.4418	12896.8	11932.65
845.228	904.4739	12931.85	11966.15
845.3732	906.5052	12948.75	11988.05
845.5183	908.5358	12922.1	11963.2
845.6635	910.5658	12758.3	11797.85
845.8086	912.595	12595.65	11636.4
845.9538	914.6236	12384.65	11425.75
846.0989	916.6515	12294.3	11332.4
846.2441	918.6786	12196.7	11238
846.3892	920.7051	12208.7	11246
846.5344	922.7309	12289.5	11330.95
846.6795	924.756	12318.9	11360.55
846.8246	926.7804	12418.85	11460.5
846.9698	928.8041	12402.65	11444.95
847.1149	930.8272	12439.4	11482.7
847.2601	932.8495	12432.6	11472.95
847.4052	934.8711	12394.7	11435.5
847.5504	936.892	12304.8	11344.9
847.6955	938.9123	12245.55	11283.7
847.8407	940.9318	12213.85	11254.15
847.9858	942.9506	12177.95	11218
848.131	944.9688	12104.4	11144.6
848.2761	946.9862	12033.7	11074
848.4213	949.003	11932.4	10974.9
848.5664	951.019	11823.45	10863.75
848.7115	953.0344	11817.85	10857.75
848.8567	955.0491	11802.75	10843.5
849.0018	957.063	11881.35	10923.75
849.147	959.0763	11979.4	11017.25
849.2921	961.0888	11998.45	11036
849.4373	963.1007	12088.05	11131.6
849.5824	965.1119	12098.2	11155.1
849.7275	967.1223	12073.65	11132.8
849.8727	969.1321	12112.9	11172.35
850.0178	971.1412	12100.7	11152.8
850.1629	973.1495	12095.2	11143.4
850.3081	975.1572	12149.8	11138.8
850.4532	977.1641	12167.3	11207.6
850.5983	979.1704	12121.75	11161.2
850.7435	981.1759	12125.1	11166.55
850.8886	983.1808	12140.45	11176.75
851.0337	985.1849	12193	11220.9
851.1788	987.1884	12286	11326.85
851.324	989.1911	12380.4	11420.9
851.4691	991.1932	12495.15	11539.3
851.6142	993.1945	12542.15	11586.3
851.7593	995.1951	12485.1	11525.5
851.9045	997.1951	12484.95	11520.45
852.0496	999.1943	12413.75	11459.3
852.1947	1001.1928	12359.75	11400.35
852.3398	1003.1906	12424.7	11464.45
852.4849	1005.1877	12555.1	11600.05
852.63	1007.1841	12563.05	11604.2
852.7751	1009.1798	12548.95	11593.1
852.9202	1011.1748	12433.9	11473.3
853.0653	1013.1691	12257.6	11296.05
853.2104	1015.1627	12049.85	11092.9
853.3555	1017.1556	11858.1	10900.45
853.5006	1019.1477	11730.35	10776.3
853.6457	1021.1392	11604.6	10656.2
853.7908	1023.1299	11592.95	10650.4
853.9359	1025.12	11586.65	10650
854.081	1027.1093	11636.4	10712.75
854.2261	1029.0979	11748.6	10825.05
854.3712	1031.0859	11827.85	10899.25
854.5163	1033.0731	11890.65	10949.15
854.6613	1035.0596	11843.25	10897.5
854.8064	1037.0454	11711.35	10760.6
854.9515	1039.0304	11601	10651.05
855.0965	1041.0148	11481.15	10526
855.2416	1042.9985	11376.75	10419.2
855.3867	1044.9814	11325.25	10370.35
855.5317	1046.9636	11247.5	10292.3
855.6768	1048.9452	11251.75	10301.25
855.8219	1050.926	11273.4	10324.55
855.9669	1052.9061	11293.1	10340.5
856.112	1054.8855	11325.55	10370.95
856.257	1056.8642	11342.3	10387.05
856.4021	1058.8421	11438.6	10479.55
856.5471	1060.8194	11463.95	10507.8
856.6921	1062.7959	11506.1	10549.2
856.8372	1064.7717	11550	10593.75
856.9822	1066.7469	11600.55	10643.9
857.1272	1068.7213	11672.85	10718
857.2723	1070.695	11698.5	10742.65
857.4173	1072.6679	11693.8	10737.55
857.5623	1074.6402	11715.7	10762.7
857.7073	1076.6117	11639.65	10678.05
857.8523	1078.5826	11583.45	10626.15
857.9973	1080.5527	11480.5	10523.6
858.1423	1082.5221	11458.75	10505.85
858.2873	1084.4908	11531.95	10575.5
858.4323	1086.4587	11617.2	10662.35
858.5773	1088.426	11705	10746.25
858.7223	1090.3925	11698.3	10740.5
858.8673	1092.3584	11698.1	10740.25
859.0123	1094.3235	11645.3	10690.45
859.1573	1096.2879	11677.05	10723.85
859.3022	1098.2515	11763.9	10809.35
859.4472	1100.2145	11905.15	10947.3
859.5922	1102.1767	12049.55	11092.95
859.7371	1104.1382	12279.45	11327.95
859.8821	1106.099	12515	11559.65
860.027	1108.0591	12742.3	11788
860.172	1110.0185	12910.15	11955.8
860.3169	1111.9771	12945	11987.5
860.4619	1113.9351	12798.15	11845.05
860.6068	1115.8923	12606.75	11650.7
860.7517	1117.8488	12430.2	11475.55
860.8967	1119.8045	12213.8	11260.1
861.0416	1121.7596	12061.85	11113.65
861.1865	1123.7139	11966.65	11017.2
861.3314	1125.6675	11962	11011.35
861.4763	1127.6204	12001.05	11046.3
861.6212	1129.5726	11954.4	10997
861.7661	1131.524	11871	10919.55
861.911	1133.4748	11774.4	10818.75
862.0559	1135.4248	11650.5	10695.95
862.2008	1137.3741	11537.5	10583.25
862.3457	1139.3226	11442.55	10490.1
862.4905	1141.2705	11382.3	10429.2
862.6354	1143.2176	11289.65	10329.55
862.7803	1145.164	11247.65	10290.85
862.9251	1147.1097	11207.9	10254.55
863.07	1149.0546	11148.95	10196.15
863.2148	1150.9989	11061.35	10106.05
863.3597	1152.9424	10970.6	10016.8
863.5045	1154.8852	10850.25	9899.4
863.6493	1156.8272	10785.3	9833.6
863.7942	1158.7686	10799.9	9841.4
863.939	1160.7092	10798.65	9844.3
864.0838	1162.6491	10790.6	9837.85
864.2286	1164.5883	10886.35	9936.5
864.3734	1166.5267	10999.8	10042.1
864.5182	1168.4644	11172.55	10223.15
864.663	1170.4014	11369.75	10415.45
864.8078	1172.3377	11621.65	10673.35
864.9526	1174.2732	11872.35	10923.35
865.0974	1176.2081	12296.75	11348.15
865.2421	1178.1421	12680.95	11725
865.3869	1180.0755	13130.75	12180.65
865.5317	1182.0082	13410.95	12464.05
865.6764	1183.9401	13509.45	12562.25
