Software Version:	3.9.2.0
Unit SN:	10000200
Spectrometer SN:	6960
Date:	3/8/2024 12:29:47 PM
Data Line Index:	25
Spectral Points:	2048
Integration time (ms):	125
Averages:	20
Delay (ms):	30000
Sequence Number:	1
Processing:	dark subtract
Laser Power (mW):	300
Laser Current (mA):	822
Laser Diode Temp (C):	25
Laser Case Temp (C):	26
System Temp (C):	26
Spectrometer Temp (C):	23.8
CCD Temp (C):	0.001
Secondary Temp (C):	19.979
Heatsink Temp (C):	20.507
CCDPCB Temp (C):	36.018
SecondaryPCB Temp (C):	30.827

Wavelength	RamanShift	Raw Counts	Dark Subtracted
787.061	30.1047	449.55	40.55
787.2016	32.3739	449.05	40.8
787.3422	34.6426	450.85	42.75
787.4828	36.9109	459.2	47.55
787.6235	39.1787	465.9	51.4
787.7642	41.4461	476	57.45
787.9049	43.7131	482.25	60.9
788.0456	45.9796	493.75	69.4
788.1863	48.2456	499.6	70.05
788.3271	50.5112	509.5	77.4
788.4679	52.7764	517.05	81.55
788.6087	55.0411	526.3	85.8
788.7496	57.3054	539.1	92.35
788.8904	59.5692	547.35	99.05
789.0313	61.8326	553.75	103.7
789.1722	64.0955	569.05	115.3
789.3132	66.3579	582.2	123.15
789.4541	68.6199	597.3	135.2
789.5951	70.8815	633.7	167.15
789.7361	73.1426	717.55	246.3
789.8771	75.4032	926.35	451.9
790.0181	77.6634	1428.65	949.35
790.1592	79.9231	2588.85	2101.9
790.3003	82.1824	5085.6	4583.45
790.4414	84.4412	9536.75	9004.65
790.5825	86.6995	15556.15	14987
790.7237	88.9574	21296.5	20697.45
790.8648	91.2148	25077.6	24456.6
791.006	93.4717	26745	26113.6
791.1472	95.7282	26883.55	26239.7
791.2885	97.9842	26487.1	25843
791.4297	100.2398	25611.05	24965.85
791.571	102.4949	24708.2	24058.8
791.7123	104.7495	23706.15	23056.1
791.8536	107.0036	22706.05	22052.2
791.9949	109.2573	21835.6	21183.9
792.1363	111.5105	21051.4	20394.25
792.2777	113.7632	20343.95	19687.75
792.4191	116.0154	19807.65	19136.45
792.5605	118.2672	19381.55	18720.65
792.7019	120.5185	18972.65	18305.2
792.8434	122.7693	18701.75	18032.05
792.9849	125.0197	18419.5	17747.4
793.1264	127.2696	18134.95	17461.55
793.2679	129.519	17939.1	17262.6
793.4094	131.7679	17604.3	16921.55
793.551	134.0163	17276	16589.15
793.6926	136.2642	16895.25	16205.4
793.8342	138.5117	16513.75	15815.8
793.9758	140.7587	16104.7	15414.4
794.1175	143.0052	15724.4	15030.9
794.2591	145.2512	15314.8	14624.75
794.4008	147.4967	15003.3	14310.05
794.5425	149.7417	14748.45	14050.05
794.6842	151.9863	14570.5	13866.95
794.826	154.2304	14434.45	13729.5
794.9677	156.4739	14284.9	13568.65
795.1095	158.717	14127.5	13414.95
795.2513	160.9596	13927.3	13210.1
795.3931	163.2017	13683.2	12964.2
795.535	165.4433	13401.6	12679.2
795.6768	167.6844	13051.5	12325.1
795.8187	169.925	12750.9	12026.05
795.9606	172.1651	12385.7	11660.25
796.1025	174.4047	12105.1	11377.3
796.2445	176.6439	11868.8	11140.9
796.3864	178.8825	11645.65	10907.95
796.5284	181.1206	11500.5	10758.65
796.6704	183.3582	11400	10655.9
796.8124	185.5954	11312.35	10566.6
796.9544	187.832	11249	10499.45
797.0965	190.0681	11211.8	10456.95
797.2386	192.3037	11205.55	10449.35
797.3806	194.5388	11180.4	10420
797.5228	196.7734	11222.3	10461.25
797.6649	199.0075	11274.9	10512.4
797.807	201.2411	11398.6	10635.25
797.9492	203.4742	11469.25	10703.4
798.0914	205.7068	11608.2	10842.35
798.2336	207.9389	11724.4	10954.65
798.3758	210.1704	11872.5	11106.6
798.518	212.4015	11997.75	11238.1
798.6603	214.632	12150.2	11403.8
798.8025	216.862	12276.4	11532.9
798.9448	219.0915	12334.05	11584.7
799.0871	221.3205	12438.75	11688.1
799.2294	223.549	12493.3	11744.05
799.3718	225.777	12571	11819.15
799.5141	228.0044	12596.8	11841.25
799.6565	230.2314	12685.55	11928.75
799.7989	232.4578	12747.9	11991.6
799.9413	234.6837	12818.9	12053.4
800.0837	236.909	12891	12123.15
800.2262	239.1339	12874.05	12077.8
800.3687	241.3582	12824.6	12047.1
800.5111	243.582	12748.3	11938.6
800.6536	245.8053	12714.35	11919.65
800.7961	248.0281	12670.8	11881.05
800.9387	250.2503	12694.7	11899.45
801.0812	252.472	12783.7	11983.5
801.2238	254.6932	12953.15	12154.4
801.3664	256.9139	13083.75	12287.1
801.509	259.134	13325.65	12518.9
801.6516	261.3536	13583.1	12780.9
801.7942	263.5727	13924.55	13125.65
801.9369	265.7912	14242.65	13438.45
802.0795	268.0092	14560.7	13760.1
802.2222	270.2267	14791.2	13984.7
802.3649	272.4436	14967.9	14166.7
802.5076	274.6601	14992.45	14178.15
802.6504	276.8759	14929.9	14120.75
802.7931	279.0913	14831.1	14023.6
802.9359	281.3061	14680.5	13866.9
803.0787	283.5204	14624.95	13811
803.2215	285.7341	14594.7	13775.45
803.3643	287.9473	14608.55	13778.75
803.5071	290.16	14611.4	13789.95
803.6499	292.3721	14658.75	13839.5
803.7928	294.5837	14867.8	14048.55
803.9357	296.7947	15042.35	14225.25
804.0786	299.0052	15177.35	14359.5
804.2215	301.2152	15191.65	14369.95
804.3644	303.4246	15039.5	14227.9
804.5074	305.6334	14745.1	13927.4
804.6503	307.8418	14390.15	13571.1
804.7933	310.0495	13950.5	13133.1
804.9363	312.2568	13521.4	12694.9
805.0793	314.4635	13084.75	12260.15
805.2223	316.6696	12765.05	11935.1
805.3653	318.8752	12500.65	11664.5
805.5084	321.0802	12406.95	11580.3
805.6514	323.2847	12375	11544.75
805.7945	325.4887	12412.15	11581.75
805.9376	327.692	12449.15	11615.3
806.0807	329.8949	12385.35	11552.2
806.2238	332.0972	12246.7	11407.6
806.367	334.2989	12027.1	11186.8
806.5101	336.5001	11806.8	10967.3
806.6533	338.7007	11596.5	10756.7
806.7965	340.9008	11414.75	10574.05
806.9397	343.1003	11228.25	10384.35
807.0829	345.2992	11083.7	10238
807.2261	347.4976	10969.15	10127.2
807.3693	349.6955	10909.85	10061.95
807.5126	351.8927	10846.95	9997
807.6559	354.0895	10770.35	9909.55
807.7991	356.2856	10756.15	9907.3
807.9424	358.4812	10680.15	9831.55
808.0857	360.6763	10679.15	9827.85
808.2291	362.8707	10663.7	9806.2
808.3724	365.0646	10697.85	9838.7
808.5158	367.258	10740.7	9884.05
808.6591	369.4508	10828.7	9968.9
808.8025	371.643	10957.65	10094.6
808.9459	373.8346	11049.2	10183.2
809.0893	376.0257	11160.45	10295.45
809.2327	378.2162	11212.3	10349.95
809.3762	380.4062	11223	10358.45
809.5196	382.5956	11123.8	10262.1
809.6631	384.7844	11009.5	10148.85
809.8066	386.9726	10866.4	10013.1
809.9501	389.1603	10775.05	9921.1
810.0936	391.3474	10735.65	9838.2
810.2371	393.5339	10700.45	9839.05
810.3806	395.7199	10655.85	9800.65
810.5241	397.9052	10739.05	9883.85
810.6677	400.09	10839.25	9978.6
810.8113	402.2743	11011.55	10154.3
810.9548	404.4579	11191.15	10333.05
811.0984	406.641	11401.8	10541.95
811.2421	408.8235	11565.95	10704.6
811.3857	411.0054	11693.75	10830.35
811.5293	413.1868	11813.45	10944.7
811.673	415.3675	11827.25	10959.4
811.8166	417.5477	11789.5	10918.85
811.9603	419.7273	11733.75	10856.5
812.104	421.9064	11626.5	10745.7
812.2477	424.0848	11586.9	10716.25
812.3914	426.2627	11448.45	10577.2
812.5351	428.4399	11247.85	10371.7
812.6788	430.6166	10930.05	10054.2
812.8226	432.7928	10608.75	9726.85
812.9663	434.9683	10329.7	9452.9
813.1101	437.1432	10097.45	9221.85
813.2539	439.3176	9917.25	9046.05
813.3977	441.4914	9805.25	8933.2
813.5415	443.6645	9766.7	8895.8
813.6853	445.8371	9736.5	8862.8
813.8291	448.0091	9712.4	8839.7
813.973	450.1806	9708.4	8832.2
814.1168	452.3514	9700	8828
814.2607	454.5216	9747.8	8866.75
814.4046	456.6913	9752.5	8874.15
814.5485	458.8603	9799.4	8924.8
814.6924	461.0288	9846.45	8974.45
814.8363	463.1967	9797.15	8927.2
814.9802	465.3639	9839.65	8964.65
815.1241	467.5306	9799.8	8926.6
815.2681	469.6967	9805.8	8937.3
815.412	471.8622	9795	8924.8
815.556	474.0271	9830.6	8957.85
815.7	476.1914	9865.8	8987.85
815.844	478.3551	9872.15	8995.45
815.988	480.5182	9936.8	9061.75
816.132	482.6807	10048.35	9183
816.276	484.8426	10243.8	9380.1
816.4201	487.0039	10556.2	9689.25
816.5641	489.1647	10924.2	10047.95
816.7082	491.3248	11268.85	10389.4
816.8522	493.4843	11353.3	10479.5
816.9963	495.6432	11297.9	10422.25
817.1404	497.8015	11146.75	10262.5
817.2845	499.9592	11027	10134.85
817.4286	502.1163	10810.1	9922.25
817.5727	504.2728	10487.45	9603.8
817.7168	506.4287	10210.2	9341.6
817.861	508.5839	9930.8	9056.5
818.0051	510.7386	9734.85	8856.9
818.1493	512.8927	9659.6	8773.65
818.2935	515.0461	9681.65	8793.25
818.4377	517.199	9778.1	8892.85
818.5818	519.3512	9980.2	9089.9
818.726	521.5029	10283.5	9392.45
818.8703	523.6539	10572.45	9685.2
819.0145	525.8043	10705.3	9816.55
819.1587	527.9541	10603.25	9709.2
819.303	530.1033	10395.4	9506.65
819.4472	532.2519	10197.85	9310.95
819.5915	534.3999	10103.7	9212.85
819.7357	536.5472	10127.5	9242.25
819.88	538.694	10309.5	9424.3
820.0243	540.8401	10528.95	9639.1
820.1686	542.9856	10701.7	9807.1
820.3129	545.1305	10723.55	9822.85
820.4572	547.2748	10628.55	9722.6
820.6016	549.4185	10517.5	9612.7
820.7459	551.5615	10409.05	9504.95
820.8902	553.704	10431.3	9529.35
821.0346	555.8458	10545.8	9643.85
821.1789	557.987	10754.05	9855.95
821.3233	560.1276	11043.65	10142.95
821.4677	562.2675	11485.25	10581.8
821.6121	564.4069	12043.2	11141.7
821.7565	566.5456	12587.8	11688.7
821.9009	568.6837	12777.9	11882.7
822.0453	570.8212	12343.75	11447.4
822.1897	572.958	11636.1	10737.1
822.3342	575.0942	10950.1	10050.85
822.4786	577.2299	10439.3	9544.9
822.6231	579.3648	10200.05	9320.3
822.7675	581.4992	10143.45	9268.8
822.912	583.6329	10206.75	9336.45
823.0565	585.766	10356.45	9480.7
823.201	587.8985	10523.9	9638.3
823.3454	590.0304	10616.15	9701.2
823.4899	592.1616	10586.7	9684.6
823.6345	594.2922	10461.25	9556.85
823.779	596.4222	10280.3	9373.35
823.9235	598.5515	10071.9	9164.35
824.068	600.6802	9887.6	8980.65
824.2126	602.8083	9750.55	8847.75
824.3571	604.9358	9732.7	8831.25
824.5017	607.0626	9767.65	8860.2
824.6462	609.1888	9907.1	8994.8
824.7908	611.3144	10110.25	9198.85
824.9354	613.4393	10258.55	9348.2
825.08	615.5636	10388.7	9476.65
825.2246	617.6873	10453.05	9544.5
825.3692	619.8103	10363.4	9453.45
825.5138	621.9327	10163.2	9253.05
825.6584	624.0544	9925.25	9024.2
825.803	626.1756	9681.5	8778.75
825.9477	628.2961	9544.05	8633.5
826.0923	630.4159	9452.3	8542.4
826.237	632.5351	9444.4	8530.9
826.3816	634.6537	9438.9	8524.65
826.5263	636.7716	9459.5	8542.15
826.6709	638.8889	9480.95	8559.25
826.8156	641.0056	9510.55	8593.6
826.9603	643.1216	9460.75	8540.95
827.105	645.237	9438.35	8521.6
827.2497	647.3518	9351.4	8444.8
827.3944	649.4659	9268.85	8364.1
827.5391	651.5793	9197.95	8293.35
827.6838	653.6922	9152.1	8245.6
827.8285	655.8043	9120.95	8209.5
827.9733	657.9159	9154.75	8242.95
828.118	660.0268	9126.25	8213.1
828.2627	662.137	9146.45	8230.9
828.4075	664.2466	9191.05	8271.65
828.5522	666.3556	9178.25	8259.85
828.697	668.4639	9092.4	8178
828.8418	670.5716	9064.3	8153.55
828.9865	672.6786	8986.05	8072.2
829.1313	674.785	8941.85	8024.85
829.2761	676.8907	8890.5	7975.05
829.4209	678.9958	8900.15	7988.05
829.5657	681.1002	8898.6	7984.35
829.7105	683.204	8879.3	7951.15
829.8553	685.3072	8855.7	7932.55
830.0001	687.4097	8860.95	7943.3
830.1449	689.5115	8864.6	7945.55
830.2898	691.6127	8861.45	7946.1
830.4346	693.7132	8843.15	7930.25
830.5794	695.8131	8873.3	7940.8
830.7243	697.9123	8925.7	8002.5
830.8691	700.0109	8937.55	8014.4
831.014	702.1089	9008.85	8087.25
831.1588	704.2061	9058.5	8136.3
831.3037	706.3028	9137.75	8217.45
831.4486	708.3987	9189.75	8269.5
831.5935	710.4941	9226.4	8304.3
831.7383	712.5887	9245.2	8325.8
831.8832	714.6827	9307.25	8384.1
832.0281	716.7761	9372.8	8455.3
832.173	718.8688	9503	8582.5
832.3179	720.9608	9642.85	8717.8
832.4628	723.0522	9784.35	8854.05
832.6077	725.1429	9855.3	8927.85
832.7527	727.233	10017.55	9090.15
832.8976	729.3224	10131.35	9207.25
833.0425	731.4112	10139.45	9214.1
833.1874	733.4993	9989.1	9062.8
833.3324	735.5867	9739.65	8813.8
833.4773	737.6735	9527.2	8604.25
833.6222	739.7596	9282.85	8352.75
833.7672	741.845	9128.5	8203.1
833.9122	743.9298	9039.8	8116.7
834.0571	746.014	9014.2	8087.95
834.2021	748.0974	8996.7	8063.25
834.347	750.1802	8992.1	8060.9
834.492	752.2624	9052.2	8123.55
834.637	754.3439	9094.95	8168.6
834.782	756.4247	9208.5	8268.2
834.9269	758.5048	9377.65	8450.75
835.0719	760.5843	9661.95	8730.25
835.2169	762.6631	10081.6	9152.8
835.3619	764.7413	10698.85	9768.45
835.5069	766.8188	11417.4	10484.4
835.6519	768.8956	12041.6	11110.7
835.7969	770.9718	12485.1	11555.4
835.9419	773.0473	12440.25	11512.65
836.0869	775.1221	12185.35	11255.55
836.232	777.1962	11942.35	11012.4
836.377	779.2697	11880.8	10948.05
836.522	781.3426	12001.95	11061.15
836.667	783.4147	12071.2	11141.3
836.8121	785.4862	12084.95	11152.35
836.9571	787.557	11850.85	10916.15
837.1021	789.6271	11331.2	10397.75
837.2472	791.6966	10724.3	9790.95
837.3922	793.7654	10091.5	9162.8
837.5373	795.8335	9651.25	8717.4
837.6823	797.901	9326.6	8395.8
837.8274	799.9678	9161.7	8225.55
837.9724	802.0339	9054.65	8120.4
838.1175	804.0993	8994.85	8047.15
838.2626	806.1641	8924.3	7992.9
838.4076	808.2282	8870.55	7938
838.5527	810.2916	8777.9	7843.95
838.6978	812.3544	8719.95	7786.85
838.8428	814.4164	8672.7	7740.5
838.9879	816.4778	8706.65	7770.95
839.133	818.5385	8731.15	7796.05
839.2781	820.5986	8915.2	7978.85
839.4232	822.658	9200.7	8262.05
839.5682	824.7166	9563.45	8632.75
839.7133	826.7747	10142.2	9203.7
839.8584	828.832	10743.4	9808.2
840.0035	830.8886	11194.9	10256.25
840.1486	832.9446	11396.85	10459.85
840.2937	834.9999	11238.35	10305.1
840.4388	837.0545	10880.95	9941.7
840.5839	839.1085	10452.55	9515.7
840.729	841.1618	10090.7	9149.9
840.8741	843.2143	9809.2	8871.95
841.0192	845.2662	9542.5	8606.05
841.1643	847.3175	9445.3	8507.4
841.3095	849.368	9305.4	8369.7
841.4546	851.4179	9208.9	8270.65
841.5997	853.467	9109.65	8171
841.7448	855.5155	9070.65	8133.4
841.8899	857.5633	9002	8068.05
842.0351	859.6105	8915.4	7979.85
842.1802	861.6569	8860.05	7917.8
842.3253	863.7027	8788.45	7848.6
842.4704	865.7478	8719.2	7776.75
842.6156	867.7922	8676.85	7735.5
842.7607	869.8359	8637.95	7695.9
842.9058	871.8789	8675.55	7736.55
843.0509	873.9212	8758.2	7783.85
843.1961	875.9629	8805.75	7862.9
843.3412	878.0039	8901.1	7963.15
843.4863	880.0441	8998.15	8064.6
843.6315	882.0837	9047.55	8111.5
843.7766	884.1226	9113.15	8171.5
843.9218	886.1609	9198.55	8261.75
844.0669	888.1984	9321.4	8382.65
844.212	890.2352	9495.5	8553.35
844.3572	892.2714	9536.95	8594.5
844.5023	894.3069	9477.2	8539.4
844.6475	896.3416	9295.85	8353.95
844.7926	898.3757	9157.1	8214.85
844.9377	900.4091	9029.7	8088.1
845.0829	902.4418	9010.2	8063.2
845.228	904.4739	9054.15	8110.15
845.3732	906.5052	9117.9	8174.35
845.5183	908.5358	9070.95	8129.7
845.6635	910.5658	8948.75	8001.5
845.8086	912.595	8742.6	7798.65
845.9538	914.6236	8499	7556.2
846.0989	916.6515	8364.9	7424.95
846.2441	918.6786	8280.1	7334.9
846.3892	920.7051	8253.3	7307.1
846.5344	922.7309	8276	7335.7
846.6795	924.756	8296.5	7354.4
846.8246	926.7804	8360.7	7420.1
846.9698	928.8041	8393.5	7450.8
847.1149	930.8272	8449.5	7506
847.2601	932.8495	8442.75	7498.05
847.4052	934.8711	8440.5	7496.25
847.5504	936.892	8428.55	7484.45
847.6955	938.9123	8432.9	7488.2
847.8407	940.9318	8508.4	7564.6
847.9858	942.9506	8510.65	7563.95
848.131	944.9688	8450.6	7506.9
848.2761	946.9862	8360.1	7417.3
848.4213	949.003	8183.7	7240.55
848.5664	951.019	8096	7150.75
848.7115	953.0344	8011.5	7067.65
848.8567	955.0491	8005.05	7060.75
849.0018	957.063	8041.5	7100.75
849.147	959.0763	8095.25	7154.2
849.2921	961.0888	8109.45	7163.75
849.4373	963.1007	8194.4	7253.4
849.5824	965.1119	8209.8	7275.15
849.7275	967.1223	8163.15	7232.95
849.8727	969.1321	8158.15	7229.7
850.0178	971.1412	8135.1	7197.55
850.1629	973.1495	8125.95	7188
850.3081	975.1572	8169.9	7183.55
850.4532	977.1641	8156.45	7214.7
850.5983	979.1704	8122.25	7178.1
850.7435	981.1759	8104.8	7157.3
850.8886	983.1808	8111.1	7167.75
851.0337	985.1849	8107.9	7150.85
851.1788	987.1884	8166.9	7221.25
851.324	989.1911	8232.15	7287.3
851.4691	991.1932	8291.5	7350.6
851.6142	993.1945	8308.45	7367.8
851.7593	995.1951	8296	7349.4
851.9045	997.1951	8260.95	7311.75
852.0496	999.1943	8231.75	7286.5
852.1947	1001.1928	8255.4	7311
852.3398	1003.1906	8301.8	7361.55
852.4849	1005.1877	8435.95	7493.6
852.63	1007.1841	8554.1	7610.85
852.7751	1009.1798	8594.7	7654.15
852.9202	1011.1748	8519.1	7573.45
853.0653	1013.1691	8407.6	7459.9
853.2104	1015.1627	8202.8	7263.65
853.3555	1017.1556	7997.7	7058.9
853.5006	1019.1477	7886.3	6949.15
853.6457	1021.1392	7755.35	6825.25
853.7908	1023.1299	7727.45	6794.7
853.9359	1025.12	7756.65	6829.45
854.081	1027.1093	7793.3	6877.25
854.2261	1029.0979	7931.55	7015.65
854.3712	1031.0859	8037.75	7115.65
854.5163	1033.0731	8101.45	7173.6
854.6613	1035.0596	8059.9	7126.45
854.8064	1037.0454	7947.9	7014
854.9515	1039.0304	7871.3	6931.25
855.0965	1041.0148	7751.95	6812.45
855.2416	1042.9985	7655.3	6713.7
855.3867	1044.9814	7608.5	6669.05
855.5317	1046.9636	7551.45	6609.75
855.6768	1048.9452	7543.2	6603.15
855.8219	1050.926	7603.75	6665.15
855.9669	1052.9061	7614.1	6674.45
856.112	1054.8855	7672.05	6731.55
856.257	1056.8642	7704	6761.35
856.4021	1058.8421	7759.05	6812.9
856.5471	1060.8194	7783.95	6843.8
856.6921	1062.7959	7840.15	6901.05
856.8372	1064.7717	7926.5	6981.8
856.9822	1066.7469	7995.6	7056.95
857.1272	1068.7213	8109.25	7166.15
857.2723	1070.695	8202.8	7264.8
857.4173	1072.6679	8233.15	7291.35
857.5623	1074.6402	8281.7	7341.15
857.7073	1076.6117	8257.6	7310.85
857.8523	1078.5826	8119.75	7176.55
857.9973	1080.5527	7951.2	7006.75
858.1423	1082.5221	7829.9	6891.2
858.2873	1084.4908	7782.55	6842.4
858.4323	1086.4587	7771.3	6832.85
858.5773	1088.426	7767.5	6827
858.7223	1090.3925	7800.3	6853.95
858.8673	1092.3584	7852.4	6912.25
859.0123	1094.3235	7898.2	6957.35
859.1573	1096.2879	8000.25	7059.8
859.3022	1098.2515	8153.5	7213.5
859.4472	1100.2145	8337.85	7398.35
859.5922	1102.1767	8548.35	7607.6
859.7371	1104.1382	8790.45	7847.55
859.8821	1106.099	9084.35	8144.15
860.027	1108.0591	9290.45	8350.55
860.172	1110.0185	9447.1	8504.9
860.3169	1111.9771	9533.45	8592.35
860.4619	1113.9351	9491.65	8553.95
860.6068	1115.8923	9392.5	8451.8
860.7517	1117.8488	9261.05	8317.35
860.8967	1119.8045	9119.05	8178.4
861.0416	1121.7596	8943.85	8005
861.1865	1123.7139	8829.2	7891.7
861.3314	1125.6675	8747.55	7812.5
861.4763	1127.6204	8786.75	7852.45
861.6212	1129.5726	8730.2	7791.65
861.7661	1131.524	8641.75	7702.3
861.911	1133.4748	8459.1	7519.55
862.0559	1135.4248	8260.7	7320.2
862.2008	1137.3741	8077.1	7139.65
862.3457	1139.3226	7941.35	6998.45
862.4905	1141.2705	7891.3	6950.6
862.6354	1143.2176	7834.65	6890.65
862.7803	1145.164	7787.2	6847.55
862.9251	1147.1097	7688.25	6752
863.07	1149.0546	7608.15	6666.75
863.2148	1150.9989	7484.95	6544.8
863.3597	1152.9424	7406.05	6465.2
863.5045	1154.8852	7327.85	6390.75
863.6493	1156.8272	7283.9	6345.3
863.7942	1158.7686	7330.7	6384.6
863.939	1160.7092	7357.45	6419.35
864.0838	1162.6491	7426.65	6487.4
864.2286	1164.5883	7524.95	6585.5
864.3734	1166.5267	7652.8	6713.7
864.5182	1168.4644	7808.8	6867.75
864.663	1170.4014	8019.85	7076.1
864.8078	1172.3377	8254.75	7318.65
864.9526	1174.2732	8579.9	7644
865.0974	1176.2081	9060.75	8122.2
865.2421	1178.1421	9633.35	8691.55
865.3869	1180.0755	10216.05	9279.75
865.5317	1182.0082	10633.55	9697.8
865.6764	1183.9401	10820.1	9885.3
865.8212	1185.8713	10661.35	9729.25
865.9659	1187.8017	10284.1	9361.85
866.1106	1189.7315	9858.15	8939.5
866.2554	1191.6605	9414.8	8495.35
866.4001	1193.5888	9134.6	8212
866.5448	1195.5163	8943.95	8011.4
866.6895	1197.4432	8863.1	7928.1
866.8342	1199.3693	8783.15	7847.4
866.9789	1201.2947	8743.1	7808.85
867.1236	1203.2193	8713.1	7776.6
867.2683	1205.1432	8719.65	7785
867.413	1207.0664	8656.25	7722.35
867.5576	1208.9889	8619.25	7681.15
867.7023	1210.9106	8612	7676.75
867.847	1212.8316	8600.1	7667.95
867.9916	1214.7519	8635.95	7693.35
868.1363	1216.6715	8678.65	7743.9
