Software Version:	3.9.2.0
Unit SN:	10000200
Spectrometer SN:	6960
Date:	3/8/2024 12:47:53 PM
Data Line Index:	25
Spectral Points:	2048
Integration time (ms):	125
Averages:	20
Delay (ms):	30000
Sequence Number:	1
Processing:	dark subtract
Laser Power (mW):	300
Laser Current (mA):	823
Laser Diode Temp (C):	25
Laser Case Temp (C):	26.1
System Temp (C):	26.1
Spectrometer Temp (C):	24
CCD Temp (C):	0.005
Secondary Temp (C):	20.007
Heatsink Temp (C):	20.766
CCDPCB Temp (C):	36.051
SecondaryPCB Temp (C):	29.315

Wavelength	RamanShift	Raw Counts	Dark Subtracted
787.061	30.1047	453	45.6
787.2016	32.3739	455.25	48.65
787.3422	34.6426	456.55	48.25
787.4828	36.9109	466.25	57.3
787.6235	39.1787	471.8	57.65
787.7642	41.4461	483.25	64.25
787.9049	43.7131	489.25	67.15
788.0456	45.9796	497.85	73.4
788.1863	48.2456	508.65	80.8
788.3271	50.5112	515.4	82.95
788.4679	52.7764	523.45	88.35
788.6087	55.0411	535.9	94.35
788.7496	57.3054	547.45	102.6
788.8904	59.5692	556.4	109
789.0313	61.8326	568.1	118.35
789.1722	64.0955	578.45	125.55
789.3132	66.3579	597.45	138.25
789.4541	68.6199	611.65	147.7
789.5951	70.8815	648.55	181.6
789.7361	73.1426	733.85	263.4
789.8771	75.4032	938.45	463.3
790.0181	77.6634	1465.3	984.35
790.1592	79.9231	2657.95	2169.45
790.3003	82.1824	5262.85	4750.9
790.4414	84.4412	9896.85	9348.9
790.5825	86.6995	16262.85	15670.5
790.7237	88.9574	22404.7	21774.65
790.8648	91.2148	26575.3	25913.4
791.006	93.4717	28380.55	27703.1
791.1472	95.7282	28612.2	27925.45
791.2885	97.9842	28249.8	27559.85
791.4297	100.2398	27472.1	26779
791.571	102.4949	26667.3	25973.95
791.7123	104.7495	25712.75	25013.1
791.8536	107.0036	24762.6	24066.75
791.9949	109.2573	23913.8	23217.95
792.1363	111.5105	23137.8	22441.1
792.2777	113.7632	22429.45	21727.15
792.4191	116.0154	21876.45	21164.85
792.5605	118.2672	21471	20759.35
792.7019	120.5185	21075.2	20362.55
792.8434	122.7693	20752.95	20039.55
792.9849	125.0197	20464.7	19749.45
793.1264	127.2696	20197.8	19480.55
793.2679	129.519	20003.85	19279.6
793.4094	131.7679	19703.65	18977.25
793.551	134.0163	19415.3	18684.95
793.6926	136.2642	19090.05	18355
793.8342	138.5117	18725.3	17979.4
793.9758	140.7587	18341.6	17600.2
794.1175	143.0052	18004.45	17261.05
794.2591	145.2512	17666.45	16928.15
794.4008	147.4967	17332.05	16593.6
794.5425	149.7417	17102.75	16357.8
794.6842	151.9863	16930.25	16183.2
794.826	154.2304	16814.5	16058.95
794.9677	156.4739	16666.3	15905.55
795.1095	158.717	16539.35	15782.4
795.2513	160.9596	16345.65	15584.15
795.3931	163.2017	16097.1	15329.9
795.535	165.4433	15792.8	15023.45
795.6768	167.6844	15464.2	14694.6
795.8187	169.925	15158.4	14387.15
795.9606	172.1651	14794.65	14019
796.1025	174.4047	14534.05	13760
796.2445	176.6439	14282.6	13508.25
796.3864	178.8825	14082.6	13303.65
796.5284	181.1206	13929.05	13145.35
796.6704	183.3582	13779.45	12988.25
796.8124	185.5954	13696.7	12902.45
796.9544	187.832	13639.4	12844.85
797.0965	190.0681	13618.45	12820.2
797.2386	192.3037	13611.15	12803.7
797.3806	194.5388	13582.5	12778.2
797.5228	196.7734	13624.55	12818.55
797.6649	199.0075	13679.3	12875.35
797.807	201.2411	13805.25	12993.3
797.9492	203.4742	13861.9	13051.9
798.0914	205.7068	14019.15	13206.1
798.2336	207.9389	14155.4	13341.9
798.3758	210.1704	14309.25	13496.55
798.518	212.4015	14385.1	13585.35
798.6603	214.632	14558.75	13765.05
798.8025	216.862	14728.9	13936.9
798.9448	219.0915	14806.7	14009.75
799.0871	221.3205	14930.25	14134.6
799.2294	223.549	15028.15	14233.35
799.3718	225.777	15098.7	14302.3
799.5141	228.0044	15254.5	14453.35
799.6565	230.2314	15448.35	14646.95
799.7989	232.4578	15563.9	14761
799.9413	234.6837	15709.75	14900.95
800.0837	236.909	15770.7	14957.2
800.2262	239.1339	15787.7	14949.75
800.3687	241.3582	15684.5	14857.8
800.5111	243.582	15589.15	14735.35
800.6536	245.8053	15479.7	14637.85
800.7961	248.0281	15405.55	14570.65
800.9387	250.2503	15372.45	14530.55
801.0812	252.472	15404.85	14568.4
801.2238	254.6932	15528.45	14692.1
801.3664	256.9139	15618.5	14776.9
801.509	259.134	15799.65	14950.5
801.6516	261.3536	16026.4	15185.25
801.7942	263.5727	16334.15	15484.15
801.9369	265.7912	16567.9	15720.85
802.0795	268.0092	16859.9	16010.35
802.2222	270.2267	17015.3	16168.2
802.3649	272.4436	17135.4	16292.8
802.5076	274.6601	17164.05	16308.7
802.6504	276.8759	17080.2	16225.5
802.7931	279.0913	16948.6	16096.6
802.9359	281.3061	16832	15976.55
803.0787	283.5204	16756.2	15901.35
803.2215	285.7341	16762.65	15900.4
803.3643	287.9473	16820.85	15950.45
803.5071	290.16	16860.7	15999.15
803.6499	292.3721	16991	16130.8
803.7928	294.5837	17241	16377.4
803.9357	296.7947	17433.45	16571.15
804.0786	299.0052	17609.05	16749.15
804.2215	301.2152	17566.3	16703.3
804.3644	303.4246	17406.35	16548.75
804.5074	305.6334	16985.2	16123.85
804.6503	307.8418	16581.85	15719.9
804.7933	310.0495	16160.9	15295.15
804.9363	312.2568	15714.3	14848.25
805.0793	314.4635	15368.05	14492.5
805.2223	316.6696	15083.25	14215.85
805.3653	318.8752	14872.95	13990.8
805.5084	321.0802	14781.95	13909.55
805.6514	323.2847	14809.25	13935.55
805.7945	325.4887	14835.25	13961.4
805.9376	327.692	14856.9	13983.5
806.0807	329.8949	14803.15	13926.6
806.2238	332.0972	14622.2	13742.65
806.367	334.2989	14353.9	13470.95
806.5101	336.5001	14148.05	13263.95
806.6533	338.7007	13937.9	13057.05
806.7965	340.9008	13794.4	12908.9
806.9397	343.1003	13622.3	12740.65
807.0829	345.2992	13481.25	12600.8
807.2261	347.4976	13393.8	12505.3
807.3693	349.6955	13347.85	12459.6
807.5126	351.8927	13335.05	12441.85
807.6559	354.0895	13266.4	12358.9
807.7991	356.2856	13241.55	12349.95
807.9424	358.4812	13199.15	12302.25
808.0857	360.6763	13174.75	12280.6
808.2291	362.8707	13144.3	12246.25
808.3724	365.0646	13241.3	12338.55
808.5158	367.258	13249.8	12351.85
808.6591	369.4508	13318.15	12416.45
808.8025	371.643	13454.9	12547.1
808.9459	373.8346	13515.55	12612
809.0893	376.0257	13614.65	12712.35
809.2327	378.2162	13591.5	12691
809.3762	380.4062	13564.9	12659.35
809.5196	382.5956	13455.35	12551.7
809.6631	384.7844	13355.5	12462.55
809.8066	386.9726	13200.9	12301.65
809.9501	389.1603	13146.1	12254.8
810.0936	391.3474	13101	12180.6
810.2371	393.5339	13054.05	12150.1
810.3806	395.7199	12993.15	12095
810.5241	397.9052	13067.55	12175.75
810.6677	400.09	13138.35	12241.45
810.8113	402.2743	13298.8	12402.5
810.9548	404.4579	13456.8	12558.6
811.0984	406.641	13652.6	12751.75
811.2421	408.8235	13798.75	12897.9
811.3857	411.0054	13990.85	13086.3
811.5293	413.1868	14174.9	13263.8
811.673	415.3675	14279	13364.25
811.8166	417.5477	14301.05	13391.35
811.9603	419.7273	14247.75	13338.5
812.104	421.9064	14192.85	13277.85
812.2477	424.0848	14093	13183.9
812.3914	426.2627	13967.1	13053.4
812.5351	428.4399	13712.2	12799.3
812.6788	430.6166	13380.45	12465.2
812.8226	432.7928	13039.7	12123.35
812.9663	434.9683	12743.15	11825.75
813.1101	437.1432	12503.05	11591.5
813.2539	439.3176	12357.15	11450.45
813.3977	441.4914	12220.75	11318.5
813.5415	443.6645	12219.5	11309.9
813.6853	445.8371	12122.85	11213.15
813.8291	448.0091	12106.8	11197
813.973	450.1806	12081.45	11172.4
814.1168	452.3514	12051.65	11144.35
814.2607	454.5216	12102.9	11180.7
814.4046	456.6913	12071	11161.55
814.5485	458.8603	12119.4	11208.7
814.6924	461.0288	12171.2	11267.1
814.8363	463.1967	12160	11256
814.9802	465.3639	12192.25	11288.4
815.1241	467.5306	12180.65	11270.45
815.2681	469.6967	12196.35	11292.85
815.412	471.8622	12215.7	11313.05
815.556	474.0271	12280.65	11376.9
815.7	476.1914	12323.85	11410.45
815.844	478.3551	12347.95	11439.25
815.988	480.5182	12393.05	11486.55
816.132	482.6807	12473.7	11576.25
816.276	484.8426	12614.1	11722.4
816.4201	487.0039	12973.8	12075.1
816.5641	489.1647	13362.2	12453.6
816.7082	491.3248	13681.95	12767.6
816.8522	493.4843	13795.7	12889.6
816.9963	495.6432	13766.05	12863.3
817.1404	497.8015	13653.2	12736.15
817.2845	499.9592	13535.55	12609.6
817.4286	502.1163	13355.15	12431.6
817.5727	504.2728	13035.65	12123.05
817.7168	506.4287	12751.65	11849.6
817.861	508.5839	12414.35	11512.2
818.0051	510.7386	12230.15	11320
818.1493	512.8927	12123.35	11199.05
818.2935	515.0461	12070	11153.6
818.4377	517.199	12167.4	11245.4
818.5818	519.3512	12333.05	11407.85
818.726	521.5029	12574.1	11648.8
818.8703	523.6539	12817.15	11895.85
819.0145	525.8043	12895.4	11972.15
819.1587	527.9541	12850.9	11922.55
819.303	530.1033	12690.9	11766.45
819.4472	532.2519	12526.5	11604.75
819.5915	534.3999	12471.5	11552.75
819.7357	536.5472	12569.55	11649.25
819.88	538.694	12776.9	11860.7
820.0243	540.8401	13054.25	12132.75
820.1686	542.9856	13329.4	12396.4
820.3129	545.1305	13372.35	12434.2
820.4572	547.2748	13300.8	12359.55
820.6016	549.4185	13082.4	12140.95
820.7459	551.5615	12959.05	12017.75
820.8902	553.704	12963.15	12022.15
821.0346	555.8458	13027.6	12094.75
821.1789	557.987	13208.75	12276.55
821.3233	560.1276	13393.85	12458.15
821.4677	562.2675	13771.65	12838.7
821.6121	564.4069	14245.05	13307.7
821.7565	566.5456	14666.6	13737
821.9009	568.6837	14803.2	13872.35
822.0453	570.8212	14395.35	13464.95
822.1897	572.958	13741.35	12805.15
822.3342	575.0942	13120.4	12191.7
822.4786	577.2299	12697.5	11774.75
822.6231	579.3648	12457.75	11550.6
822.7675	581.4992	12426.6	11528.4
822.912	583.6329	12511.2	11611.75
823.0565	585.766	12691.85	11788.2
823.201	587.8985	12840.2	11924.5
823.3454	590.0304	12890	11944.75
823.4899	592.1616	12849.4	11919.85
823.6345	594.2922	12733.4	11795.65
823.779	596.4222	12541.6	11602.3
823.9235	598.5515	12335.95	11395.85
824.068	600.6802	12140.3	11198.8
824.2126	602.8083	12001.75	11065.1
824.3571	604.9358	11991.7	11053.35
824.5017	607.0626	12002.5	11062.15
824.6462	609.1888	12121.5	11181.05
824.7908	611.3144	12233.95	11287.8
824.9354	613.4393	12348.65	11398.4
825.08	615.5636	12455.45	11508.15
825.2246	617.6873	12463.6	11520.85
825.3692	619.8103	12400	11455.85
825.5138	621.9327	12187.4	11246.65
825.6584	624.0544	11988.1	11050.1
825.803	626.1756	11808.05	10871.6
825.9477	628.2961	11666.6	10728
826.0923	630.4159	11595.45	10655.35
826.237	632.5351	11585.4	10642.35
826.3816	634.6537	11574.45	10629.7
826.5263	636.7716	11565.35	10613.6
826.6709	638.8889	11563.8	10612.75
826.8156	641.0056	11599.8	10644.2
826.9603	643.1216	11593.65	10642.2
827.105	645.237	11555.6	10609.95
827.2497	647.3518	11461.7	10523.55
827.3944	649.4659	11396.75	10462.8
827.5391	651.5793	11341.1	10407.35
827.6838	653.6922	11323.85	10388.8
827.8285	655.8043	11295.3	10359
827.9733	657.9159	11304.2	10361.55
828.118	660.0268	11255.3	10313.25
828.2627	662.137	11265	10321.15
828.4075	664.2466	11278.45	10327.15
828.5522	666.3556	11285.05	10335.45
828.697	668.4639	11227.25	10282.5
828.8418	670.5716	11195.15	10256.35
828.9865	672.6786	11132.85	10184.9
829.1313	674.785	11139.8	10188.05
829.2761	676.8907	11099.45	10153.7
829.4209	678.9958	11106.35	10165.6
829.5657	681.1002	11074.7	10131.8
829.7105	683.204	11077.45	10122.5
829.8553	685.3072	11055.6	10103.25
830.0001	687.4097	11041.55	10094.6
830.1449	689.5115	11001.6	10047.45
830.2898	691.6127	10988.7	10043.95
830.4346	693.7132	10994.5	10050.55
830.5794	695.8131	10998.5	10032.5
830.7243	697.9123	11005.25	10049.55
830.8691	700.0109	11030.45	10075.3
831.014	702.1089	11097.15	10143.15
831.1588	704.2061	11107.3	10157.7
831.3037	706.3028	11181.4	10221.55
831.4486	708.3987	11230.25	10276.8
831.5935	710.4941	11262.6	10315.35
831.7383	712.5887	11289.3	10338.95
831.8832	714.6827	11408.5	10455.65
832.0281	716.7761	11552.8	10607.9
832.173	718.8688	11738.15	10790.9
832.3179	720.9608	11880.65	10922.8
832.4628	723.0522	12038.1	11070.65
832.6077	725.1429	12055.45	11099.7
832.7527	727.233	12117.65	11164.65
832.8976	729.3224	12151.9	11199.5
833.0425	731.4112	12060	11104.4
833.1874	733.4993	11918	10961.45
833.3324	735.5867	11689.85	10735.1
833.4773	737.6735	11488.7	10535
833.6222	739.7596	11326.05	10369.7
833.7672	741.845	11179.8	10223
833.9122	743.9298	11061.4	10104.9
834.0571	746.014	11036	10079.85
834.2021	748.0974	11045.35	10081.6
834.347	750.1802	11034.7	10069.65
834.492	752.2624	11070.75	10108.25
834.637	754.3439	11103.8	10140.65
834.782	756.4247	11219.2	10248.4
834.9269	758.5048	11393.4	10436.15
835.0719	760.5843	11684.25	10723.05
835.2169	762.6631	12081.05	11117.9
835.3619	764.7413	12640.4	11678.9
835.5069	766.8188	13355.65	12389.65
835.6519	768.8956	13925.95	12963.35
835.7969	770.9718	14306.05	13346.85
835.9419	773.0473	14265.4	13304.6
836.0869	775.1221	14020.55	13060.2
836.232	777.1962	13705.2	12745.7
836.377	779.2697	13599.8	12637.95
836.522	781.3426	13639.6	12668.75
836.667	783.4147	13797.3	12834.35
836.8121	785.4862	13843.65	12881.05
836.9571	787.557	13672.8	12708.15
837.1021	789.6271	13222.1	12261.3
837.2472	791.6966	12631.45	11668.7
837.3922	793.7654	12001	11035.65
837.5373	795.8335	11552.2	10588.45
837.6823	797.901	11271.1	10304.05
837.8274	799.9678	11111.8	10145.3
837.9724	802.0339	11028.7	10063.7
838.1175	804.0993	10996.35	10021.6
838.2626	806.1641	10944.7	9980.45
838.4076	808.2282	10854.2	9889.3
838.5527	810.2916	10791.6	9825.8
838.6978	812.3544	10742.5	9783.55
838.8428	814.4164	10641.7	9677.15
838.9879	816.4778	10704.2	9739.15
839.133	818.5385	10756.8	9787.85
839.2781	820.5986	10870.15	9900.4
839.4232	822.658	11111.55	10142
839.5682	824.7166	11444.5	10479.1
839.7133	826.7747	11922.85	10955.55
839.8584	828.832	12470.15	11500.8
840.0035	830.8886	12827.1	11860.35
840.1486	832.9446	12999.25	12029.2
840.2937	834.9999	12897.25	11930.75
840.4388	837.0545	12617.65	11644.8
840.5839	839.1085	12288.35	11320.3
840.729	841.1618	11978.45	11002.75
840.8741	843.2143	11731.25	10765.5
841.0192	845.2662	11523	10555.85
841.1643	847.3175	11379.15	10413.75
841.3095	849.368	11266.5	10295.7
841.4546	851.4179	11192.8	10226.4
841.5997	853.467	11068.5	10100.6
841.7448	855.5155	11040.2	10072.6
841.8899	857.5633	10935.1	9967.35
842.0351	859.6105	10868.5	9898.25
842.1802	861.6569	10776.85	9808.15
842.3253	863.7027	10663.9	9694.15
842.4704	865.7478	10656.95	9685.35
842.6156	867.7922	10619	9652.7
842.7607	869.8359	10576.35	9604.7
842.9058	871.8789	10619.5	9649.1
843.0509	873.9212	10744.95	9738.1
843.1961	875.9629	10805.75	9832.2
843.3412	878.0039	10916.65	9944.45
843.4863	880.0441	11010.75	10042.9
843.6315	882.0837	11046.7	10078.35
843.7766	884.1226	11084.65	10115.25
843.9218	886.1609	11142.8	10177.4
844.0669	888.1984	11210.25	10238.65
844.212	890.2352	11361.5	10393
844.3572	892.2714	11347.7	10375.15
844.5023	894.3069	11318.55	10348.55
844.6475	896.3416	11157	10185.35
844.7926	898.3757	11010.75	10038.55
844.9377	900.4091	10905.85	9933.45
845.0829	902.4418	10927.4	9948.65
845.228	904.4739	10927.05	9950.3
845.3732	906.5052	10985.15	10009.85
845.5183	908.5358	10944.4	9975.95
845.6635	910.5658	10831.1	9850.75
845.8086	912.595	10612.3	9640
845.9538	914.6236	10384.2	9411.6
846.0989	916.6515	10269.15	9294.8
846.2441	918.6786	10170.6	9193.4
846.3892	920.7051	10187.05	9211.7
846.5344	922.7309	10196.75	9221.45
846.6795	924.756	10255.65	9285.2
846.8246	926.7804	10323.25	9348.5
846.9698	928.8041	10337.15	9365.7
847.1149	930.8272	10394.2	9418.4
847.2601	932.8495	10354.8	9382.6
847.4052	934.8711	10355.6	9381.3
847.5504	936.892	10308.25	9334.4
847.6955	938.9123	10293.75	9315.15
847.8407	940.9318	10288.8	9318.55
847.9858	942.9506	10279	9307.4
848.131	944.9688	10214.85	9240.85
848.2761	946.9862	10128.9	9156.95
848.4213	949.003	9991.8	9021.45
848.5664	951.019	9896.4	8925.55
848.7115	953.0344	9854.55	8880.8
848.8567	955.0491	9831.3	8857.65
849.0018	957.063	9868.2	8895.6
849.147	959.0763	9955	8984.65
849.2921	961.0888	9993.95	9018.45
849.4373	963.1007	10025.25	9055.65
849.5824	965.1119	10030.9	9068.1
849.7275	967.1223	10044.35	9090.8
849.8727	969.1321	10017.35	9061.35
850.0178	971.1412	10033.2	9069.35
850.1629	973.1495	9980.1	9014.5
850.3081	975.1572	10064.1	9046.75
850.4532	977.1641	10062	9087.5
850.5983	979.1704	10041.1	9067.25
850.7435	981.1759	10011.05	9036.45
850.8886	983.1808	10037.9	9060.95
851.0337	985.1849	10062.95	9077.95
851.1788	987.1884	10093.75	9120.3
851.324	989.1911	10192.75	9222.65
851.4691	991.1932	10250.75	9282.9
851.6142	993.1945	10286.65	9319.1
851.7593	995.1951	10236.05	9263.6
851.9045	997.1951	10224.65	9243.6
852.0496	999.1943	10201.55	9229.5
852.1947	1001.1928	10195.4	9220.6
852.3398	1003.1906	10227.15	9256.7
852.4849	1005.1877	10343.5	9370.65
852.63	1007.1841	10427.7	9456.95
852.7751	1009.1798	10440.65	9470.45
852.9202	1011.1748	10360.1	9387.55
853.0653	1013.1691	10201.95	9231.2
853.2104	1015.1627	10010.6	9038.35
853.3555	1017.1556	9792.95	8827.65
853.5006	1019.1477	9680.9	8715.3
853.6457	1021.1392	9574.4	8616.75
853.7908	1023.1299	9528.7	8569.95
853.9359	1025.12	9574.25	8623.3
854.081	1027.1093	9621.95	8686.8
854.2261	1029.0979	9717.75	8786.05
854.3712	1031.0859	9794.55	8853.55
854.5163	1033.0731	9854.55	8901.15
854.6613	1035.0596	9819.55	8863.75
854.8064	1037.0454	9689.8	8725.45
854.9515	1039.0304	9594.55	8631
855.0965	1041.0148	9455.15	8486.05
855.2416	1042.9985	9371.65	8404.9
855.3867	1044.9814	9325.3	8356.65
855.5317	1046.9636	9285.2	8318.6
855.6768	1048.9452	9283.25	8318.75
855.8219	1050.926	9324.85	8359.75
855.9669	1052.9061	9334.4	8365.85
856.112	1054.8855	9354.75	8387.55
856.257	1056.8642	9414.1	8444.25
856.4021	1058.8421	9464.7	8490.2
856.5471	1060.8194	9478.5	8508.9
856.6921	1062.7959	9519.9	8554.3
856.8372	1064.7717	9602.3	8629.15
856.9822	1066.7469	9664.2	8696.35
857.1272	1068.7213	9752.9	8784.15
857.2723	1070.695	9807.05	8838.75
857.4173	1072.6679	9839.25	8869.1
857.5623	1074.6402	9856.05	8884.4
857.7073	1076.6117	9781	8807.55
857.8523	1078.5826	9704.15	8731.75
857.9973	1080.5527	9571.8	8603.85
858.1423	1082.5221	9491.65	8526.9
858.2873	1084.4908	9465.55	8497.4
858.4323	1086.4587	9519.05	8548.8
858.5773	1088.426	9548.5	8580.5
858.7223	1090.3925	9582.45	8607.3
858.8673	1092.3584	9592.6	8625.8
859.0123	1094.3235	9616.15	8651.2
859.1573	1096.2879	9710.75	8742.35
859.3022	1098.2515	9800	8834.75
859.4472	1100.2145	9991.75	9028.05
859.5922	1102.1767	10143.3	9177.3
859.7371	1104.1382	10372.75	9411.65
859.8821	1106.099	10629.45	9662.15
860.027	1108.0591	10845.75	9875.25
860.172	1110.0185	11022.5	10056.1
860.3169	1111.9771	11091.75	10126.75
860.4619	1113.9351	10967.5	9998.8
860.6068	1115.8923	10854.45	9884.7
860.7517	1117.8488	10701.4	9737.3
860.8967	1119.8045	10504.55	9536.55
861.0416	1121.7596	10375.4	9408.65
861.1865	1123.7139	10264.15	9298.6
861.3314	1125.6675	10196.15	9229.45
861.4763	1127.6204	10235.7	9268.4
861.6212	1129.5726	10171.2	9203.85
861.7661	1131.524	10077.45	9110.95
861.911	1133.4748	9964.5	9001.35
862.0559	1135.4248	9787.15	8820.75
862.2008	1137.3741	9632.6	8663.8
862.3457	1139.3226	9526.95	8562.05
862.4905	1141.2705	9458.1	8492.8
862.6354	1143.2176	9387.15	8418.15
862.7803	1145.164	9346.7	8381.85
862.9251	1147.1097	9285.55	8321.15
863.07	1149.0546	9169.8	8202.9
863.2148	1150.9989	9077.2	8111.6
863.3597	1152.9424	8971.9	8004.25
863.5045	1154.8852	8927.9	7963.95
863.6493	1156.8272	8855.05	7889.4
863.7942	1158.7686	8887.15	7915.75
863.939	1160.7092	8911.85	7944.6
864.0838	1162.6491	8944.35	7978.05
864.2286	1164.5883	9047.25	8081.2
864.3734	1166.5267	9168.75	8203.25
864.5182	1168.4644	9319.5	8355.15
864.663	1170.4014	9513.9	8547.3
864.8078	1172.3377	9775.85	8814.15
864.9526	1174.2732	10080.35	9120.7
865.0974	1176.2081	10482.35	9520
865.2421	1178.1421	10980.9	10013.1
865.3869	1180.0755	11517	10556.7
865.5317	1182.0082	11869.8	10908.45
865.6764	1183.9401	12031.25	11070.35
865.8212	1185.8713	11890.65	10939.65
865.9659	1187.8017	11549.95	10599.85
866.1106	1189.7315	11145.1	10208.45
866.2554	1191.6605	10746.75	9810.5
866.4001	1193.5888	10466.4	9523.55
