Software Version:	3.9.2.0
Unit SN:	10000200
Spectrometer SN:	6960
Date:	3/8/2024 12:16:24 PM
Data Line Index:	25
Spectral Points:	2048
Integration time (ms):	125
Averages:	20
Delay (ms):	30000
Sequence Number:	1
Processing:	dark subtract
Laser Power (mW):	300
Laser Current (mA):	822
Laser Diode Temp (C):	25.1
Laser Case Temp (C):	25.7
System Temp (C):	25.7
Spectrometer Temp (C):	23.6
CCD Temp (C):	0.012
Secondary Temp (C):	20.003
Heatsink Temp (C):	20.31
CCDPCB Temp (C):	34.795
SecondaryPCB Temp (C):	28.137

Wavelength	RamanShift	Raw Counts	Dark Subtracted
787.061	30.1047	431.3	21.75
787.2016	32.3739	432.25	24.6
787.3422	34.6426	434.15	25.75
787.4828	36.9109	438.95	29.15
787.6235	39.1787	444.9	31.7
787.7642	41.4461	452.1	33.15
787.9049	43.7131	460.85	40.3
788.0456	45.9796	463.3	39.5
788.1863	48.2456	471.6	42.8
788.3271	50.5112	477.15	45.35
788.4679	52.7764	484.6	49.2
788.6087	55.0411	492.9	54.2
788.7496	57.3054	501.75	57.8
788.8904	59.5692	507.6	61.65
789.0313	61.8326	513.15	62.65
789.1722	64.0955	523.95	71.75
789.3132	66.3579	533.4	75.1
789.4541	68.6199	548.8	87.7
789.5951	70.8815	575.4	109.25
789.7361	73.1426	628.25	157.45
789.8771	75.4032	763.55	290
790.0181	77.6634	1092.9	616.05
790.1592	79.9231	1877.65	1394.8
790.3003	82.1824	3497	3005.25
790.4414	84.4412	6328.5	5815.85
790.5825	86.6995	10117.45	9585.55
790.7237	88.9574	13658.85	13103.15
790.8648	91.2148	16003.85	15434.9
791.006	93.4717	17013.4	16437.05
791.1472	95.7282	17048.85	16469.9
791.2885	97.9842	16772.4	16190.25
791.4297	100.2398	16215.7	15632.45
791.571	102.4949	15636.8	15048.3
791.7123	104.7495	14964.55	14371.1
791.8536	107.0036	14334.95	13744.7
791.9949	109.2573	13748.55	13156
792.1363	111.5105	13260.6	12665.65
792.2777	113.7632	12793.05	12197.8
792.4191	116.0154	12419.2	11812.55
792.5605	118.2672	12141.65	11537.95
792.7019	120.5185	11859.5	11254.95
792.8434	122.7693	11683.35	11075.1
792.9849	125.0197	11505.3	10895.1
793.1264	127.2696	11300.2	10684.45
793.2679	129.519	11167.6	10546.25
793.4094	131.7679	10973.95	10353.75
793.551	134.0163	10780.95	10157.8
793.6926	136.2642	10521.8	9898.65
793.8342	138.5117	10283.05	9649.05
793.9758	140.7587	9990.9	9360.5
794.1175	143.0052	9743.4	9108.45
794.2591	145.2512	9483.5	8849.75
794.4008	147.4967	9273.95	8639.1
794.5425	149.7417	9107.5	8470.6
794.6842	151.9863	8986.9	8344.4
794.826	154.2304	8891.3	8242.6
794.9677	156.4739	8800.5	8147.65
795.1095	158.717	8693.35	8041.6
795.2513	160.9596	8606.3	7948.35
795.3931	163.2017	8442.4	7781.8
795.535	165.4433	8254.8	7593.25
795.6768	167.6844	8040.4	7377.95
795.8187	169.925	7852	7184.75
795.9606	172.1651	7623.65	6956.35
796.1025	174.4047	7440.1	6769.1
796.2445	176.6439	7303.95	6632.8
796.3864	178.8825	7143.75	6468.4
796.5284	181.1206	7065.8	6384.4
796.6704	183.3582	6977.3	6294.7
796.8124	185.5954	6926.05	6241.95
796.9544	187.832	6869.4	6180.2
797.0965	190.0681	6850.75	6156.75
797.2386	192.3037	6844.6	6149.5
797.3806	194.5388	6833.15	6134.95
797.5228	196.7734	6862.55	6162.75
797.6649	199.0075	6897.25	6195.6
797.807	201.2411	6969.75	6267.95
797.9492	203.4742	7003.65	6300
798.0914	205.7068	7138.95	6430.35
798.2336	207.9389	7194.6	6484.5
798.3758	210.1704	7273.05	6570.95
798.518	212.4015	7349.95	6651.7
798.6603	214.632	7428.4	6737.9
798.8025	216.862	7507.7	6823.2
798.9448	219.0915	7550.25	6861.4
799.0871	221.3205	7595.9	6901.85
799.2294	223.549	7643.65	6955.25
799.3718	225.777	7642.7	6953.4
799.5141	228.0044	7677.95	6983.95
799.6565	230.2314	7739.55	7045.25
799.7989	232.4578	7750.05	7048.2
799.9413	234.6837	7784.4	7076.25
800.0837	236.909	7820.95	7109.55
800.2262	239.1339	7828.45	7093
800.3687	241.3582	7780.8	7059.3
800.5111	243.582	7751.85	7002.45
800.6536	245.8053	7731.5	6993.1
800.7961	248.0281	7706	6975.65
800.9387	250.2503	7732.25	6994.35
801.0812	252.472	7787.75	7050.9
801.2238	254.6932	7885.95	7150.85
801.3664	256.9139	7967.85	7229.3
801.509	259.134	8131.7	7389.05
801.6516	261.3536	8294.7	7554.4
801.7942	263.5727	8538.75	7797.85
801.9369	265.7912	8722.9	7980.5
802.0795	268.0092	8956.7	8217.75
802.2222	270.2267	9108.55	8362.4
802.3649	272.4436	9245.45	8499.8
802.5076	274.6601	9293.3	8540.4
802.6504	276.8759	9262.15	8512.45
802.7931	279.0913	9174.35	8423.05
802.9359	281.3061	9101.5	8349.1
803.0787	283.5204	9070.15	8313.1
803.2215	285.7341	9047.4	8284.1
803.3643	287.9473	9043.8	8284.65
803.5071	290.16	9069.1	8305.6
803.6499	292.3721	9083.7	8328.4
803.7928	294.5837	9116	8359.9
803.9357	296.7947	9244.5	8485.1
804.0786	299.0052	9334.2	8576.6
804.2215	301.2152	9332.75	8568.95
804.3644	303.4246	9296.65	8539.95
804.5074	305.6334	9105.1	8348.85
804.6503	307.8418	8875.55	8114.35
804.7933	310.0495	8623.8	7862.8
804.9363	312.2568	8348.9	7584.1
805.0793	314.4635	8084	7317.45
805.2223	316.6696	7844.65	7074.55
805.3653	318.8752	7668.25	6891.35
805.5084	321.0802	7591.05	6816.8
805.6514	323.2847	7587.15	6815.7
805.7945	325.4887	7614.85	6843.2
805.9376	327.692	7623.05	6846.9
806.0807	329.8949	7592.25	6817.7
806.2238	332.0972	7509.5	6730.4
806.367	334.2989	7377.25	6597.55
806.5101	336.5001	7241.9	6460.75
806.6533	338.7007	7103.15	6322.65
806.7965	340.9008	6980.65	6197.3
806.9397	343.1003	6864.55	6081.45
807.0829	345.2992	6775	5989.75
807.2261	347.4976	6707.05	5921.65
807.3693	349.6955	6653.1	5862.55
807.5126	351.8927	6621.5	5829.4
807.6559	354.0895	6549	5745
807.7991	356.2856	6502.75	5710.7
807.9424	358.4812	6469.85	5679.35
808.0857	360.6763	6468.8	5672
808.2291	362.8707	6465.6	5669.8
808.3724	365.0646	6476.7	5674.3
808.5158	367.258	6504.9	5698.95
808.6591	369.4508	6572.5	5769.8
808.8025	371.643	6653.75	5848.15
808.9459	373.8346	6736.75	5932.05
809.0893	376.0257	6819.75	6009.45
809.2327	378.2162	6847.55	6041.4
809.3762	380.4062	6861.7	6053.4
809.5196	382.5956	6788.35	5983.4
809.6631	384.7844	6711.05	5908.05
809.8066	386.9726	6630.05	5831.7
809.9501	389.1603	6558.75	5757.85
810.0936	391.3474	6554.7	5725
810.2371	393.5339	6500.95	5698.7
810.3806	395.7199	6503.1	5702.7
810.5241	397.9052	6549.1	5750.05
810.6677	400.09	6619.6	5816.9
810.8113	402.2743	6734.65	5930.75
810.9548	404.4579	6846.45	6039.9
811.0984	406.641	7008.05	6201.1
811.2421	408.8235	7100.45	6293.85
811.3857	411.0054	7189.6	6379.55
811.5293	413.1868	7268	6454.75
811.673	415.3675	7301.45	6485.35
811.8166	417.5477	7251.75	6433.7
811.9603	419.7273	7201.45	6380.2
812.104	421.9064	7126.75	6302.65
812.2477	424.0848	7072.8	6255.75
812.3914	426.2627	6989.65	6168.6
812.5351	428.4399	6863.5	6044.7
812.6788	430.6166	6673.95	5847.95
812.8226	432.7928	6454	5626.15
812.9663	434.9683	6251.65	5426.25
813.1101	437.1432	6106.5	5279.4
813.2539	439.3176	6021.45	5196.6
813.3977	441.4914	5923.65	5104.1
813.5415	443.6645	5914.8	5094.8
813.6853	445.8371	5894.45	5071.1
813.8291	448.0091	5885.8	5061.95
813.973	450.1806	5889.85	5063.4
814.1168	452.3514	5870.6	5045.6
814.2607	454.5216	5900.4	5064.8
814.4046	456.6913	5884.9	5059.05
814.5485	458.8603	5930.4	5104.25
814.6924	461.0288	5933.65	5107.65
814.8363	463.1967	5938.05	5117.3
814.9802	465.3639	5932.05	5108
815.1241	467.5306	5918.4	5090.35
815.2681	469.6967	5909.25	5084
815.412	471.8622	5897.9	5075.8
815.556	474.0271	5910	5080.4
815.7	476.1914	5939.7	5108.5
815.844	478.3551	5947.35	5117.45
815.988	480.5182	5989.05	5160.25
816.132	482.6807	6054.05	5228.8
816.276	484.8426	6186.45	5363.25
816.4201	487.0039	6388.3	5559
816.5641	489.1647	6640.5	5808.8
816.7082	491.3248	6829.05	5996.05
816.8522	493.4843	6879.35	6046.6
816.9963	495.6432	6830.45	6002.1
817.1404	497.8015	6755.55	5917.75
817.2845	499.9592	6666.95	5828.95
817.4286	502.1163	6505.25	5666.75
817.5727	504.2728	6333.1	5496.25
817.7168	506.4287	6147.25	5317.85
817.861	508.5839	5972.65	5138.65
818.0051	510.7386	5842.1	5006.75
818.1493	512.8927	5807.4	4965.95
818.2935	515.0461	5817.95	4977.7
818.4377	517.199	5897.65	5055.9
818.5818	519.3512	6026.25	5183.2
818.726	521.5029	6243	5397.15
818.8703	523.6539	6428.45	5585.4
819.0145	525.8043	6499.75	5658.8
819.1587	527.9541	6435.05	5586.35
819.303	530.1033	6284	5438.45
819.4472	532.2519	6135.85	5293.05
819.5915	534.3999	6105.95	5261.6
819.7357	536.5472	6103.15	5257.35
819.88	538.694	6193.15	5349.15
820.0243	540.8401	6312.85	5467.25
820.1686	542.9856	6407.2	5554.4
820.3129	545.1305	6422.3	5567.15
820.4572	547.2748	6400.25	5544
820.6016	549.4185	6306.6	5450.75
820.7459	551.5615	6262.45	5406.35
820.8902	553.704	6263.1	5407.75
821.0346	555.8458	6340.5	5488.8
821.1789	557.987	6484.1	5634.85
821.3233	560.1276	6652.6	5797.45
821.4677	562.2675	6946.15	6094
821.6121	564.4069	7318.1	6464.7
821.7565	566.5456	7712.85	6863.45
821.9009	568.6837	7809.7	6959.05
822.0453	570.8212	7549.1	6699.9
822.1897	572.958	7080.1	6227.3
822.3342	575.0942	6624.8	5777.2
822.4786	577.2299	6319.95	5473.15
822.6231	579.3648	6128.35	5281.5
822.7675	581.4992	6089.4	5250.85
822.912	583.6329	6135.1	5295.65
823.0565	585.766	6236.7	5394.35
823.201	587.8985	6358.55	5512.4
823.3454	590.0304	6421.6	5550.2
823.4899	592.1616	6407.5	5552.75
823.6345	594.2922	6334.6	5477.7
823.779	596.4222	6195.55	5337.15
823.9235	598.5515	6045	5186.8
824.068	600.6802	5942.35	5081.9
824.2126	602.8083	5858.55	5002
824.3571	604.9358	5848.9	4988.85
824.5017	607.0626	5884.3	5024.6
824.6462	609.1888	5969.95	5109.5
824.7908	611.3144	6087.9	5225.45
824.9354	613.4393	6226.55	5365.65
825.08	615.5636	6312.75	5449.2
825.2246	617.6873	6355.1	5492.15
825.3692	619.8103	6306.7	5439.6
825.5138	621.9327	6181.6	5316.85
825.6584	624.0544	6022.8	5163.3
825.803	626.1756	5860.15	4998.7
825.9477	628.2961	5751.85	4887.7
826.0923	630.4159	5712.95	4846.15
826.237	632.5351	5709.85	4845.05
826.3816	634.6537	5708.8	4844.1
826.5263	636.7716	5703.5	4838.95
826.6709	638.8889	5711.35	4842.3
826.8156	641.0056	5732.75	4862.15
826.9603	643.1216	5718.6	4851.25
827.105	645.237	5699.05	4828.55
827.2497	647.3518	5607.75	4742.1
827.3944	649.4659	5562.55	4703.05
827.5391	651.5793	5525.5	4665
827.6838	653.6922	5492.1	4627
827.8285	655.8043	5494.95	4629.3
827.9733	657.9159	5493.1	4629.65
828.118	660.0268	5484.45	4617.3
828.2627	662.137	5508.65	4643.15
828.4075	664.2466	5525.7	4652.75
828.5522	666.3556	5507.7	4635.25
828.697	668.4639	5474.65	4605.45
828.8418	670.5716	5446.6	4577
828.9865	672.6786	5414.3	4543.6
829.1313	674.785	5360.95	4488.6
829.2761	676.8907	5324.2	4454.9
829.4209	678.9958	5321.05	4453.9
829.5657	681.1002	5301.25	4428.4
829.7105	683.204	5326.9	4449.7
829.8553	685.3072	5286.95	4411
830.0001	687.4097	5282.25	4404.85
830.1449	689.5115	5294.7	4419.1
830.2898	691.6127	5298	4425.1
830.4346	693.7132	5298.95	4428.9
830.5794	695.8131	5318.85	4432.05
830.7243	697.9123	5338.65	4462.05
830.8691	700.0109	5354.1	4474
831.014	702.1089	5386.35	4509.75
831.1588	704.2061	5446.85	4571.55
831.3037	706.3028	5507.6	4629.85
831.4486	708.3987	5530.5	4653.25
831.5935	710.4941	5540.65	4666.15
831.7383	712.5887	5547.45	4671.3
831.8832	714.6827	5560	4677.35
832.0281	716.7761	5610.4	4734
832.173	718.8688	5694.75	4820.05
832.3179	720.9608	5745.3	4862.9
832.4628	723.0522	5851.85	4966.4
832.6077	725.1429	5953.1	5074.75
832.7527	727.233	6041.75	5160.85
832.8976	729.3224	6137.35	5259.55
833.0425	731.4112	6118.2	5237.7
833.1874	733.4993	6041.85	5159.95
833.3324	735.5867	5903.55	5021.8
833.4773	737.6735	5725.5	4842.8
833.6222	739.7596	5597.8	4716.8
833.7672	741.845	5501.9	4620.45
833.9122	743.9298	5439.65	4557.1
834.0571	746.014	5433.9	4553.35
834.2021	748.0974	5415.15	4532.05
834.347	750.1802	5432	4547.6
834.492	752.2624	5425.6	4542.3
834.637	754.3439	5488.35	4602.9
834.782	756.4247	5537.3	4642.15
834.9269	758.5048	5642.35	4757.75
835.0719	760.5843	5814.85	4925.65
835.2169	762.6631	6077.85	5191.75
835.3619	764.7413	6455.1	5572.25
835.5069	766.8188	6910.05	6024.3
835.6519	768.8956	7327.25	6438.8
835.7969	770.9718	7596.1	6712.1
835.9419	773.0473	7600	6713.05
836.0869	775.1221	7467.2	6581.45
836.232	777.1962	7300.4	6414.7
836.377	779.2697	7290.4	6401.8
836.522	781.3426	7388.55	6486.4
836.667	783.4147	7450.4	6560.2
836.8121	785.4862	7446.1	6559.45
836.9571	787.557	7267.7	6378.75
837.1021	789.6271	6921.75	6032.5
837.2472	791.6966	6502.6	5615.8
837.3922	793.7654	6127.3	5238.3
837.5373	795.8335	5825.95	4937.45
837.6823	797.901	5620.4	4732.6
837.8274	799.9678	5511.05	4619.85
837.9724	802.0339	5429.25	4541.1
838.1175	804.0993	5380.55	4481.1
838.2626	806.1641	5352.95	4463.25
838.4076	808.2282	5315.55	4426.55
838.5527	810.2916	5271.5	4380.5
838.6978	812.3544	5226.55	4339.35
838.8428	814.4164	5202.25	4318.05
838.9879	816.4778	5207.6	4316.05
839.133	818.5385	5244.8	4355.6
839.2781	820.5986	5348.85	4459.75
839.4232	822.658	5515.15	4623.05
839.5682	824.7166	5752.4	4863
839.7133	826.7747	6140.7	5248.8
839.8584	828.832	6528.65	5640.25
840.0035	830.8886	6835.95	5942.05
840.1486	832.9446	6951.5	6057.55
840.2937	834.9999	6876.1	5985.85
840.4388	837.0545	6648.45	5756.55
840.5839	839.1085	6354.65	5462.35
840.729	841.1618	6109.35	5212
840.8741	843.2143	5909.7	5018.35
841.0192	845.2662	5754.55	4862.45
841.1643	847.3175	5660.4	4767.45
841.3095	849.368	5607.55	4714.65
841.4546	851.4179	5555.35	4663.6
841.5997	853.467	5477.15	4583.7
841.7448	855.5155	5455.9	4564.85
841.8899	857.5633	5431.15	4537.2
842.0351	859.6105	5374.4	4479.8
842.1802	861.6569	5321.4	4428.05
842.3253	863.7027	5265.7	4368.95
842.4704	865.7478	5231.5	4335.2
842.6156	867.7922	5195.8	4300.55
842.7607	869.8359	5185.6	4292.45
842.9058	871.8789	5175.8	4279.75
843.0509	873.9212	5236.55	4310.55
843.1961	875.9629	5250.65	4353.3
843.3412	878.0039	5326.5	4428.5
843.4863	880.0441	5361.35	4472
843.6315	882.0837	5416.3	4518.3
843.7766	884.1226	5465.6	4572.2
843.9218	886.1609	5549.6	4654.85
844.0669	888.1984	5635.5	4740.2
844.212	890.2352	5757.25	4859.3
844.3572	892.2714	5770.6	4872.7
844.5023	894.3069	5749.75	4857.05
844.6475	896.3416	5616.25	4723.4
844.7926	898.3757	5513.9	4616.85
844.9377	900.4091	5429.45	4531.6
845.0829	902.4418	5421.3	4520.9
845.228	904.4739	5437.4	4535.85
845.3732	906.5052	5481.85	4583.05
845.5183	908.5358	5493.6	4595.05
845.6635	910.5658	5401.3	4500.1
845.8086	912.595	5265.7	4366.15
845.9538	914.6236	5106.05	4207.6
846.0989	916.6515	5017.45	4118.55
846.2441	918.6786	4944.4	4044.9
846.3892	920.7051	4931.4	4032.75
846.5344	922.7309	4958.2	4058.1
846.6795	924.756	4955.4	4057.3
846.8246	926.7804	5014.6	4115.65
846.9698	928.8041	5005.2	4106.4
847.1149	930.8272	5041.5	4141.8
847.2601	932.8495	5040.65	4137.6
847.4052	934.8711	5075.3	4173.15
847.5504	936.892	5062.3	4162.7
847.6955	938.9123	5074.35	4173.7
847.8407	940.9318	5121.05	4224.9
847.9858	942.9506	5141.35	4241.6
848.131	944.9688	5122.5	4222.85
848.2761	946.9862	5035.95	4136.45
848.4213	949.003	4931.6	4030.8
848.5664	951.019	4874.35	3973.35
848.7115	953.0344	4821.75	3924.35
848.8567	955.0491	4803.35	3902.3
849.0018	957.063	4816.5	3918.85
849.147	959.0763	4860.55	3964
849.2921	961.0888	4880.9	3977.9
849.4373	963.1007	4894.15	3993.55
849.5824	965.1119	4889.3	3991.6
849.7275	967.1223	4893.85	4001.3
849.8727	969.1321	4881.75	3989.35
850.0178	971.1412	4871.45	3976
850.1629	973.1495	4873.75	3973.3
850.3081	975.1572	4887.75	3955.8
850.4532	977.1641	4886.85	3985.75
850.5983	979.1704	4869.1	3965.65
850.7435	981.1759	4843.15	3938.75
850.8886	983.1808	4846.9	3942.25
851.0337	985.1849	4849.15	3938.85
851.1788	987.1884	4880.55	3977.5
851.324	989.1911	4915.4	4011.8
851.4691	991.1932	4938.85	4037.55
851.6142	993.1945	4967	4066.95
851.7593	995.1951	4932.2	4031.7
851.9045	997.1951	4926.2	4018.85
852.0496	999.1943	4898.45	3998.6
852.1947	1001.1928	4916.05	4015.5
852.3398	1003.1906	4976.9	4075.75
852.4849	1005.1877	5066.2	4165.9
852.63	1007.1841	5120.3	4221.15
852.7751	1009.1798	5173.5	4271.5
852.9202	1011.1748	5153	4250.15
853.0653	1013.1691	5063.3	4159.6
853.2104	1015.1627	4929.85	4027.5
853.3555	1017.1556	4815.95	3915.35
853.5006	1019.1477	4745.75	3848.8
853.6457	1021.1392	4659.9	3762.35
853.7908	1023.1299	4650.9	3754.6
853.9359	1025.12	4650.9	3757.45
854.081	1027.1093	4684.3	3796.85
854.2261	1029.0979	4746.75	3859.25
854.3712	1031.0859	4823.9	3935.4
854.5163	1033.0731	4862.6	3964.95
854.6613	1035.0596	4845.5	3948.45
854.8064	1037.0454	4788.75	3891.25
854.9515	1039.0304	4705	3803.95
855.0965	1041.0148	4662.7	3763.05
855.2416	1042.9985	4616.1	3712.65
855.3867	1044.9814	4585.35	3684.4
855.5317	1046.9636	4569.05	3667.2
855.6768	1048.9452	4560.95	3661.3
855.8219	1050.926	4579.85	3681.9
855.9669	1052.9061	4598.95	3698.7
856.112	1054.8855	4630.2	3730.2
856.257	1056.8642	4645.1	3749.25
856.4021	1058.8421	4678.7	3774.4
856.5471	1060.8194	4694.9	3791.8
856.6921	1062.7959	4729.55	3829.4
856.8372	1064.7717	4778.75	3872.85
856.9822	1066.7469	4819.85	3915.85
857.1272	1068.7213	4894.6	3991
857.2723	1070.695	4954.35	4049.35
857.4173	1072.6679	5000.25	4097.75
857.5623	1074.6402	5027.35	4126.4
857.7073	1076.6117	5010.7	4103.55
857.8523	1078.5826	4917.2	4014.05
857.9973	1080.5527	4820.3	3912.4
858.1423	1082.5221	4737	3833.4
858.2873	1084.4908	4680.85	3779.6
858.4323	1086.4587	4660.6	3757.4
858.5773	1088.426	4673.75	3771.2
858.7223	1090.3925	4679.1	3773.9
858.8673	1092.3584	4714	3814.2
859.0123	1094.3235	4731.85	3830.65
859.1573	1096.2879	4825.8	3926.9
859.3022	1098.2515	4933.35	4029.9
859.4472	1100.2145	5054.15	4153.9
859.5922	1102.1767	5183.6	4281.1
859.7371	1104.1382	5338.3	4435.55
859.8821	1106.099	5511.95	4608.35
860.027	1108.0591	5660.25	4759.8
860.172	1110.0185	5781	4876.8
860.3169	1111.9771	5838.55	4936.05
860.4619	1113.9351	5810.55	4907.2
860.6068	1115.8923	5766.5	4864.05
860.7517	1117.8488	5691.25	4788.95
860.8967	1119.8045	5593.55	4691.8
861.0416	1121.7596	5493.55	4590.75
861.1865	1123.7139	5394.75	4498.5
861.3314	1125.6675	5349.7	4448.25
861.4763	1127.6204	5348.1	4447.4
861.6212	1129.5726	5323.3	4422.5
861.7661	1131.524	5280.75	4379.5
861.911	1133.4748	5169.35	4266.25
862.0559	1135.4248	5004	4100.1
862.2008	1137.3741	4906.6	4006.45
862.3457	1139.3226	4824.6	3922.8
862.4905	1141.2705	4785.2	3884.6
862.6354	1143.2176	4762.2	3856.5
862.7803	1145.164	4736.9	3833.65
862.9251	1147.1097	4665.25	3762.95
863.07	1149.0546	4584.15	3681.2
863.2148	1150.9989	4513.2	3611
863.3597	1152.9424	4449.4	3544.95
863.5045	1154.8852	4405.05	3499.55
863.6493	1156.8272	4396.3	3494.55
863.7942	1158.7686	4413.35	3503.85
863.939	1160.7092	4428.1	3525.15
864.0838	1162.6491	4480.2	3577.2
864.2286	1164.5883	4545.9	3645.35
864.3734	1166.5267	4633.15	3733.9
864.5182	1168.4644	4739.25	3837.65
864.663	1170.4014	4849.35	3943.4
864.8078	1172.3377	5017.4	4118.6
864.9526	1174.2732	5220.9	4322.4
865.0974	1176.2081	5534.55	4633.95
865.2421	1178.1421	5907.3	5004.55
865.3869	1180.0755	6304.7	5401.05
865.5317	1182.0082	6587.2	5686.7
865.6764	1183.9401	6692.8	5793
865.8212	1185.8713	6584.7	5686.85
865.9659	1187.8017	6331.2	5433.4
866.1106	1189.7315	6024.7	5134.15
866.2554	1191.6605	5745.35	4851.8
866.4001	1193.5888	5556.45	4661.5
866.5448	1195.5163	5421.95	4528.1
866.6895	1197.4432	5357.45	4456.7
866.8342	1199.3693	5326.45	4425.85
866.9789	1201.2947	5292.3	4386.2
867.1236	1203.2193	5254.3	4356.2
867.2683	1205.1432	5240.35	4338.35
867.413	1207.0664	5227.05	4324.65
867.5576	1208.9889	5209.05	4306.65
867.7023	1210.9106	5202.4	4301.3
867.847	1212.8316	5207.7	4308.05
867.9916	1214.7519	5257.7	4348.55
868.1363	1216.6715	5247.25	4349.15
868.2809	1218.5903	5337.35	4440.05
868.4255	1220.5084	5396.8	4497.15
868.5701	1222.4257	5471.4	4572.85
868.7148	1224.3424	5516.55	4619.8
868.8594	1226.2583	5624.9	4722.95
869.004	1228.1735	5742.7	4841.2
869.1486	1230.0879	5888.35	4987
869.2932	1232.0016	6012.2	5112.65
869.4377	1233.9146	6145.1	5242.6
869.5823	1235.8269	6192.15	5294.05
869.7269	1237.7384	6205.9	5306.3
