Software Version:	3.9.2.0
Unit SN:	10000200
Spectrometer SN:	6960
Date:	3/8/2024 1:24:09 PM
Data Line Index:	25
Spectral Points:	2048
Integration time (ms):	125
Averages:	20
Delay (ms):	30000
Sequence Number:	1
Processing:	dark subtract
Laser Power (mW):	300
Laser Current (mA):	822
Laser Diode Temp (C):	25
Laser Case Temp (C):	26.2
System Temp (C):	26.2
Spectrometer Temp (C):	24
CCD Temp (C):	0.012
Secondary Temp (C):	20.007
Heatsink Temp (C):	21.195
CCDPCB Temp (C):	36.118
SecondaryPCB Temp (C):	31.66

Wavelength	RamanShift	Raw Counts	Dark Subtracted
787.061	30.1047	453.9	46.95
787.2016	32.3739	453.9	46.85
787.3422	34.6426	458.5	50.35
787.4828	36.9109	464.45	56.85
787.6235	39.1787	471	59.05
787.7642	41.4461	483.3	65.5
787.9049	43.7131	492.75	71.6
788.0456	45.9796	499.5	76.45
788.1863	48.2456	506.8	78.8
788.3271	50.5112	512.1	79.95
788.4679	52.7764	525	91.4
788.6087	55.0411	538.8	98.3
788.7496	57.3054	546.25	98.65
788.8904	59.5692	553.8	107.25
789.0313	61.8326	559.5	109
789.1722	64.0955	576.4	125.3
789.3132	66.3579	594.2	135.35
789.4541	68.6199	612.65	151.1
789.5951	70.8815	648.7	182.75
789.7361	73.1426	725.7	254.45
789.8771	75.4032	922.5	446.95
790.0181	77.6634	1412.65	932.7
790.1592	79.9231	2555.9	2067.1
790.3003	82.1824	5016.8	4511.2
790.4414	84.4412	9450.25	8913.75
790.5825	86.6995	15546.95	14970.35
790.7237	88.9574	21480.6	20866.7
790.8648	91.2148	25542	24908.45
791.006	93.4717	27421.4	26772.35
791.1472	95.7282	27727.65	27072.5
791.2885	97.9842	27577.2	26915.6
791.4297	100.2398	26930.35	26265.95
791.571	102.4949	26282.7	25619.75
791.7123	104.7495	25459.75	24787.35
791.8536	107.0036	24573.3	23906.7
791.9949	109.2573	23829.7	23161.2
792.1363	111.5105	23050.55	22378.55
792.2777	113.7632	22316.3	21642.7
792.4191	116.0154	21729.85	21041.2
792.5605	118.2672	21250.2	20567.85
792.7019	120.5185	20792.4	20113.8
792.8434	122.7693	20416.65	19736.6
792.9849	125.0197	20101.2	19415.7
793.1264	127.2696	19821.8	19130
793.2679	129.519	19651.7	18953.15
793.4094	131.7679	19409.7	18709.65
793.551	134.0163	19208.4	18504.85
793.6926	136.2642	18948.3	18245.8
793.8342	138.5117	18692.6	17984.6
793.9758	140.7587	18405.2	17698.65
794.1175	143.0052	18155.25	17441
794.2591	145.2512	17889.25	17177.55
794.4008	147.4967	17609.55	16892.7
794.5425	149.7417	17457.2	16744.65
794.6842	151.9863	17304.65	16585.85
794.826	154.2304	17241.55	16514.6
794.9677	156.4739	17072.25	16339.3
795.1095	158.717	16974.25	16243.6
795.2513	160.9596	16799.25	16064.85
795.3931	163.2017	16569.25	15831.6
795.535	165.4433	16258.85	15521.9
795.6768	167.6844	15920.8	15181.55
795.8187	169.925	15590.9	14848.2
795.9606	172.1651	15240.8	14496.5
796.1025	174.4047	14962.55	14213.65
796.2445	176.6439	14685	13934.15
796.3864	178.8825	14479.2	13727.45
796.5284	181.1206	14300.75	13542.7
796.6704	183.3582	14106.55	13342.75
796.8124	185.5954	14047.9	13286.2
796.9544	187.832	13950.75	13184.9
797.0965	190.0681	13929.85	13157.8
797.2386	192.3037	13899.2	13130.35
797.3806	194.5388	13914.8	13136.35
797.5228	196.7734	13925.65	13145.6
797.6649	199.0075	13984.65	13205.75
797.807	201.2411	14109.9	13324.85
797.9492	203.4742	14160.55	13378.95
798.0914	205.7068	14311.65	13522.6
798.2336	207.9389	14422.65	13634.9
798.3758	210.1704	14572.1	13792.3
798.518	212.4015	14704.5	13930.1
798.6603	214.632	14865.75	14100.05
798.8025	216.862	15031	14266.5
798.9448	219.0915	15159.4	14394.25
799.0871	221.3205	15345.25	14573.8
799.2294	223.549	15570	14805.95
799.3718	225.777	15815.4	15048.75
799.5141	228.0044	16115.85	15343.2
799.6565	230.2314	16431.4	15658.25
799.7989	232.4578	16836.55	16063.35
799.9413	234.6837	17117.75	16333.3
800.0837	236.909	17294	16506.05
800.2262	239.1339	17270.1	16460.35
800.3687	241.3582	17097.35	16297.85
800.5111	243.582	16843.05	16011.9
800.6536	245.8053	16530.8	15719.8
800.7961	248.0281	16294.6	15485.7
800.9387	250.2503	16099.75	15284.85
801.0812	252.472	16012.55	15197.9
801.2238	254.6932	15998.85	15185.2
801.3664	256.9139	15984.6	15167.9
801.509	259.134	16057.65	15236.25
801.6516	261.3536	16137.35	15317.9
801.7942	263.5727	16245.15	15421.95
801.9369	265.7912	16304.95	15487.85
802.0795	268.0092	16396.95	15577.4
802.2222	270.2267	16423.65	15606.25
802.3649	272.4436	16415	15589.75
802.5076	274.6601	16379	15546.7
802.6504	276.8759	16299.65	15474.25
802.7931	279.0913	16254.2	15431.6
802.9359	281.3061	16178.7	15349.6
803.0787	283.5204	16167.3	15334.85
803.2215	285.7341	16165.65	15326.9
803.3643	287.9473	16286.55	15441.05
803.5071	290.16	16499.45	15661.1
803.6499	292.3721	16761.35	15932.25
803.7928	294.5837	17153.7	16317.95
803.9357	296.7947	17462.6	16630.15
804.0786	299.0052	17669.85	16833.2
804.2215	301.2152	17540.3	16700.9
804.3644	303.4246	17224.85	16391.95
804.5074	305.6334	16695.6	15865.15
804.6503	307.8418	16231.55	15395.15
804.7933	310.0495	15801.8	14966.05
804.9363	312.2568	15467.45	14628.2
805.0793	314.4635	15172.55	14332.4
805.2223	316.6696	15041.5	14193.1
805.3653	318.8752	14934.1	14079.25
805.5084	321.0802	14937.2	14087.65
805.6514	323.2847	15042.3	14194.9
805.7945	325.4887	15083.4	14235.7
805.9376	327.692	15065	14215.55
806.0807	329.8949	14960.4	14105.3
806.2238	332.0972	14694.45	13840.2
806.367	334.2989	14438.9	13581.85
806.5101	336.5001	14154	13299.6
806.6533	338.7007	13962	13105.5
806.7965	340.9008	13835.75	12974.95
806.9397	343.1003	13711.3	12853.6
807.0829	345.2992	13646.3	12787.25
807.2261	347.4976	13588.15	12727.75
807.3693	349.6955	13525.45	12661.35
807.5126	351.8927	13581.5	12714
807.6559	354.0895	13577	12701.65
807.7991	356.2856	13579.1	12709.55
807.9424	358.4812	13564.15	12698.45
808.0857	360.6763	13617.15	12751.25
808.2291	362.8707	13582.5	12708.25
808.3724	365.0646	13629.5	12757.35
808.5158	367.258	13666.45	12792.55
808.6591	369.4508	13674.95	12798.9
808.8025	371.643	13770.3	12889.1
808.9459	373.8346	13812.65	12931.9
809.0893	376.0257	13795.55	12911.85
809.2327	378.2162	13758.7	12879.85
809.3762	380.4062	13665.3	12785.55
809.5196	382.5956	13533	12650.85
809.6631	384.7844	13402.8	12532.45
809.8066	386.9726	13305.9	12432.5
809.9501	389.1603	13262.9	12397.55
810.0936	391.3474	13255.05	12346.25
810.2371	393.5339	13201.65	12329.2
810.3806	395.7199	13141.2	12270.4
810.5241	397.9052	13144.05	12269.8
810.6677	400.09	13184.55	12312
810.8113	402.2743	13280.05	12403.95
810.9548	404.4579	13405.8	12531.55
811.0984	406.641	13579.6	12702.7
811.2421	408.8235	13774.3	12900.4
811.3857	411.0054	14038.7	13162.8
811.5293	413.1868	14434.35	13551.1
811.673	415.3675	14681.6	13794.45
811.8166	417.5477	14823.7	13936.9
811.9603	419.7273	14835.7	13945.6
812.104	421.9064	14738.45	13847.65
812.2477	424.0848	14627.55	13740.45
812.3914	426.2627	14408.55	13524
812.5351	428.4399	14171.45	13282.55
812.6788	430.6166	13797.95	12906.8
812.8226	432.7928	13471.8	12576.95
812.9663	434.9683	13124.2	12232.35
813.1101	437.1432	12914.45	12023.05
813.2539	439.3176	12761.3	11879.1
813.3977	441.4914	12615.55	11737.1
813.5415	443.6645	12604.5	11720.6
813.6853	445.8371	12555.75	11667.5
813.8291	448.0091	12490.95	11603
813.973	450.1806	12480.3	11593.85
814.1168	452.3514	12410.9	11521.55
814.2607	454.5216	12437.85	11538.9
814.4046	456.6913	12393.75	11504.65
814.5485	458.8603	12419.6	11534.25
814.6924	461.0288	12476.3	11594
814.8363	463.1967	12475.15	11591.95
814.9802	465.3639	12568.4	11682.1
815.1241	467.5306	12689.4	11801.05
815.2681	469.6967	12761.05	11875.45
815.412	471.8622	12888.55	12007.25
815.556	474.0271	13002.8	12114.2
815.7	476.1914	13062.4	12168.5
815.844	478.3551	13078	12190
815.988	480.5182	13047	12158.85
816.132	482.6807	13081.4	12199.4
816.276	484.8426	13205.7	12333.2
816.4201	487.0039	13495.6	12616.8
816.5641	489.1647	13901.65	13011.6
816.7082	491.3248	14300.3	13408.45
816.8522	493.4843	14458.75	13572.7
816.9963	495.6432	14474.85	13592.85
817.1404	497.8015	14339.6	13442.6
817.2845	499.9592	14340.45	13440.1
817.4286	502.1163	14219.6	13318.7
817.5727	504.2728	13970	13077.2
817.7168	506.4287	13649.3	12765.1
817.861	508.5839	13252.1	12367.75
818.0051	510.7386	12968.35	12075.8
818.1493	512.8927	12811	11909
818.2935	515.0461	12732.1	11835
818.4377	517.199	12688.65	11791
818.5818	519.3512	12774.55	11875.65
818.726	521.5029	12895.45	11992.25
818.8703	523.6539	13017.25	12117.5
819.0145	525.8043	13082	12179
819.1587	527.9541	13054.55	12154.6
819.303	530.1033	13027.65	12127.1
819.4472	532.2519	13003.95	12104.2
819.5915	534.3999	13049.05	12148.05
819.7357	536.5472	13271.95	12368.6
819.88	538.694	13663.35	12764.4
820.0243	540.8401	14161.8	13260.2
820.1686	542.9856	14564.8	13654.85
820.3129	545.1305	14718.75	13799.75
820.4572	547.2748	14593.6	13674.55
820.6016	549.4185	14247.2	13325
820.7459	551.5615	14001.3	13083.15
820.8902	553.704	13889.6	12974.75
821.0346	555.8458	13835.6	12922.8
821.1789	557.987	13906.2	12993.9
821.3233	560.1276	13992.6	13079.95
821.4677	562.2675	14112.3	13195.7
821.6121	564.4069	14312.8	13399
821.7565	566.5456	14450.55	13538.75
821.9009	568.6837	14442.45	13533.25
822.0453	570.8212	14106.7	13200.55
822.1897	572.958	13668	12755.45
822.3342	575.0942	13282	12375.7
822.4786	577.2299	13000.35	12097.75
822.6231	579.3648	12907.7	12020.45
822.7675	581.4992	12936.3	12054.9
822.912	583.6329	13132.1	12255.05
823.0565	585.766	13360.55	12475.15
823.201	587.8985	13504.25	12609.6
823.3454	590.0304	13521.25	12592.75
823.4899	592.1616	13438.15	12523.55
823.6345	594.2922	13315	12399.95
823.779	596.4222	13160.9	12244.05
823.9235	598.5515	12991.8	12070.1
824.068	600.6802	12815.7	11898.6
824.2126	602.8083	12644.3	11729.25
824.3571	604.9358	12611.25	11696.85
824.5017	607.0626	12593.35	11675.05
824.6462	609.1888	12575.65	11647.4
824.7908	611.3144	12607.15	11682.9
824.9354	613.4393	12573.85	11648.35
825.08	615.5636	12525.4	11600.85
825.2246	617.6873	12482.1	11555.85
825.3692	619.8103	12421.7	11498.4
825.5138	621.9327	12283.55	11361.9
825.6584	624.0544	12185.05	11265.4
825.803	626.1756	12102.35	11187.55
825.9477	628.2961	12052.75	11132.55
826.0923	630.4159	11956.2	11034.55
826.237	632.5351	11946	11023.8
826.3816	634.6537	11880.4	10958
826.5263	636.7716	11887.95	10956.75
826.6709	638.8889	11891.25	10959.85
826.8156	641.0056	11935	11003.45
826.9603	643.1216	11891.8	10958.3
827.105	645.237	11904	10977.8
827.2497	647.3518	11884.1	10964.8
827.3944	649.4659	11865.05	10947.75
827.5391	651.5793	11831.1	10913.95
827.6838	653.6922	11814.2	10891.1
827.8285	655.8043	11828.05	10907.55
827.9733	657.9159	11841.8	10923.05
828.118	660.0268	11766.05	10847.5
828.2627	662.137	11742.45	10823.4
828.4075	664.2466	11713.95	10782
828.5522	666.3556	11691	10759.5
828.697	668.4639	11659.6	10732.75
828.8418	670.5716	11676.1	10758.15
828.9865	672.6786	11728.35	10801.95
829.1313	674.785	11758.4	10827.9
829.2761	676.8907	11820.85	10895.8
829.4209	678.9958	11829.85	10907.8
829.5657	681.1002	11830.05	10905.6
829.7105	683.204	11820.45	10881.75
829.8553	685.3072	11801.3	10868.75
830.0001	687.4097	11733.85	10799.95
830.1449	689.5115	11726.55	10790.85
830.2898	691.6127	11695.5	10765.9
830.4346	693.7132	11603.3	10679.65
830.5794	695.8131	11607.6	10668.5
830.7243	697.9123	11604.8	10667.25
830.8691	700.0109	11601.1	10663.75
831.014	702.1089	11583.75	10652.3
831.1588	704.2061	11569.4	10637.4
831.3037	706.3028	11635.65	10699.35
831.4486	708.3987	11678.75	10746.35
831.5935	710.4941	11745.65	10811.9
831.7383	712.5887	11855.5	10922.8
831.8832	714.6827	12085.35	11153.15
832.0281	716.7761	12388.95	11458.95
832.173	718.8688	12712.8	11783.5
832.3179	720.9608	12881.2	11943.3
832.4628	723.0522	12974.05	12027.85
832.6077	725.1429	12847.1	11910.3
832.7527	727.233	12691.45	11756.3
832.8976	729.3224	12510.15	11573.85
833.0425	731.4112	12307.15	11370.75
833.1874	733.4993	12128.2	11192.05
833.3324	735.5867	11975	11035.7
833.4773	737.6735	11825.05	10884.8
833.6222	739.7596	11713.1	10771.5
833.7672	741.845	11633.4	10699.55
833.9122	743.9298	11586.05	10646.3
834.0571	746.014	11577.45	10641.5
834.2021	748.0974	11600	10657.55
834.347	750.1802	11595.5	10652.05
834.492	752.2624	11625.35	10682.35
834.637	754.3439	11659.5	10715.4
834.782	756.4247	11736.05	10787.15
834.9269	758.5048	11898.15	10955.85
835.0719	760.5843	12159.15	11216.3
835.2169	762.6631	12482.2	11536.85
835.3619	764.7413	12979.5	12039.65
835.5069	766.8188	13599	12657.05
835.6519	768.8956	14119.5	13178.8
835.7969	770.9718	14421.55	13480.5
835.9419	773.0473	14297.75	13355.8
836.0869	775.1221	13995.35	13050.45
836.232	777.1962	13640.75	12698.4
836.377	779.2697	13464.7	12521.05
836.522	781.3426	13501.35	12547.85
836.667	783.4147	13738.25	12790.1
836.8121	785.4862	13970.15	13026.7
836.9571	787.557	13968.45	13018.05
837.1021	789.6271	13594.45	12648.5
837.2472	791.6966	13025.15	12082.45
837.3922	793.7654	12443.05	11498.2
837.5373	795.8335	12087.35	11143.45
837.6823	797.901	11877.2	10931.05
837.8274	799.9678	11765.35	10816.3
837.9724	802.0339	11755.5	10809.9
838.1175	804.0993	11786.65	10827.55
838.2626	806.1641	11758.55	10811.3
838.4076	808.2282	11691.2	10746.5
838.5527	810.2916	11595.55	10650.05
838.6978	812.3544	11519.95	10577.55
838.8428	814.4164	11414.35	10470.7
838.9879	816.4778	11478.3	10530.7
839.133	818.5385	11456.2	10506.05
839.2781	820.5986	11579.85	10633.9
839.4232	822.658	11721.85	10768.8
839.5682	824.7166	11884.95	10940.6
839.7133	826.7747	12222.65	11272.3
839.8584	828.832	12523.4	11572.8
840.0035	830.8886	12736.85	11786.3
840.1486	832.9446	12879.2	11925.25
840.2937	834.9999	12868.6	11921.05
840.4388	837.0545	12799.2	11847.15
840.5839	839.1085	12685.4	11731.6
840.729	841.1618	12536	11582.5
840.8741	843.2143	12464.6	11514.2
841.0192	845.2662	12347.55	11399.8
841.1643	847.3175	12241.2	11291.25
841.3095	849.368	12130.25	11180.65
841.4546	851.4179	11995.5	11044.65
841.5997	853.467	11908.95	10960.2
841.7448	855.5155	11836.9	10885.9
841.8899	857.5633	11742.65	10793.75
842.0351	859.6105	11622.85	10672.15
842.1802	861.6569	11554.35	10602.25
842.3253	863.7027	11485.15	10532.75
842.4704	865.7478	11471.1	10517.85
842.6156	867.7922	11473.8	10521
842.7607	869.8359	11502.85	10546.5
842.9058	871.8789	11576.2	10622.4
843.0509	873.9212	11754.55	10770.45
843.1961	875.9629	11867.85	10912.8
843.3412	878.0039	12047.7	11091.9
843.4863	880.0441	12138.5	11187.85
843.6315	882.0837	12134.1	11182.3
843.7766	884.1226	12103.7	11153.15
843.9218	886.1609	12038.3	11085.35
844.0669	888.1984	12015.9	11065.35
844.212	890.2352	12034.4	11081.5
844.3572	892.2714	11989.15	11028.75
844.5023	894.3069	11981.25	11030.15
844.6475	896.3416	11887.5	10934.2
844.7926	898.3757	11827.45	10871.05
844.9377	900.4091	11778.95	10817.2
845.0829	902.4418	11794.6	10833.35
845.228	904.4739	11843.4	10884.7
845.3732	906.5052	11850.95	10893.35
845.5183	908.5358	11759.1	10805.75
845.6635	910.5658	11632.1	10674.7
845.8086	912.595	11429.45	10472.65
845.9538	914.6236	11273.25	10319.4
846.0989	916.6515	11175.85	10220.5
846.2441	918.6786	11176.15	10218.3
846.3892	920.7051	11200.9	10242.25
846.5344	922.7309	11297	10342.85
846.6795	924.756	11339.2	10384.15
846.8246	926.7804	11473.4	10519.45
846.9698	928.8041	11424.45	10466.4
847.1149	930.8272	11480.1	10527.15
847.2601	932.8495	11436.85	10475.8
847.4052	934.8711	11398.55	10439.6
847.5504	936.892	11299.9	10344.9
847.6955	938.9123	11179.45	10221.4
847.8407	940.9318	11120	10164.6
847.9858	942.9506	11050.2	10093.3
848.131	944.9688	10946.8	9989.3
848.2761	946.9862	10898.75	9942.55
848.4213	949.003	10808.3	9853.25
848.5664	951.019	10769.85	9814.75
848.7115	953.0344	10780.45	9823.1
848.8567	955.0491	10789.95	9832.2
849.0018	957.063	10856.1	9898.8
849.147	959.0763	10976.75	10021.3
849.2921	961.0888	11001.8	10049.5
849.4373	963.1007	11076.95	10128.5
849.5824	965.1119	11112.9	10166.45
849.7275	967.1223	11137.35	10200.15
849.8727	969.1321	11129.7	10191.5
850.0178	971.1412	11172.4	10227.45
850.1629	973.1495	11169.15	10218.65
850.3081	975.1572	11238.6	10236.2
850.4532	977.1641	11233	10271.9
850.5983	979.1704	11258.9	10300.25
850.7435	981.1759	11226.55	10264.95
850.8886	983.1808	11294	10332.2
851.0337	985.1849	11344.6	10377.7
851.1788	987.1884	11469.4	10511.65
851.324	989.1911	11619.1	10661.15
851.4691	991.1932	11706.8	10752.45
851.6142	993.1945	11759.1	10801.9
851.7593	995.1951	11731.7	10776.7
851.9045	997.1951	11716.75	10753.1
852.0496	999.1943	11652.85	10698.55
852.1947	1001.1928	11608.2	10649.2
852.3398	1003.1906	11603.75	10647
852.4849	1005.1877	11704.1	10747.15
852.63	1007.1841	11724.65	10768.4
852.7751	1009.1798	11675.05	10723.1
852.9202	1011.1748	11540.7	10586.5
853.0653	1013.1691	11359	10399.1
853.2104	1015.1627	11141.65	10186.15
853.3555	1017.1556	10941.8	9988.4
853.5006	1019.1477	10843.8	9889.3
853.6457	1021.1392	10762.5	9818.7
853.7908	1023.1299	10736.9	9794.05
853.9359	1025.12	10754	9816.1
854.081	1027.1093	10780.65	9856.05
854.2261	1029.0979	10893.2	9972.1
854.3712	1031.0859	10955.45	10026.2
854.5163	1033.0731	11008.85	10070.15
854.6613	1035.0596	10943.25	9996.65
854.8064	1037.0454	10806.7	9859.9
854.9515	1039.0304	10709.3	9760.25
855.0965	1041.0148	10611.9	9663.2
855.2416	1042.9985	10521.35	9569
855.3867	1044.9814	10458.15	9505.85
855.5317	1046.9636	10403.9	9452.3
855.6768	1048.9452	10387.75	9438.4
855.8219	1050.926	10460.3	9507.8
855.9669	1052.9061	10448	9497.85
856.112	1054.8855	10448.05	9493.95
856.257	1056.8642	10468.85	9515.55
856.4021	1058.8421	10553.2	9595.75
856.5471	1060.8194	10587.65	9634.65
856.6921	1062.7959	10630.55	9676.2
856.8372	1064.7717	10655.9	9699.3
856.9822	1066.7469	10697.1	9743.1
857.1272	1068.7213	10717	9762.7
857.2723	1070.695	10732.2	9781.75
857.4173	1072.6679	10685.5	9731.75
857.5623	1074.6402	10694.65	9742.6
857.7073	1076.6117	10656.1	9698.9
857.8523	1078.5826	10619.4	9662.2
857.9973	1080.5527	10577.7	9621.25
858.1423	1082.5221	10615.75	9659.45
858.2873	1084.4908	10745.8	9795.95
858.4323	1086.4587	10915.85	9960.5
858.5773	1088.426	11024.25	10070.55
858.7223	1090.3925	11009	10051.4
858.8673	1092.3584	11008.35	10056.5
859.0123	1094.3235	10885	9933.9
859.1573	1096.2879	10864	9909.6
859.3022	1098.2515	10926.5	9974.4
859.4472	1100.2145	11002.65	10051.45
859.5922	1102.1767	11136.95	10183.55
859.7371	1104.1382	11327.15	10372.35
859.8821	1106.099	11552.75	10598.2
860.027	1108.0591	11769.3	10818
860.172	1110.0185	11909.25	10953.55
860.3169	1111.9771	11983	11032.65
860.4619	1113.9351	11775	10825.15
860.6068	1115.8923	11540.5	10588.9
860.7517	1117.8488	11308.8	10354.55
860.8967	1119.8045	11061.1	10111.75
861.0416	1121.7596	10925.1	9973.4
861.1865	1123.7139	10865.35	9916
861.3314	1125.6675	10844.05	9893.55
861.4763	1127.6204	10894.8	9946.25
861.6212	1129.5726	10898	9940
861.7661	1131.524	10842.45	9893.9
861.911	1133.4748	10775.55	9824.9
862.0559	1135.4248	10710	9757.35
862.2008	1137.3741	10651.05	9698.55
862.3457	1139.3226	10585.4	9634.5
862.4905	1141.2705	10555.05	9603.95
862.6354	1143.2176	10461.65	9503.85
862.7803	1145.164	10460.6	9507.4
862.9251	1147.1097	10443.85	9494.65
863.07	1149.0546	10405.3	9451.5
863.2148	1150.9989	10305.45	9354.1
863.3597	1152.9424	10189.5	9240.9
863.5045	1154.8852	10027.75	9078.6
863.6493	1156.8272	9965	9011.6
863.7942	1158.7686	9941.4	8983.05
863.939	1160.7092	9922.65	8970.55
864.0838	1162.6491	9940.8	8985
864.2286	1164.5883	10029.35	9076
864.3734	1166.5267	10141.35	9189.8
864.5182	1168.4644	10272.65	9320.8
864.663	1170.4014	10443.05	9491.8
864.8078	1172.3377	10699.35	9752.95
864.9526	1174.2732	10936.95	9986.65
865.0974	1176.2081	11242.15	10295.85
865.2421	1178.1421	11590.2	10633.4
865.3869	1180.0755	11921.4	10973.2
865.5317	1182.0082	12106.9	11163.3
865.6764	1183.9401	12177.4	11228.15
865.8212	1185.8713	12030	11086.5
865.9659	1187.8017	11753.9	10818.5
866.1106	1189.7315	11477.6	10552.9
