Software Version:	3.9.2.0
Unit SN:	10000200
Spectrometer SN:	6960
Date:	3/8/2024 12:26:38 PM
Data Line Index:	25
Spectral Points:	2048
Integration time (ms):	125
Averages:	20
Delay (ms):	30000
Sequence Number:	1
Processing:	dark subtract
Laser Power (mW):	300
Laser Current (mA):	822
Laser Diode Temp (C):	25
Laser Case Temp (C):	26
System Temp (C):	25.9
Spectrometer Temp (C):	23.7
CCD Temp (C):	0.015
Secondary Temp (C):	20.007
Heatsink Temp (C):	21.007
CCDPCB Temp (C):	36.085
SecondaryPCB Temp (C):	29.426

Wavelength	RamanShift	Raw Counts	Dark Subtracted
787.061	30.1047	435.75	28.2
787.2016	32.3739	436.1	29.35
787.3422	34.6426	438.65	30.5
787.4828	36.9109	444.1	33.6
787.6235	39.1787	448.4	33.1
787.7642	41.4461	457.85	37.8
787.9049	43.7131	464.35	40.85
788.0456	45.9796	469.25	44.85
788.1863	48.2456	478.05	49.55
788.3271	50.5112	482.15	49.6
788.4679	52.7764	490.15	56.5
788.6087	55.0411	498.5	58.05
788.7496	57.3054	506.3	60.4
788.8904	59.5692	515.05	67.35
789.0313	61.8326	520.1	70.55
789.1722	64.0955	528.8	77.7
789.3132	66.3579	540.8	81.35
789.4541	68.6199	556.65	94.15
789.5951	70.8815	580.55	112.2
789.7361	73.1426	633.35	160
789.8771	75.4032	770.25	295.5
790.0181	77.6634	1095.7	617.5
790.1592	79.9231	1888.9	1403.85
790.3003	82.1824	3543.35	3040.2
790.4414	84.4412	6408.65	5878.85
790.5825	86.6995	10293.05	9728.25
790.7237	88.9574	14007.1	13415.8
790.8648	91.2148	16545.3	15928.8
791.006	93.4717	17673.3	17050.25
791.1472	95.7282	17803.35	17171.1
791.2885	97.9842	17529.85	16893.15
791.4297	100.2398	17006.1	16365.65
791.571	102.4949	16470.4	15826.4
791.7123	104.7495	15788.8	15142.05
791.8536	107.0036	15174.25	14530.7
791.9949	109.2573	14624.55	13979.5
792.1363	111.5105	14149.7	13499.8
792.2777	113.7632	13732.35	13082.25
792.4191	116.0154	13379.05	12717.95
792.5605	118.2672	13113.3	12460.4
792.7019	120.5185	12873.1	12217.2
792.8434	122.7693	12655.15	11997.25
792.9849	125.0197	12499.35	11835.95
793.1264	127.2696	12327.15	11661
793.2679	129.519	12184.9	11512.25
793.4094	131.7679	12012.4	11335.8
793.551	134.0163	11829.15	11151.5
793.6926	136.2642	11582.8	10903.35
793.8342	138.5117	11331.8	10646.15
793.9758	140.7587	11091.2	10404.6
794.1175	143.0052	10853.6	10163.6
794.2591	145.2512	10585.35	9897.65
794.4008	147.4967	10399.9	9712.05
794.5425	149.7417	10247.5	9557.35
794.6842	151.9863	10105.25	9409.45
794.826	154.2304	10051.7	9350.55
794.9677	156.4739	9941.1	9236.95
795.1095	158.717	9861.55	9154
795.2513	160.9596	9749.2	9041.2
795.3931	163.2017	9580.7	8867.3
795.535	165.4433	9398.15	8686.5
795.6768	167.6844	9211.45	8495.2
795.8187	169.925	9004.95	8287.15
795.9606	172.1651	8785.45	8069.65
796.1025	174.4047	8640.9	7919.5
796.2445	176.6439	8513.8	7791.65
796.3864	178.8825	8356.4	7631
796.5284	181.1206	8293.1	7559.85
796.6704	183.3582	8207.8	7468.15
796.8124	185.5954	8146.45	7409.8
796.9544	187.832	8107.55	7365.55
797.0965	190.0681	8102.45	7353.85
797.2386	192.3037	8095.65	7348.4
797.3806	194.5388	8098.8	7342.1
797.5228	196.7734	8098.95	7342.4
797.6649	199.0075	8163.6	7408.65
797.807	201.2411	8250.2	7496.5
797.9492	203.4742	8277.5	7523
798.0914	205.7068	8358.15	7599.25
798.2336	207.9389	8426.15	7658.95
798.3758	210.1704	8538.5	7777.9
798.518	212.4015	8604.3	7850.7
798.6603	214.632	8702.4	7958.05
798.8025	216.862	8752.05	8014.5
798.9448	219.0915	8820.7	8075.45
799.0871	221.3205	8851.35	8107.7
799.2294	223.549	8887.5	8147.2
799.3718	225.777	8910.6	8170.3
799.5141	228.0044	8937.5	8190.95
799.6565	230.2314	8997.45	8252
799.7989	232.4578	9019.9	8268.9
799.9413	234.6837	9071.35	8313.75
800.0837	236.909	9110.85	8347.25
800.2262	239.1339	9108.2	8318.65
800.3687	241.3582	9065.35	8294.85
800.5111	243.582	9042.95	8241.2
800.6536	245.8053	9025.6	8239.1
800.7961	248.0281	9021.4	8239.7
800.9387	250.2503	9024.95	8238.3
801.0812	252.472	9068.65	8274.2
801.2238	254.6932	9198.6	8410.55
801.3664	256.9139	9266.4	8475.15
801.509	259.134	9394.95	8596.9
801.6516	261.3536	9575.8	8779.75
801.7942	263.5727	9800.4	9003.8
801.9369	265.7912	9982.9	9187.6
802.0795	268.0092	10209.95	9417.1
802.2222	270.2267	10358.65	9562.8
802.3649	272.4436	10473.65	9677.05
802.5076	274.6601	10485.4	9680.35
802.6504	276.8759	10450.95	9650.75
802.7931	279.0913	10399.15	9597.4
802.9359	281.3061	10293.7	9487.1
803.0787	283.5204	10260.8	9452.05
803.2215	285.7341	10248.25	9434.1
803.3643	287.9473	10271.45	9446.9
803.5071	290.16	10279.4	9465.8
803.6499	292.3721	10292.85	9484.6
803.7928	294.5837	10373.65	9566.8
803.9357	296.7947	10471.6	9662.45
804.0786	299.0052	10602.55	9793.2
804.2215	301.2152	10598.2	9784.55
804.3644	303.4246	10533.1	9722.35
804.5074	305.6334	10341.15	9533.7
804.6503	307.8418	10121.95	9306.8
804.7933	310.0495	9841.75	9026.6
804.9363	312.2568	9590.55	8774.75
805.0793	314.4635	9332.1	8515.35
805.2223	316.6696	9119.25	8301
805.3653	318.8752	8952	8123.85
805.5084	321.0802	8883.6	8062.7
805.6514	323.2847	8875.65	8052.8
805.7945	325.4887	8896.6	8073.45
805.9376	327.692	8887.9	8058.25
806.0807	329.8949	8880.3	8053.2
806.2238	332.0972	8778	7949.65
806.367	334.2989	8645.6	7817.45
806.5101	336.5001	8523.45	7689.55
806.6533	338.7007	8387.75	7555.65
806.7965	340.9008	8303.6	7471.4
806.9397	343.1003	8198.15	7364.3
807.0829	345.2992	8109.65	7273.8
807.2261	347.4976	8041.55	7203.85
807.3693	349.6955	7981	7136.9
807.5126	351.8927	7969.5	7125.9
807.6559	354.0895	7906.9	7055.45
807.7991	356.2856	7884.85	7038.35
807.9424	358.4812	7844.95	7001.35
808.0857	360.6763	7849.45	7005.4
808.2291	362.8707	7807.05	6958.85
808.3724	365.0646	7836.1	6985.6
808.5158	367.258	7892.05	7041.5
808.6591	369.4508	7915.25	7060.2
808.8025	371.643	8013.75	7157.65
808.9459	373.8346	8056.65	7203.15
809.0893	376.0257	8145.1	7284.5
809.2327	378.2162	8167.95	7311.95
809.3762	380.4062	8182.6	7326.25
809.5196	382.5956	8128.05	7274.9
809.6631	384.7844	8050.4	7203.65
809.8066	386.9726	7965.1	7113.85
809.9501	389.1603	7914	7064.95
810.0936	391.3474	7880.95	6986.95
810.2371	393.5339	7842.05	6990.15
810.3806	395.7199	7839.3	6990.75
810.5241	397.9052	7876.55	7025.45
810.6677	400.09	7929.05	7077.05
810.8113	402.2743	8030.1	7181.1
810.9548	404.4579	8136.3	7280.55
811.0984	406.641	8275.75	7420.65
811.2421	408.8235	8394.4	7539.35
811.3857	411.0054	8461.8	7601.45
811.5293	413.1868	8559.15	7696.2
811.673	415.3675	8601.4	7736.6
811.8166	417.5477	8553.95	7690.45
811.9603	419.7273	8494.65	7625.15
812.104	421.9064	8427.45	7555.15
812.2477	424.0848	8384.55	7518.55
812.3914	426.2627	8316.1	7451.8
812.5351	428.4399	8173.25	7301.85
812.6788	430.6166	7993.05	7120.15
812.8226	432.7928	7766.75	6897.1
812.9663	434.9683	7593.55	6720.95
813.1101	437.1432	7461.5	6590.1
813.2539	439.3176	7355.55	6489.45
813.3977	441.4914	7275.55	6412.9
813.5415	443.6645	7268.25	6403.9
813.6853	445.8371	7247.4	6376.85
813.8291	448.0091	7201.25	6332.65
813.973	450.1806	7207.05	6338.1
814.1168	452.3514	7196.95	6328.75
814.2607	454.5216	7237.25	6358.25
814.4046	456.6913	7221.35	6348.65
814.5485	458.8603	7250.25	6379.95
814.6924	461.0288	7278	6415.35
814.8363	463.1967	7255.4	6394.15
814.9802	465.3639	7266.1	6394.05
815.1241	467.5306	7250.65	6380.7
815.2681	469.6967	7252.4	6386.45
815.412	471.8622	7245.35	6381.45
815.556	474.0271	7263.1	6397.65
815.7	476.1914	7255.85	6380
815.844	478.3551	7287.55	6415.6
815.988	480.5182	7316.75	6443.95
816.132	482.6807	7384.05	6520.95
816.276	484.8426	7497.65	6636.6
816.4201	487.0039	7696.7	6834.9
816.5641	489.1647	7938.65	7064.95
816.7082	491.3248	8138.7	7265.9
816.8522	493.4843	8175.9	7307.25
816.9963	495.6432	8140	7270.25
817.1404	497.8015	8062.4	7183.8
817.2845	499.9592	8001.85	7120.35
817.4286	502.1163	7847.75	6961.15
817.5727	504.2728	7654.05	6776.3
817.7168	506.4287	7488.85	6618.45
817.861	508.5839	7327.55	6456.7
818.0051	510.7386	7209.4	6336.9
818.1493	512.8927	7168.85	6286.5
818.2935	515.0461	7165	6287.2
818.4377	517.199	7235.55	6351.8
818.5818	519.3512	7358.15	6472.2
818.726	521.5029	7539.55	6651.6
818.8703	523.6539	7702.1	6819.85
819.0145	525.8043	7804	6916.75
819.1587	527.9541	7753.3	6863.25
819.303	530.1033	7594.6	6706.8
819.4472	532.2519	7468.75	6585.15
819.5915	534.3999	7415.1	6527.3
819.7357	536.5472	7427.45	6545.3
819.88	538.694	7519.7	6635.2
820.0243	540.8401	7650.6	6760.05
820.1686	542.9856	7751	6856.6
820.3129	545.1305	7770.85	6870.35
820.4572	547.2748	7717	6811.75
820.6016	549.4185	7639.55	6737.5
820.7459	551.5615	7591	6694.1
820.8902	553.704	7607.5	6704.75
821.0346	555.8458	7674.9	6778.9
821.1789	557.987	7802.35	6908.95
821.3233	560.1276	7966.95	7069.65
821.4677	562.2675	8253.4	7357.1
821.6121	564.4069	8615.9	7722
821.7565	566.5456	8926.45	8032.6
821.9009	568.6837	9049.55	8153.75
822.0453	570.8212	8789.75	7898.2
822.1897	572.958	8346.3	7454.8
822.3342	575.0942	7930.55	7041.35
822.4786	577.2299	7601.8	6717.05
822.6231	579.3648	7453.8	6573.75
822.7675	581.4992	7378.4	6509.65
822.912	583.6329	7453.9	6584.9
823.0565	585.766	7541.65	6668.7
823.201	587.8985	7630.8	6749.05
823.3454	590.0304	7696.3	6783.9
823.4899	592.1616	7679.85	6779.3
823.6345	594.2922	7602.65	6705.9
823.779	596.4222	7490.35	6592.25
823.9235	598.5515	7377.6	6477.3
824.068	600.6802	7256.75	6358.05
824.2126	602.8083	7162.25	6264.35
824.3571	604.9358	7141	6238.4
824.5017	607.0626	7161.25	6256.4
824.6462	609.1888	7255.5	6347.55
824.7908	611.3144	7383.8	6477.35
824.9354	613.4393	7487.15	6583.65
825.08	615.5636	7570.05	6664.25
825.2246	617.6873	7577.7	6670.7
825.3692	619.8103	7557.7	6651.5
825.5138	621.9327	7411.6	6508.15
825.6584	624.0544	7267.1	6366.3
825.803	626.1756	7123.25	6221.15
825.9477	628.2961	7027.7	6122.75
826.0923	630.4159	6964.5	6057.75
826.237	632.5351	6976.05	6072.15
826.3816	634.6537	6962.85	6055.95
826.5263	636.7716	6970.75	6057.2
826.6709	638.8889	6993.85	6080.7
826.8156	641.0056	6993	6078.75
826.9603	643.1216	6982.95	6071.75
827.105	645.237	6981.2	6071.3
827.2497	647.3518	6881.45	5975
827.3944	649.4659	6849.6	5948.85
827.5391	651.5793	6812.05	5911.75
827.6838	653.6922	6792.1	5887.55
827.8285	655.8043	6766.3	5863.15
827.9733	657.9159	6758.35	5853.7
828.118	660.0268	6763.65	5853.95
828.2627	662.137	6764.6	5856.7
828.4075	664.2466	6786.6	5871.25
828.5522	666.3556	6783.6	5872.85
828.697	668.4639	6758	5845.9
828.8418	670.5716	6741	5835.65
828.9865	672.6786	6695.85	5785.85
829.1313	674.785	6637.55	5724.35
829.2761	676.8907	6605	5689.8
829.4209	678.9958	6611.25	5704
829.5657	681.1002	6594.75	5686.1
829.7105	683.204	6600.3	5682.2
829.8553	685.3072	6584.35	5664.75
830.0001	687.4097	6584.6	5670.95
830.1449	689.5115	6573.5	5656.5
830.2898	691.6127	6561.2	5650.4
830.4346	693.7132	6564	5654.05
830.5794	695.8131	6616.45	5685.55
830.7243	697.9123	6617.35	5701.2
830.8691	700.0109	6639.5	5720.7
831.014	702.1089	6664.4	5746.1
831.1588	704.2061	6714.85	5798.65
831.3037	706.3028	6758.4	5839.35
831.4486	708.3987	6780.65	5864.4
831.5935	710.4941	6792	5874.6
831.7383	712.5887	6795.35	5879.5
831.8832	714.6827	6808.35	5891.7
832.0281	716.7761	6875.1	5960.5
832.173	718.8688	6950.05	6033.3
832.3179	720.9608	7040.1	6114.9
832.4628	723.0522	7150.7	6226.45
832.6077	725.1429	7201.95	6282.4
832.7527	727.233	7293.7	6374.45
832.8976	729.3224	7365.3	6446.85
833.0425	731.4112	7355.5	6437.1
833.1874	733.4993	7263.3	6346.8
833.3324	735.5867	7120.15	6196.95
833.4773	737.6735	6968.65	6047.9
833.6222	739.7596	6845.35	5919.9
833.7672	741.845	6743.8	5824.05
833.9122	743.9298	6701.55	5776.8
834.0571	746.014	6673.1	5752.4
834.2021	748.0974	6664.8	5734.95
834.347	750.1802	6664.8	5739.05
834.492	752.2624	6663.6	5738.95
834.637	754.3439	6708.45	5781
834.782	756.4247	6791.5	5859
834.9269	758.5048	6874.5	5948.7
835.0719	760.5843	7040.35	6113.85
835.2169	762.6631	7305.85	6375.6
835.3619	764.7413	7655.65	6730.1
835.5069	766.8188	8110.65	7183.5
835.6519	768.8956	8482.65	7555.6
835.7969	770.9718	8756.8	7830.05
835.9419	773.0473	8747.65	7819.5
836.0869	775.1221	8572.25	7647.55
836.232	777.1962	8429.35	7503.55
836.377	779.2697	8387.4	7460.95
836.522	781.3426	8442.9	7506.6
836.667	783.4147	8492.9	7568.55
836.8121	785.4862	8507.9	7581.4
836.9571	787.557	8357.3	7427.35
837.1021	789.6271	8052.85	7121.3
837.2472	791.6966	7663.25	6734.6
837.3922	793.7654	7259.1	6331.55
837.5373	795.8335	6959.75	6031.1
837.6823	797.901	6790.75	5860.2
837.8274	799.9678	6700.5	5769.5
837.9724	802.0339	6623.7	5693.8
838.1175	804.0993	6617.45	5678.4
838.2626	806.1641	6555.7	5625
838.4076	808.2282	6500.75	5572.7
838.5527	810.2916	6465	5532.2
838.6978	812.3544	6416.6	5492.05
838.8428	814.4164	6407.25	5480
838.9879	816.4778	6424.35	5492.95
839.133	818.5385	6445.75	5512.9
839.2781	820.5986	6558.9	5625.1
839.4232	822.658	6712.4	5779.95
839.5682	824.7166	6917.95	5987.2
839.7133	826.7747	7279.45	6348.2
839.8584	828.832	7656.05	6723.6
840.0035	830.8886	7922.45	6987.25
840.1486	832.9446	8045.4	7110.25
840.2937	834.9999	7944.7	7016.1
840.4388	837.0545	7743.45	6807.7
840.5839	839.1085	7468.1	6534.3
840.729	841.1618	7239.2	6300.95
840.8741	843.2143	7061.55	6129.25
841.0192	845.2662	6921.6	5991.5
841.1643	847.3175	6832.45	5901.5
841.3095	849.368	6757.65	5823.35
841.4546	851.4179	6701.8	5765.75
841.5997	853.467	6636.55	5702.7
841.7448	855.5155	6599	5663.3
841.8899	857.5633	6554.8	5621.65
842.0351	859.6105	6509.5	5573.45
842.1802	861.6569	6474.25	5540.95
842.3253	863.7027	6431.7	5493.4
842.4704	865.7478	6409	5473.85
842.6156	867.7922	6383	5448.35
842.7607	869.8359	6355.2	5419.7
842.9058	871.8789	6339.2	5399.55
843.0509	873.9212	6405.35	5435.95
843.1961	875.9629	6433.95	5498.45
843.3412	878.0039	6488.5	5550.65
843.4863	880.0441	6530.85	5596.9
843.6315	882.0837	6581.5	5647.85
843.7766	884.1226	6617.35	5681.45
843.9218	886.1609	6668.25	5731.9
844.0669	888.1984	6740.3	5804.4
844.212	890.2352	6864.6	5928.05
844.3572	892.2714	6901.3	5960.1
844.5023	894.3069	6869.7	5929.25
844.6475	896.3416	6720.5	5785.5
844.7926	898.3757	6641.85	5705.8
844.9377	900.4091	6577.15	5636.5
845.0829	902.4418	6529.3	5587.5
845.228	904.4739	6577.3	5636.1
845.3732	906.5052	6610.85	5673
845.5183	908.5358	6600.6	5661.05
845.6635	910.5658	6497.4	5557.4
845.8086	912.595	6383.6	5445.2
845.9538	914.6236	6236	5297.9
846.0989	916.6515	6142.15	5204.1
846.2441	918.6786	6099.35	5157.35
846.3892	920.7051	6104.3	5163.9
846.5344	922.7309	6093.25	5153.4
846.6795	924.756	6104.45	5161.45
846.8246	926.7804	6150.25	5211.6
846.9698	928.8041	6150.4	5211.85
847.1149	930.8272	6199.55	5259.2
847.2601	932.8495	6190.45	5251.35
847.4052	934.8711	6191.45	5247.85
847.5504	936.892	6176.3	5233.45
847.6955	938.9123	6188	5247.05
847.8407	940.9318	6237.55	5297.05
847.9858	942.9506	6240.35	5298.4
848.131	944.9688	6202.5	5262.2
848.2761	946.9862	6132.65	5192.15
848.4213	949.003	6032.25	5094.15
848.5664	951.019	5980.4	5040.3
848.7115	953.0344	5922	4983.5
848.8567	955.0491	5934.35	4994.1
849.0018	957.063	5940.25	5002.2
849.147	959.0763	5947.6	5008.15
849.2921	961.0888	5991.35	5050.9
849.4373	963.1007	6016.85	5078.25
849.5824	965.1119	6021	5092.85
849.7275	967.1223	6005.7	5080.15
849.8727	969.1321	5993.45	5065.95
850.0178	971.1412	5961	5030.4
850.1629	973.1495	5960.25	5027.15
850.3081	975.1572	6003.4	5034.2
850.4532	977.1641	5986.65	5045.15
850.5983	979.1704	5971.5	5031.75
850.7435	981.1759	5963	5017.1
850.8886	983.1808	5945.55	5005.05
851.0337	985.1849	5959.2	5009.9
851.1788	987.1884	5984.7	5043.35
851.324	989.1911	6023.3	5088.6
851.4691	991.1932	6061.1	5122.95
851.6142	993.1945	6064.4	5126.75
851.7593	995.1951	6038.45	5100.6
851.9045	997.1951	6023.6	5079
852.0496	999.1943	5994.9	5056.15
852.1947	1001.1928	6018.65	5077.75
852.3398	1003.1906	6049.4	5108.6
852.4849	1005.1877	6136.9	5198.65
852.63	1007.1841	6194.3	5256
852.7751	1009.1798	6213.3	5277.65
852.9202	1011.1748	6187.95	5253.2
853.0653	1013.1691	6109	5169.45
853.2104	1015.1627	5978.75	5043.25
853.3555	1017.1556	5864.9	4928.2
853.5006	1019.1477	5779.05	4843.45
853.6457	1021.1392	5690.05	4755.5
853.7908	1023.1299	5685.2	4754.85
853.9359	1025.12	5708.6	4782.1
854.081	1027.1093	5713.75	4797.25
854.2261	1029.0979	5799.45	4886.6
854.3712	1031.0859	5838.85	4921.3
854.5163	1033.0731	5874.25	4946.15
854.6613	1035.0596	5865.25	4935.55
854.8064	1037.0454	5810.6	4875.9
854.9515	1039.0304	5762.2	4825.2
855.0965	1041.0148	5677.9	4740.2
855.2416	1042.9985	5619.85	4682.4
855.3867	1044.9814	5598.5	4663.25
855.5317	1046.9636	5564.2	4625.8
855.6768	1048.9452	5537.95	4601.2
855.8219	1050.926	5582.65	4649.75
855.9669	1052.9061	5617.75	4681.8
856.112	1054.8855	5644.25	4709.4
856.257	1056.8642	5654.1	4716.55
856.4021	1058.8421	5652.05	4704.7
856.5471	1060.8194	5688.5	4746.45
856.6921	1062.7959	5723.9	4783.15
856.8372	1064.7717	5775.1	4835.95
856.9822	1066.7469	5807.4	4871.55
857.1272	1068.7213	5876.3	4937.9
857.2723	1070.695	5942.25	5004.3
857.4173	1072.6679	5980.5	5042.45
857.5623	1074.6402	5978.75	5040.9
857.7073	1076.6117	5962.05	5016.3
857.8523	1078.5826	5894.1	4953.55
857.9973	1080.5527	5801.3	4862.25
858.1423	1082.5221	5705.3	4765.1
858.2873	1084.4908	5655.6	4718.6
858.4323	1086.4587	5654.9	4716.9
858.5773	1088.426	5677.2	4736.5
858.7223	1090.3925	5672.05	4729.85
858.8673	1092.3584	5701	4762.65
859.0123	1094.3235	5719.75	4787.1
859.1573	1096.2879	5801.25	4863.95
859.3022	1098.2515	5877.6	4940.75
859.4472	1100.2145	6007.05	5068.1
859.5922	1102.1767	6132.95	5196.4
859.7371	1104.1382	6276.95	5339.15
859.8821	1106.099	6442.65	5502.85
860.027	1108.0591	6579.6	5643
860.172	1110.0185	6686.9	5751.3
860.3169	1111.9771	6733.5	5797.9
860.4619	1113.9351	6690.2	5753.7
860.6068	1115.8923	6635.15	5698.1
860.7517	1117.8488	6573	5636.7
860.8967	1119.8045	6466.55	5531.05
861.0416	1121.7596	6392.7	5456.2
861.1865	1123.7139	6287.2	5351.7
861.3314	1125.6675	6238.4	5303.4
861.4763	1127.6204	6265.85	5330.15
861.6212	1129.5726	6213.55	5275.5
861.7661	1131.524	6172.7	5234.5
861.911	1133.4748	6070.7	5133.7
862.0559	1135.4248	5936	4999.25
862.2008	1137.3741	5827.8	4892.35
862.3457	1139.3226	5738.5	4798.6
862.4905	1141.2705	5730.9	4792.85
862.6354	1143.2176	5673.05	4732.1
862.7803	1145.164	5638.75	4700.35
862.9251	1147.1097	5603.5	4666.25
863.07	1149.0546	5525.3	4590.65
863.2148	1150.9989	5447.8	4512.45
863.3597	1152.9424	5400.9	4462.55
863.5045	1154.8852	5351.75	4415.9
863.6493	1156.8272	5353.4	4419.65
863.7942	1158.7686	5363.25	4419.75
863.939	1160.7092	5370.7	4434.65
864.0838	1162.6491	5416.4	4475.9
864.2286	1164.5883	5478.9	4546.7
864.3734	1166.5267	5537.55	4600.8
864.5182	1168.4644	5647.15	4709.45
864.663	1170.4014	5749.15	4810.1
864.8078	1172.3377	5921.3	4987.7
864.9526	1174.2732	6120.75	5186
865.0974	1176.2081	6411.9	5479.6
865.2421	1178.1421	6760.1	5822.75
865.3869	1180.0755	7129.6	6195.95
865.5317	1182.0082	7381.3	6447.2
865.6764	1183.9401	7493.2	6560.75
865.8212	1185.8713	7383.35	6454.9
865.9659	1187.8017	7165.1	6244.7
866.1106	1189.7315	6887.85	5968.6
866.2554	1191.6605	6596.05	5682
866.4001	1193.5888	6421.8	5500.3
866.5448	1195.5163	6314	5386.9
866.6895	1197.4432	6270.5	5339.7
866.8342	1199.3693	6216.65	5284.8
866.9789	1201.2947	6185.35	5252.5
867.1236	1203.2193	6155.75	5221.05
867.2683	1205.1432	6142.9	5212.6
867.413	1207.0664	6132.6	5199.3
867.5576	1208.9889	6126.4	5188
867.7023	1210.9106	6086.1	5153.15
867.847	1212.8316	6083.75	5154.05
867.9916	1214.7519	6123.8	5180.65
868.1363	1216.6715	6135.2	5202.7
868.2809	1218.5903	6202.05	5271
868.4255	1220.5084	6259.3	5327.65
868.5701	1222.4257	6348.25	5416.85
868.7148	1224.3424	6368.2	5439.75
868.8594	1226.2583	6440.2	5501.75
869.004	1228.1735	6567.45	5635.65
869.1486	1230.0879	6670.1	5737.65
869.2932	1232.0016	6807.25	5875
869.4377	1233.9146	6920.55	5987.25
869.5823	1235.8269	6964.5	6032.5
869.7269	1237.7384	6950.4	6018.35
