Software Version:	3.9.2.0
Unit SN:	10000200
Spectrometer SN:	6960
Date:	3/8/2024 11:49:16 AM
Data Line Index:	25
Spectral Points:	2048
Integration time (ms):	125
Averages:	20
Delay (ms):	30000
Sequence Number:	1
Processing:	dark subtract
Laser Power (mW):	300
Laser Current (mA):	822
Laser Diode Temp (C):	25.1
Laser Case Temp (C):	25.4
System Temp (C):	25.4
Spectrometer Temp (C):	23.2
CCD Temp (C):	0.008
Secondary Temp (C):	20.01
Heatsink Temp (C):	19.933
CCDPCB Temp (C):	35.518
SecondaryPCB Temp (C):	27.848

Wavelength	RamanShift	Raw Counts	Dark Subtracted
787.061	30.1047	415.9	7.65
787.2016	32.3739	413.3	5.7
787.3422	34.6426	413.7	5.7
787.4828	36.9109	417.1	6.75
787.6235	39.1787	420.8	7.8
787.7642	41.4461	426.2	7.25
787.9049	43.7131	429.65	8.9
788.0456	45.9796	432.2	8.3
788.1863	48.2456	436.2	7.75
788.3271	50.5112	440.4	9.25
788.4679	52.7764	446.3	12.1
788.6087	55.0411	452.15	13.1
788.7496	57.3054	457.5	11.95
788.8904	59.5692	458.7	12.55
789.0313	61.8326	461.6	12.65
789.1722	64.0955	465.15	13.25
789.3132	66.3579	472.75	16.4
789.4541	68.6199	483.2	22.15
789.5951	70.8815	491.6	25.85
789.7361	73.1426	506.65	37.05
789.8771	75.4032	542.4	69.4
790.0181	77.6634	615.25	139.6
790.1592	79.9231	789.65	308.1
790.3003	82.1824	1135.75	645.65
790.4414	84.4412	1719.45	1216.65
790.5825	86.6995	2453.6	1933.55
790.7237	88.9574	3138.25	2601.1
790.8648	91.2148	3614.7	3065.95
791.006	93.4717	3809.9	3255.4
791.1472	95.7282	3828.85	3271.15
791.2885	97.9842	3805.8	3245.75
791.4297	100.2398	3740.25	3177.2
791.571	102.4949	3683.85	3119.15
791.7123	104.7495	3656.9	3088.85
791.8536	107.0036	3607.2	3037.95
791.9949	109.2573	3522.25	2955.05
792.1363	111.5105	3406.9	2835.1
792.2777	113.7632	3314.05	2742.75
792.4191	116.0154	3221.4	2637.35
792.5605	118.2672	3097.1	2521.3
792.7019	120.5185	2976.45	2393.85
792.8434	122.7693	2886.95	2303.65
792.9849	125.0197	2799.25	2209.1
793.1264	127.2696	2727	2136.6
793.2679	129.519	2685.8	2093.45
793.4094	131.7679	2662.65	2067.45
793.551	134.0163	2640	2039.75
793.6926	136.2642	2635.8	2035.7
793.8342	138.5117	2608.45	1995.7
793.9758	140.7587	2578.4	1973.1
794.1175	143.0052	2531	1923.75
794.2591	145.2512	2478.45	1868.2
794.4008	147.4967	2416.95	1806.4
794.5425	149.7417	2381.45	1767.7
794.6842	151.9863	2360.85	1745
794.826	154.2304	2342.95	1720.4
794.9677	156.4739	2341.9	1718.85
795.1095	158.717	2353.95	1727.7
795.2513	160.9596	2380.8	1747.75
795.3931	163.2017	2390.1	1757
795.535	165.4433	2402.15	1768.65
795.6768	167.6844	2390.15	1751.95
795.8187	169.925	2361.5	1721.4
795.9606	172.1651	2307.7	1662.5
796.1025	174.4047	2248.95	1599.75
796.2445	176.6439	2207	1558.7
796.3864	178.8825	2194.5	1541.25
796.5284	181.1206	2182	1526.3
796.6704	183.3582	2165.75	1503.7
796.8124	185.5954	2166.1	1499.15
796.9544	187.832	2160.05	1493.95
797.0965	190.0681	2161.3	1489.45
797.2386	192.3037	2170.75	1499.65
797.3806	194.5388	2173.8	1498.55
797.5228	196.7734	2193.45	1516.9
797.6649	199.0075	2202.05	1520.95
797.807	201.2411	2231.8	1554.15
797.9492	203.4742	2250.65	1570.1
798.0914	205.7068	2276.05	1592.75
798.2336	207.9389	2300.7	1612.9
798.3758	210.1704	2311.75	1630.2
798.518	212.4015	2304.6	1633.4
798.6603	214.632	2309.85	1643.65
798.8025	216.862	2317	1656.2
798.9448	219.0915	2323.15	1656.95
799.0871	221.3205	2332.1	1662.7
799.2294	223.549	2325.5	1663.15
799.3718	225.777	2331.55	1669.7
799.5141	228.0044	2332.9	1661.25
799.6565	230.2314	2321.25	1651.35
799.7989	232.4578	2304.65	1627.15
799.9413	234.6837	2300.85	1615.25
800.0837	236.909	2287.05	1599.75
800.2262	239.1339	2292.75	1579.05
800.3687	241.3582	2275.45	1579.25
800.5111	243.582	2287.7	1555.2
800.6536	245.8053	2306.45	1590.8
800.7961	248.0281	2308.85	1600.8
800.9387	250.2503	2307.25	1597.4
801.0812	252.472	2317.2	1602.15
801.2238	254.6932	2321.9	1610.7
801.3664	256.9139	2334	1618.2
801.509	259.134	2347.9	1630.05
801.6516	261.3536	2372.7	1654.7
801.7942	263.5727	2432.9	1715
801.9369	265.7912	2473.65	1756.85
802.0795	268.0092	2527.75	1808.15
802.2222	270.2267	2590.1	1866.7
802.3649	272.4436	2632.85	1912.35
802.5076	274.6601	2671.35	1938.85
802.6504	276.8759	2689.25	1959.95
802.7931	279.0913	2715.4	1983.5
802.9359	281.3061	2727.45	1995.25
803.0787	283.5204	2756.15	2024.75
803.2215	285.7341	2774.5	2038.75
803.3643	287.9473	2798.75	2060.95
803.5071	290.16	2798.9	2060.4
803.6499	292.3721	2759.35	2024.45
803.7928	294.5837	2715.25	1979.65
803.9357	296.7947	2708.2	1973.4
804.0786	299.0052	2692.2	1958.35
804.2215	301.2152	2675.5	1934.6
804.3644	303.4246	2658.75	1921.55
804.5074	305.6334	2623.35	1885.7
804.6503	307.8418	2615.6	1873.8
804.7933	310.0495	2594.1	1851.15
804.9363	312.2568	2545.55	1806
805.0793	314.4635	2494.9	1746.8
805.2223	316.6696	2448.5	1701
805.3653	318.8752	2401.7	1646.85
805.5084	321.0802	2377	1629.2
805.6514	323.2847	2377.45	1626.75
805.7945	325.4887	2379.1	1628.85
805.9376	327.692	2394.85	1643.5
806.0807	329.8949	2442.6	1689.15
806.2238	332.0972	2484.1	1727.75
806.367	334.2989	2499.45	1744.9
806.5101	336.5001	2494.6	1736.55
806.6533	338.7007	2461.8	1701.3
806.7965	340.9008	2423.9	1664.95
806.9397	343.1003	2368.3	1604.15
807.0829	345.2992	2315.5	1552.3
807.2261	347.4976	2275.15	1509.8
807.3693	349.6955	2247.2	1477.9
807.5126	351.8927	2225.4	1454.8
807.6559	354.0895	2218.7	1437.4
807.7991	356.2856	2205.4	1431.45
807.9424	358.4812	2188.8	1416.95
808.0857	360.6763	2185.15	1410.85
808.2291	362.8707	2193.5	1417.2
808.3724	365.0646	2203.85	1426.45
808.5158	367.258	2211.25	1432.05
808.6591	369.4508	2229.4	1448.35
808.8025	371.643	2261.55	1477.75
808.9459	373.8346	2279.85	1493.25
809.0893	376.0257	2327.75	1539.4
809.2327	378.2162	2326.15	1541.4
809.3762	380.4062	2342	1556.2
809.5196	382.5956	2313.45	1529.7
809.6631	384.7844	2285.75	1504
809.8066	386.9726	2246.15	1462.85
809.9501	389.1603	2204.1	1424.85
810.0936	391.3474	2223.05	1407.8
810.2371	393.5339	2197.1	1416.15
810.3806	395.7199	2200.95	1422.55
810.5241	397.9052	2231.3	1451.7
810.6677	400.09	2272.55	1492.6
810.8113	402.2743	2320.5	1539.15
810.9548	404.4579	2365.55	1583.2
811.0984	406.641	2407.3	1622.1
811.2421	408.8235	2449.2	1662.05
811.3857	411.0054	2503.45	1715.15
811.5293	413.1868	2564.85	1772.9
811.673	415.3675	2608.4	1813.05
811.8166	417.5477	2604.35	1809
811.9603	419.7273	2545.7	1748.05
812.104	421.9064	2468.2	1663.25
812.2477	424.0848	2413.35	1615.55
812.3914	426.2627	2357.3	1556.7
812.5351	428.4399	2287.6	1488.55
812.6788	430.6166	2225.25	1420.85
812.8226	432.7928	2170.05	1364.9
812.9663	434.9683	2142.25	1338.2
813.1101	437.1432	2125.35	1319.8
813.2539	439.3176	2090.8	1286.15
813.3977	441.4914	2078.85	1274.35
813.5415	443.6645	2080.4	1273.75
813.6853	445.8371	2073.6	1269.1
813.8291	448.0091	2081.85	1274.3
813.973	450.1806	2078.2	1273.2
814.1168	452.3514	2066.65	1257.4
814.2607	454.5216	2083.4	1264.95
814.4046	456.6913	2074.45	1261.3
814.5485	458.8603	2065.2	1255.6
814.6924	461.0288	2076.25	1266.55
814.8363	463.1967	2063.45	1257.75
814.9802	465.3639	2078.45	1269.3
815.1241	467.5306	2071.4	1260
815.2681	469.6967	2070.6	1261.55
815.412	471.8622	2052.3	1241.9
815.556	474.0271	2048.05	1237.3
815.7	476.1914	2061.7	1246.6
815.844	478.3551	2045.65	1233.65
815.988	480.5182	2047.9	1235.15
816.132	482.6807	2054.75	1243.65
816.276	484.8426	2061.7	1254.05
816.4201	487.0039	2121.85	1310.45
816.5641	489.1647	2174.6	1359.65
816.7082	491.3248	2227.1	1411.15
816.8522	493.4843	2237.95	1422.15
816.9963	495.6432	2229.25	1414.3
817.1404	497.8015	2187.4	1367.6
817.2845	499.9592	2155.65	1336.65
817.4286	502.1163	2100.85	1277.85
817.5727	504.2728	2057.55	1236.95
817.7168	506.4287	2026.8	1209.45
817.861	508.5839	2009.7	1194.7
818.0051	510.7386	2001.4	1183.45
818.1493	512.8927	2018.4	1189.2
818.2935	515.0461	2023.7	1201.75
818.4377	517.199	2048.2	1225.95
818.5818	519.3512	2088.25	1263.95
818.726	521.5029	2161.35	1330
818.8703	523.6539	2206.75	1380.8
819.0145	525.8043	2217.7	1390.3
819.1587	527.9541	2162.65	1332.35
819.303	530.1033	2096.4	1266.7
819.4472	532.2519	2048.3	1221.3
819.5915	534.3999	2027.3	1196.75
819.7357	536.5472	2015.45	1187
819.88	538.694	2018.4	1191.4
820.0243	540.8401	2042	1208.95
820.1686	542.9856	2048.2	1212.8
820.3129	545.1305	2073.5	1233.45
820.4572	547.2748	2084.85	1248.9
820.6016	549.4185	2092.55	1253.85
820.7459	551.5615	2103.65	1263.9
820.8902	553.704	2117.2	1282.9
821.0346	555.8458	2133.65	1297.7
821.1789	557.987	2155.4	1321.6
821.3233	560.1276	2188.2	1353.35
821.4677	562.2675	2237.6	1401.45
821.6121	564.4069	2303.05	1469.15
821.7565	566.5456	2340.1	1507.05
821.9009	568.6837	2330.55	1497.65
822.0453	570.8212	2258.35	1424.5
822.1897	572.958	2183.6	1348.4
822.3342	575.0942	2126.65	1291.95
822.4786	577.2299	2077.2	1244.75
822.6231	579.3648	2057.3	1226.55
822.7675	581.4992	2039.25	1211.35
822.912	583.6329	2052.15	1225.05
823.0565	585.766	2085.2	1255.4
823.201	587.8985	2130.55	1296.85
823.3454	590.0304	2185.95	1337.3
823.4899	592.1616	2210.5	1368.75
823.6345	594.2922	2196.5	1354.9
823.779	596.4222	2154.45	1312
823.9235	598.5515	2101.5	1258.4
824.068	600.6802	2045.6	1199.75
824.2126	602.8083	2016	1172.9
824.3571	604.9358	1993.5	1151.05
824.5017	607.0626	1986.15	1142.75
824.6462	609.1888	2006.45	1158.05
824.7908	611.3144	2038.35	1191.35
824.9354	613.4393	2071.6	1225.8
825.08	615.5636	2124.8	1275.95
825.2246	617.6873	2169.9	1327.15
825.3692	619.8103	2196.05	1347.15
825.5138	621.9327	2190.1	1341.75
825.6584	624.0544	2156.5	1310.2
825.803	626.1756	2106.9	1260.9
825.9477	628.2961	2058.25	1209.45
826.0923	630.4159	2031.55	1182.4
826.237	632.5351	2018.7	1171
826.3816	634.6537	2017.25	1167
826.5263	636.7716	2009.3	1154.1
826.6709	638.8889	1993.65	1140.1
826.8156	641.0056	2010.4	1155.15
826.9603	643.1216	2014.5	1164.4
827.105	645.237	2016.4	1161.9
827.2497	647.3518	1986.8	1137
827.3944	649.4659	1965.15	1118.3
827.5391	651.5793	1946.6	1097.65
827.6838	653.6922	1939.65	1090.3
827.8285	655.8043	1932.15	1083.55
827.9733	657.9159	1922	1070.65
828.118	660.0268	1914.35	1061.35
828.2627	662.137	1915.25	1060.6
828.4075	664.2466	1915.1	1056.85
828.5522	666.3556	1908.75	1051.6
828.697	668.4639	1902.6	1045.5
828.8418	670.5716	1896.05	1043.8
828.9865	672.6786	1892.55	1036.9
829.1313	674.785	1893.6	1035.95
829.2761	676.8907	1881.45	1026.65
829.4209	678.9958	1875.25	1019.85
829.5657	681.1002	1882.6	1024
829.7105	683.204	1878.9	1018.1
829.8553	685.3072	1879.6	1021.4
830.0001	687.4097	1879.55	1021.8
830.1449	689.5115	1883.3	1023.55
830.2898	691.6127	1868.85	1012.85
830.4346	693.7132	1874.3	1016.95
830.5794	695.8131	1893.1	1009.25
830.7243	697.9123	1886.05	1025.6
830.8691	700.0109	1886.95	1026.1
831.014	702.1089	1896.25	1035
831.1588	704.2061	1918.95	1058.85
831.3037	706.3028	1935.2	1070.6
831.4486	708.3987	1954.4	1094.45
831.5935	710.4941	1968.05	1106.35
831.7383	712.5887	1979.05	1117.1
831.8832	714.6827	1969.85	1105.65
832.0281	716.7761	1959.9	1093.75
832.173	718.8688	1962	1100.1
832.3179	720.9608	1968.9	1100.3
832.4628	723.0522	1984.9	1116.05
832.6077	725.1429	2008.6	1143.8
832.7527	727.233	2048.35	1183.6
832.8976	729.3224	2111.8	1247.95
833.0425	731.4112	2170.7	1304.25
833.1874	733.4993	2173.7	1308.1
833.3324	735.5867	2116.3	1252.8
833.4773	737.6735	2034.8	1166.95
833.6222	739.7596	1981.45	1113.2
833.7672	741.845	1954.05	1087.35
833.9122	743.9298	1950.75	1080.8
834.0571	746.014	1945.95	1078.15
834.2021	748.0974	1971.9	1102.7
834.347	750.1802	1965.5	1098.1
834.492	752.2624	1959.85	1090.85
834.637	754.3439	1955.55	1085.65
834.782	756.4247	1949.2	1072.4
834.9269	758.5048	1943.65	1075.7
835.0719	760.5843	1970.95	1099.95
835.2169	762.6631	2015.1	1146.1
835.3619	764.7413	2064.05	1195.3
835.5069	766.8188	2159.3	1286.9
835.6519	768.8956	2236.2	1363.8
835.7969	770.9718	2283.25	1414.5
835.9419	773.0473	2279.35	1410.95
836.0869	775.1221	2246.75	1377.6
836.232	777.1962	2239.5	1369.1
836.377	779.2697	2307.65	1432.95
836.522	781.3426	2411.85	1519.9
836.667	783.4147	2455.6	1581.9
836.8121	785.4862	2428.1	1556.4
836.9571	787.557	2341.7	1467.8
837.1021	789.6271	2222.75	1348.8
837.2472	791.6966	2095.35	1221.55
837.3922	793.7654	2001.75	1129.2
837.5373	795.8335	1938.4	1065.9
837.6823	797.901	1922.9	1050.55
837.8274	799.9678	1906.8	1031.45
837.9724	802.0339	1899.2	1027
838.1175	804.0993	1914.7	1031.05
838.2626	806.1641	1897.85	1022.85
838.4076	808.2282	1879.35	1007.7
838.5527	810.2916	1855.05	975.8
838.6978	812.3544	1850.5	977.9
838.8428	814.4164	1844.55	971.7
838.9879	816.4778	1848.7	970.6
839.133	818.5385	1852.35	979.2
839.2781	820.5986	1896.9	1018.45
839.4232	822.658	1958.25	1081.9
839.5682	824.7166	2011.05	1136.25
839.7133	826.7747	2107.2	1229.8
839.8584	828.832	2194.5	1319.35
840.0035	830.8886	2256.15	1376.75
840.1486	832.9446	2262.9	1383.95
840.2937	834.9999	2232.7	1361.15
840.4388	837.0545	2168.75	1287.75
840.5839	839.1085	2069.55	1192
840.729	841.1618	1997.1	1117.3
840.8741	843.2143	1950.75	1072.9
841.0192	845.2662	1914.3	1037.3
841.1643	847.3175	1887.15	1007.7
841.3095	849.368	1876.25	998.35
841.4546	851.4179	1879.55	1000.3
841.5997	853.467	1873.4	995
841.7448	855.5155	1876.3	1001.4
841.8899	857.5633	1885.95	1007.85
842.0351	859.6105	1873.7	993.95
842.1802	861.6569	1854.5	976.4
842.3253	863.7027	1861.2	979.2
842.4704	865.7478	1839.5	957.05
842.6156	867.7922	1830.8	952.3
842.7607	869.8359	1838.7	958.6
842.9058	871.8789	1822.15	940.9
843.0509	873.9212	1863.15	952.65
843.1961	875.9629	1837.05	958.6
843.3412	878.0039	1846.7	962.45
843.4863	880.0441	1864.85	988.65
843.6315	882.0837	1876.45	993.6
843.7766	884.1226	1902.05	1016.9
843.9218	886.1609	1950.25	1072.25
844.0669	888.1984	1988	1106.35
844.212	890.2352	2034.35	1153.6
844.3572	892.2714	2043.7	1158.45
844.5023	894.3069	2016.85	1135.35
844.6475	896.3416	1967.55	1085.5
844.7926	898.3757	1925.75	1043.45
844.9377	900.4091	1899.05	1017.9
845.0829	902.4418	1902.15	1013.75
845.228	904.4739	1918.5	1032.65
845.3732	906.5052	1940.1	1055.6
845.5183	908.5358	1916.9	1032.75
845.6635	910.5658	1892.55	1007.05
845.8086	912.595	1866.9	983.5
845.9538	914.6236	1824.1	940.3
846.0989	916.6515	1800.3	915.4
846.2441	918.6786	1781.25	894.3
846.3892	920.7051	1775.7	889.3
846.5344	922.7309	1776.95	892.35
846.6795	924.756	1784.25	896.1
846.8246	926.7804	1785.5	899.3
846.9698	928.8041	1802.6	918.5
847.1149	930.8272	1812.5	925.1
847.2601	932.8495	1821.05	934.3
847.4052	934.8711	1824.9	937.55
847.5504	936.892	1839.05	953.55
847.6955	938.9123	1863.35	975.95
847.8407	940.9318	1879.8	993.4
847.9858	942.9506	1896.55	1009.7
848.131	944.9688	1885.6	999.3
848.2761	946.9862	1870.25	985.8
848.4213	949.003	1828.25	944.65
848.5664	951.019	1802.6	916.2
848.7115	953.0344	1787.4	900.3
848.8567	955.0491	1771.5	884.85
849.0018	957.063	1768.1	882.5
849.147	959.0763	1768.35	882.9
849.2921	961.0888	1764.75	876.95
849.4373	963.1007	1766.9	883.1
849.5824	965.1119	1760.05	877.05
849.7275	967.1223	1747.65	867.15
849.8727	969.1321	1744.5	863.5
850.0178	971.1412	1743.6	860.2
850.1629	973.1495	1735.6	851.6
850.3081	975.1572	1770.8	851.35
850.4532	977.1641	1739.8	850.6
850.5983	979.1704	1742.35	856.7
850.7435	981.1759	1735.25	848.1
850.8886	983.1808	1723.8	836.25
851.0337	985.1849	1733	834.2
851.1788	987.1884	1727.8	837.15
851.324	989.1911	1731.1	842.5
851.4691	991.1932	1746.15	857.7
851.6142	993.1945	1730.55	843.35
851.7593	995.1951	1733.5	845.75
851.9045	997.1951	1740.15	848.1
852.0496	999.1943	1730.6	843.05
852.1947	1001.1928	1731.8	842.3
852.3398	1003.1906	1750.2	861.8
852.4849	1005.1877	1766.25	875.15
852.63	1007.1841	1779.25	888.95
852.7751	1009.1798	1795.6	906.75
852.9202	1011.1748	1790.55	901.75
853.0653	1013.1691	1762.7	872.3
853.2104	1015.1627	1730.1	843.45
853.3555	1017.1556	1696.95	807.95
853.5006	1019.1477	1688.95	799
853.6457	1021.1392	1673.75	787.35
853.7908	1023.1299	1662.95	777.2
853.9359	1025.12	1665.5	780.4
854.081	1027.1093	1670.5	790.8
854.2261	1029.0979	1687.8	809.95
854.3712	1031.0859	1699.4	820.2
854.5163	1033.0731	1728.8	841.9
854.6613	1035.0596	1719.3	836.35
854.8064	1037.0454	1709.8	822.15
854.9515	1039.0304	1698.3	807.5
855.0965	1041.0148	1683	794.35
855.2416	1042.9985	1670.15	778.3
855.3867	1044.9814	1647.15	759.1
855.5317	1046.9636	1651.9	760.2
855.6768	1048.9452	1658.25	771.5
855.8219	1050.926	1674.55	785.9
855.9669	1052.9061	1686.7	798.2
856.112	1054.8855	1688.15	796.6
856.257	1056.8642	1691.35	805.2
856.4021	1058.8421	1695.5	805.85
856.5471	1060.8194	1685.85	797.55
856.6921	1062.7959	1696.85	805.45
856.8372	1064.7717	1692.4	802
856.9822	1066.7469	1692.8	801.2
857.1272	1068.7213	1697.1	804.4
857.2723	1070.695	1709.95	822.3
857.4173	1072.6679	1740.45	850.9
857.5623	1074.6402	1755.55	865.3
857.7073	1076.6117	1758.85	863.8
857.8523	1078.5826	1728.2	838.55
857.9973	1080.5527	1693.8	798.55
858.1423	1082.5221	1668.1	776.6
858.2873	1084.4908	1642.25	752.6
858.4323	1086.4587	1629.1	738.15
858.5773	1088.426	1618.5	726.7
858.7223	1090.3925	1618.95	724.1
858.8673	1092.3584	1623.5	733.7
859.0123	1094.3235	1631.85	744.7
859.1573	1096.2879	1663.9	772.4
859.3022	1098.2515	1683.45	792.2
859.4472	1100.2145	1710.85	821.25
859.5922	1102.1767	1744.2	852.15
859.7371	1104.1382	1779.35	887.2
859.8821	1106.099	1846	954.5
860.027	1108.0591	1880.65	989.95
860.172	1110.0185	1916.2	1022.65
860.3169	1111.9771	1956.3	1064.75
860.4619	1113.9351	2005.9	1114.7
860.6068	1115.8923	2073.25	1180.6
860.7517	1117.8488	2079.25	1185.35
860.8967	1119.8045	2028	1137.2
861.0416	1121.7596	1938.9	1047.2
861.1865	1123.7139	1840.9	949.85
861.3314	1125.6675	1795.35	904.7
861.4763	1127.6204	1796.35	905.4
861.6212	1129.5726	1807.5	916.9
861.7661	1131.524	1805.35	914.15
861.911	1133.4748	1764.15	871.2
862.0559	1135.4248	1711.6	819.1
862.2008	1137.3741	1663.55	771.45
862.3457	1139.3226	1652.45	758.15
862.4905	1141.2705	1629.75	738.7
862.6354	1143.2176	1648.9	750.85
862.7803	1145.164	1657.55	765.4
862.9251	1147.1097	1653.4	763.3
863.07	1149.0546	1633.25	741.35
863.2148	1150.9989	1604.7	708.05
863.3597	1152.9424	1584.6	691.35
863.5045	1154.8852	1564.25	671.15
863.6493	1156.8272	1568.8	677.6
863.7942	1158.7686	1570.95	672
863.939	1160.7092	1570.85	677.8
864.0838	1162.6491	1577.25	683.35
864.2286	1164.5883	1588.05	695.95
864.3734	1166.5267	1604.75	709.4
864.5182	1168.4644	1625.95	733.05
864.663	1170.4014	1673	777.5
864.8078	1172.3377	1696.35	803.8
864.9526	1174.2732	1753.05	864.75
865.0974	1176.2081	1841.8	950.8
865.2421	1178.1421	1971.15	1073.85
865.3869	1180.0755	2083.05	1191.5
865.5317	1182.0082	2123.8	1229.8
865.6764	1183.9401	2100.4	1208.5
865.8212	1185.8713	1999.95	1110.6
865.9659	1187.8017	1877.95	990.15
866.1106	1189.7315	1779.6	894.65
866.2554	1191.6605	1716.5	801.35
866.4001	1193.5888	1661	774.05
866.5448	1195.5163	1642.45	754.75
866.6895	1197.4432	1623.05	731.7
866.8342	1199.3693	1599.3	709.5
866.9789	1201.2947	1592.45	698.2
867.1236	1203.2193	1579.75	688.3
867.2683	1205.1432	1574.35	680.95
867.413	1207.0664	1581.1	688.85
867.5576	1208.9889	1575.45	678.85
867.7023	1210.9106	1581	686.7
867.847	1212.8316	1574.1	684.65
867.9916	1214.7519	1615.35	714.1
868.1363	1216.6715	1611.6	719.6
868.2809	1218.5903	1629.65	737
868.4255	1220.5084	1635.8	744.25
868.5701	1222.4257	1652.35	762.85
868.7148	1224.3424	1662.3	773
868.8594	1226.2583	1682.7	788.05
869.004	1228.1735	1707.9	813.75
869.1486	1230.0879	1744.1	850.75
869.2932	1232.0016	1791.15	899.9
869.4377	1233.9146	1838.35	945.75
869.5823	1235.8269	1848	955.5
869.7269	1237.7384	1848.3	955.6
869.8715	1239.6492	1860.25	968.45
870.016	1241.5592	1875.2	981.4
870.1606	1243.4686	1924.9	1032.9
870.3051	1245.3772	1988.75	1096.5
870.4496	1247.285	2090.95	1200.3
870.5941	1249.1922	2167	1273.45
870.7387	1251.0986	2237.55	1345.15
