Software Version:	3.9.2.0
Unit SN:	10000200
Spectrometer SN:	6960
Date:	3/8/2024 1:04:26 PM
Data Line Index:	25
Spectral Points:	2048
Integration time (ms):	125
Averages:	20
Delay (ms):	30000
Sequence Number:	1
Processing:	dark subtract
Laser Power (mW):	305
Laser Current (mA):	822
Laser Diode Temp (C):	25
Laser Case Temp (C):	26.1
System Temp (C):	26.1
Spectrometer Temp (C):	24
CCD Temp (C):	0.009
Secondary Temp (C):	20.011
Heatsink Temp (C):	20.953
CCDPCB Temp (C):	36.051
SecondaryPCB Temp (C):	30.527

Wavelength	RamanShift	Raw Counts	Dark Subtracted
787.061	30.1047	455.9	48.55
787.2016	32.3739	456.6	51.7
787.3422	34.6426	462.15	54.55
787.4828	36.9109	467.7	58.35
787.6235	39.1787	479	67.55
787.7642	41.4461	488.15	68.5
787.9049	43.7131	494.6	73.85
788.0456	45.9796	503.9	80.6
788.1863	48.2456	513	85.55
788.3271	50.5112	524.15	90.1
788.4679	52.7764	530.85	94.4
788.6087	55.0411	538.6	97.1
788.7496	57.3054	552.9	107.9
788.8904	59.5692	560.25	113.05
789.0313	61.8326	572.4	121.95
789.1722	64.0955	582.45	127.75
789.3132	66.3579	599.1	140.35
789.4541	68.6199	617.1	154.05
789.5951	70.8815	657.35	189.75
789.7361	73.1426	734.6	263.2
789.8771	75.4032	949.35	475.45
790.0181	77.6634	1455.9	975.35
790.1592	79.9231	2654.5	2163.7
790.3003	82.1824	5231	4722.15
790.4414	84.4412	9871.65	9328.35
790.5825	86.6995	16250.85	15669.1
790.7237	88.9574	22410.2	21787.95
790.8648	91.2148	26655.15	26005
791.006	93.4717	28564.95	27903.4
791.1472	95.7282	28852.7	28179.4
791.2885	97.9842	28619.3	27947.3
791.4297	100.2398	27930.6	27254.9
791.571	102.4949	27185.9	26501.9
791.7123	104.7495	26319.8	25638.4
791.8536	107.0036	25465.7	24781.55
791.9949	109.2573	24667.25	23984.4
792.1363	111.5105	23886.25	23199.35
792.2777	113.7632	23180.7	22491.05
792.4191	116.0154	22603.7	21903.2
792.5605	118.2672	22234.75	21538.2
792.7019	120.5185	21771.9	21077.8
792.8434	122.7693	21425.4	20724.45
792.9849	125.0197	21134.55	20434.15
793.1264	127.2696	20867.05	20161.65
793.2679	129.519	20728.8	20019.45
793.4094	131.7679	20452.8	19741.05
793.551	134.0163	20204.55	19492.45
793.6926	136.2642	19928.65	19211.2
793.8342	138.5117	19619.9	18891.85
793.9758	140.7587	19286.25	18567.45
794.1175	143.0052	19001.75	18273.25
794.2591	145.2512	18693.85	17968.85
794.4008	147.4967	18445.6	17723
794.5425	149.7417	18217.05	17487.7
794.6842	151.9863	18056	17326.6
794.826	154.2304	17985.55	17249.9
794.9677	156.4739	17826.25	17084.9
795.1095	158.717	17765.65	17019.8
795.2513	160.9596	17588	16838.9
795.3931	163.2017	17323.7	16575.05
795.535	165.4433	17033.25	16280.25
795.6768	167.6844	16717.5	15966.45
795.8187	169.925	16408.85	15656.4
795.9606	172.1651	16039.9	15279.35
796.1025	174.4047	15736.25	14979.95
796.2445	176.6439	15495.95	14735.5
796.3864	178.8825	15294.35	14529.8
796.5284	181.1206	15156.65	14383.95
796.6704	183.3582	15007.8	14230.65
796.8124	185.5954	14919.8	14141.3
796.9544	187.832	14837.6	14058.8
797.0965	190.0681	14768.6	13985.75
797.2386	192.3037	14806.65	14019.45
797.3806	194.5388	14790.45	14001.2
797.5228	196.7734	14837.85	14047.25
797.6649	199.0075	14923.95	14128.85
797.807	201.2411	15052.8	14254.1
797.9492	203.4742	15149.5	14350.5
798.0914	205.7068	15305.75	14505.15
798.2336	207.9389	15404.3	14601
798.3758	210.1704	15544.4	14745.35
798.518	212.4015	15668.3	14880.05
798.6603	214.632	15789.95	15009.8
798.8025	216.862	15985.9	15206.75
798.9448	219.0915	16099.15	15316.5
799.0871	221.3205	16274.95	15489.75
799.2294	223.549	16400.15	15624.7
799.3718	225.777	16617.2	15838.35
799.5141	228.0044	16847.2	16064.45
799.6565	230.2314	17126.9	16341.85
799.7989	232.4578	17380.15	16591.25
799.9413	234.6837	17631.85	16836.75
800.0837	236.909	17765	16966.45
800.2262	239.1339	17773.8	16943.05
800.3687	241.3582	17622.8	16812.25
800.5111	243.582	17426.65	16587.6
800.6536	245.8053	17227.25	16399.25
800.7961	248.0281	17062.9	16244.6
800.9387	250.2503	16960.7	16135.8
801.0812	252.472	16908.2	16081.15
801.2238	254.6932	17002.8	16178.8
801.3664	256.9139	17050.15	16222.85
801.509	259.134	17130.1	16300.45
801.6516	261.3536	17301.7	16469.45
801.7942	263.5727	17506.9	16676.4
801.9369	265.7912	17651.8	16819.8
802.0795	268.0092	17829	16995.15
802.2222	270.2267	17944.95	17116.6
802.3649	272.4436	17982.5	17152.35
802.5076	274.6601	17970.2	17127.4
802.6504	276.8759	17890	17052.35
802.7931	279.0913	17803.35	16962.8
802.9359	281.3061	17716.15	16876.45
803.0787	283.5204	17697.4	16849.9
803.2215	285.7341	17703.35	16857.7
803.3643	287.9473	17793.8	16943.2
803.5071	290.16	17895.75	17044.15
803.6499	292.3721	18103.65	17260.2
803.7928	294.5837	18417.7	17569.6
803.9357	296.7947	18678.05	17829.35
804.0786	299.0052	18893.9	18052.35
804.2215	301.2152	18783.6	17934.35
804.3644	303.4246	18530.45	17691.3
804.5074	305.6334	18125.2	17283.45
804.6503	307.8418	17655.35	16804.8
804.7933	310.0495	17219	16369.95
804.9363	312.2568	16879.25	16022.45
805.0793	314.4635	16542.4	15689.15
805.2223	316.6696	16377.35	15520.05
805.3653	318.8752	16230.75	15366.1
805.5084	321.0802	16211.95	15355.4
805.6514	323.2847	16244.75	15386.9
805.7945	325.4887	16304.35	15441.35
805.9376	327.692	16275.6	15410.15
806.0807	329.8949	16198.9	15333.7
806.2238	332.0972	15952.85	15088.05
806.367	334.2989	15736.35	14867.05
806.5101	336.5001	15485.6	14621.55
806.6533	338.7007	15304	14434
806.7965	340.9008	15161.25	14291.55
806.9397	343.1003	15041.5	14169.95
807.0829	345.2992	14956.95	14088.15
807.2261	347.4976	14883.05	14008.75
807.3693	349.6955	14834.55	13958.05
807.5126	351.8927	14852.1	13980.5
807.6559	354.0895	14815.8	13929.75
807.7991	356.2856	14853.1	13973.2
807.9424	358.4812	14801.7	13922.6
808.0857	360.6763	14830.2	13949.75
808.2291	362.8707	14796.25	13912
808.3724	365.0646	14866.15	13987.05
808.5158	367.258	14878.2	13993.45
808.6591	369.4508	14931.3	14041.7
808.8025	371.643	15075	14186.7
808.9459	373.8346	15106.9	14218.05
809.0893	376.0257	15155.5	14262.9
809.2327	378.2162	15105.8	14218.3
809.3762	380.4062	15067.75	14180.2
809.5196	382.5956	14924.05	14039.3
809.6631	384.7844	14840.85	13962.15
809.8066	386.9726	14712.6	13834.85
809.9501	389.1603	14659.65	13782.8
810.0936	391.3474	14629.7	13722
810.2371	393.5339	14578.5	13691
810.3806	395.7199	14540.45	13657.05
810.5241	397.9052	14588.95	13707.75
810.6677	400.09	14633.15	13751.3
810.8113	402.2743	14751.2	13869
810.9548	404.4579	14899.75	14015.05
811.0984	406.641	15090.1	14202.2
811.2421	408.8235	15295.75	14408.05
811.3857	411.0054	15504.2	14616.65
811.5293	413.1868	15794.8	14900.2
811.673	415.3675	15986.4	15088.65
811.8166	417.5477	16076	15175.55
811.9603	419.7273	16055.1	15160.85
812.104	421.9064	16013.2	15106.35
812.2477	424.0848	15891.15	14997.8
812.3914	426.2627	15729.05	14832.6
812.5351	428.4399	15468.95	14569
812.6788	430.6166	15145.25	14246.35
812.8226	432.7928	14787.6	13885
812.9663	434.9683	14484.85	13585.65
813.1101	437.1432	14253.45	13353.3
813.2539	439.3176	14073	13182.65
813.3977	441.4914	13992.5	13105.95
813.5415	443.6645	13968.5	13076.85
813.6853	445.8371	13894.5	12997.05
813.8291	448.0091	13855.75	12955.65
813.973	450.1806	13824.75	12928.65
814.1168	452.3514	13810.7	12918.5
814.2607	454.5216	13836	12931.65
814.4046	456.6913	13811.55	12915.9
814.5485	458.8603	13843.85	12948.3
814.6924	461.0288	13894.6	12999.1
814.8363	463.1967	13921.85	13033.95
814.9802	465.3639	13939.8	13048.65
815.1241	467.5306	14013.4	13117.55
815.2681	469.6967	14065.25	13171.65
815.412	471.8622	14166.1	13275.8
815.556	474.0271	14264.2	13371.15
815.7	476.1914	14305.25	13407.25
815.844	478.3551	14317.4	13416.8
815.988	480.5182	14352.3	13457.1
816.132	482.6807	14364.8	13477.85
816.276	484.8426	14560.9	13683.85
816.4201	487.0039	14872.9	13989.1
816.5641	489.1647	15230.55	14330.65
816.7082	491.3248	15640.35	14742.55
816.8522	493.4843	15770.1	14876.6
816.9963	495.6432	15756.5	14864.2
817.1404	497.8015	15680.25	14776.1
817.2845	499.9592	15579.6	14666.55
817.4286	502.1163	15435.1	14522.45
817.5727	504.2728	15151.6	14251.65
817.7168	506.4287	14909.35	14015.4
817.861	508.5839	14524.05	13632.4
818.0051	510.7386	14249.4	13352.1
818.1493	512.8927	14144.95	13235.05
818.2935	515.0461	14088.15	13183.85
818.4377	517.199	14109.95	13204.15
818.5818	519.3512	14187.85	13277.4
818.726	521.5029	14443	13534.8
818.8703	523.6539	14589.5	13679.9
819.0145	525.8043	14672.25	13759.1
819.1587	527.9541	14636.9	13723.7
819.303	530.1033	14533.35	13625.75
819.4472	532.2519	14434.1	13527
819.5915	534.3999	14467.3	13556.95
819.7357	536.5472	14632.35	13727.2
819.88	538.694	14949.5	14044.8
820.0243	540.8401	15351.5	14441.65
820.1686	542.9856	15696.95	14775.7
820.3129	545.1305	15776.5	14848.2
820.4572	547.2748	15705	14776.65
820.6016	549.4185	15443.95	14513.85
820.7459	551.5615	15208.25	14279.6
820.8902	553.704	15143.4	14218.3
821.0346	555.8458	15173.75	14253.35
821.1789	557.987	15285	14368.45
821.3233	560.1276	15461.65	14539.95
821.4677	562.2675	15678.1	14760.8
821.6121	564.4069	15975.65	15052.3
821.7565	566.5456	16237.15	15322.2
821.9009	568.6837	16275.4	15355.5
822.0453	570.8212	15976.2	15063.3
822.1897	572.958	15440.3	14520.55
822.3342	575.0942	14928.55	14011.85
822.4786	577.2299	14562.4	13654.2
822.6231	579.3648	14472.7	13572.7
822.7675	581.4992	14427.8	13539.3
822.912	583.6329	14593.9	13704.6
823.0565	585.766	14784.6	13891.05
823.201	587.8985	14914.05	14015.05
823.3454	590.0304	14958.2	14024.1
823.4899	592.1616	14926.65	14005.15
823.6345	594.2922	14786.85	13864.85
823.779	596.4222	14625.45	13696.55
823.9235	598.5515	14424.1	13498.35
824.068	600.6802	14262.8	13338.45
824.2126	602.8083	14110.85	13188.55
824.3571	604.9358	14066.7	13143.3
824.5017	607.0626	14068.85	13141.65
824.6462	609.1888	14129.7	13200.05
824.7908	611.3144	14193.9	13260.95
824.9354	613.4393	14221.05	13286.05
825.08	615.5636	14242.95	13310.4
825.2246	617.6873	14210.45	13279.95
825.3692	619.8103	14154.05	13224.65
825.5138	621.9327	13990.15	13063.25
825.6584	624.0544	13855.05	12932.4
825.803	626.1756	13727.25	12804.7
825.9477	628.2961	13623.5	12695.4
826.0923	630.4159	13558.4	12626.15
826.237	632.5351	13545.25	12615.65
826.3816	634.6537	13492.55	12559.55
826.5263	636.7716	13522.1	12585.55
826.6709	638.8889	13534	12595.1
826.8156	641.0056	13557.1	12616.5
826.9603	643.1216	13552.9	12615.15
827.105	645.237	13533.05	12600.55
827.2497	647.3518	13470.45	12548.65
827.3944	649.4659	13472.35	12546.85
827.5391	651.5793	13465.95	12547.1
827.6838	653.6922	13417.55	12491.9
827.8285	655.8043	13395.35	12469.3
827.9733	657.9159	13399.3	12470.8
828.118	660.0268	13350.1	12419.65
828.2627	662.137	13337.55	12409
828.4075	664.2466	13353.55	12415.8
828.5522	666.3556	13364.5	12427.45
828.697	668.4639	13293.35	12360.15
828.8418	670.5716	13317	12394.75
828.9865	672.6786	13325.45	12394.1
829.1313	674.785	13316.75	12377.85
829.2761	676.8907	13357.4	12426.4
829.4209	678.9958	13363.55	12435.55
829.5657	681.1002	13349.5	12418.45
829.7105	683.204	13356.65	12413.55
829.8553	685.3072	13315.1	12375.1
830.0001	687.4097	13267.05	12328.85
830.1449	689.5115	13239.25	12297.95
830.2898	691.6127	13231.45	12297.1
830.4346	693.7132	13204.9	12274.65
830.5794	695.8131	13206.75	12259.2
830.7243	697.9123	13216.2	12274.8
830.8691	700.0109	13188.7	12245.6
831.014	702.1089	13239.1	12298.2
831.1588	704.2061	13266.25	12327.4
831.3037	706.3028	13334.55	12394.1
831.4486	708.3987	13325.65	12387.2
831.5935	710.4941	13392.5	12453.1
831.7383	712.5887	13504.95	12567.85
831.8832	714.6827	13661.2	12720.05
832.0281	716.7761	13905.7	12969.85
832.173	718.8688	14142.15	13203.95
832.3179	720.9608	14308.6	13362.4
832.4628	723.0522	14451.15	13498.1
832.6077	725.1429	14367.5	13421.45
832.7527	727.233	14305.5	13362.5
832.8976	729.3224	14250.9	13310.6
833.0425	731.4112	14079.2	13139
833.1874	733.4993	13914.9	12974.55
833.3324	735.5867	13738.65	12797.35
833.4773	737.6735	13565.45	12621.85
833.6222	739.7596	13447.85	12506.15
833.7672	741.845	13345.5	12399.65
833.9122	743.9298	13280.95	12335.95
834.0571	746.014	13259.35	12316.6
834.2021	748.0974	13274.25	12329.1
834.347	750.1802	13274.5	12328.25
834.492	752.2624	13293.95	12343.05
834.637	754.3439	13336.65	12387.95
834.782	756.4247	13431.95	12475.05
834.9269	758.5048	13573.4	12627.55
835.0719	760.5843	13847.3	12897.3
835.2169	762.6631	14242.55	13294.05
835.3619	764.7413	14751.65	13804.9
835.5069	766.8188	15405.15	14454.6
835.6519	768.8956	15920.9	14971.4
835.7969	770.9718	16270.9	15325.6
835.9419	773.0473	16179.35	15232.85
836.0869	775.1221	15905.85	14959.15
836.232	777.1962	15567.45	14621.9
836.377	779.2697	15409.3	14457.8
836.522	781.3426	15489.6	14528.15
836.667	783.4147	15623.25	14671.8
836.8121	785.4862	15797.6	14852.85
836.9571	787.557	15715.9	14763.75
837.1021	789.6271	15282.55	14328.25
837.2472	791.6966	14711.4	13760.85
837.3922	793.7654	14154.35	13204.9
837.5373	795.8335	13778.65	12827.45
837.6823	797.901	13510.35	12562.45
837.8274	799.9678	13394.35	12442.6
837.9724	802.0339	13343.3	12392.05
838.1175	804.0993	13370.8	12404.15
838.2626	806.1641	13298.15	12341.9
838.4076	808.2282	13250.45	12298.3
838.5527	810.2916	13171.25	12219.65
838.6978	812.3544	13076.25	12133.15
838.8428	814.4164	13034.05	12083.5
838.9879	816.4778	13036.9	12085.35
839.133	818.5385	13082.8	12127.3
839.2781	820.5986	13208.45	12255.35
839.4232	822.658	13399.7	12444.9
839.5682	824.7166	13632.25	12680.65
839.7133	826.7747	14056.2	13105.1
839.8584	828.832	14441.95	13487.7
840.0035	830.8886	14721.95	13766.4
840.1486	832.9446	14845.6	13887.35
840.2937	834.9999	14790.25	13836.3
840.4388	837.0545	14625.45	13664.9
840.5839	839.1085	14402.15	13448.05
840.729	841.1618	14198.65	13239
840.8741	843.2143	14049.8	13096.8
841.0192	845.2662	13879.25	12923.95
841.1643	847.3175	13802.05	12846.85
841.3095	849.368	13690.4	12734.4
841.4546	851.4179	13585.95	12631.7
841.5997	853.467	13473.15	12518.5
841.7448	855.5155	13397.15	12443.35
841.8899	857.5633	13312.6	12355.15
842.0351	859.6105	13194.3	12237.3
842.1802	861.6569	13150.85	12194.75
842.3253	863.7027	13101.8	12145.15
842.4704	865.7478	13073.25	12117
842.6156	867.7922	13032.75	12074.2
842.7607	869.8359	13059.25	12104.6
842.9058	871.8789	13134.4	12174.55
843.0509	873.9212	13254.2	12266.85
843.1961	875.9629	13362.1	12408.3
843.3412	878.0039	13541.05	12579.95
843.4863	880.0441	13606.35	12649.95
843.6315	882.0837	13639.25	12684
843.7766	884.1226	13637.2	12679.25
843.9218	886.1609	13602.4	12647.4
844.0669	888.1984	13636.3	12681.95
844.212	890.2352	13719.55	12761.85
844.3572	892.2714	13703.45	12742.8
844.5023	894.3069	13703.3	12745.1
844.6475	896.3416	13542.25	12585.2
844.7926	898.3757	13468.55	12511.9
844.9377	900.4091	13370.4	12409.05
845.0829	902.4418	13388.3	12423.55
845.228	904.4739	13437.7	12475.6
845.3732	906.5052	13491.4	12530.15
845.5183	908.5358	13417.95	12456.25
845.6635	910.5658	13291.15	12329.85
845.8086	912.595	13101	12140.95
845.9538	914.6236	12897	11934.1
846.0989	916.6515	12799.45	11839.9
846.2441	918.6786	12711.75	11751
846.3892	920.7051	12752.8	11788
846.5344	922.7309	12829.35	11869.05
846.6795	924.756	12889.55	11929.25
846.8246	926.7804	12984.9	12024.15
846.9698	928.8041	12927.9	11967.75
847.1149	930.8272	12990.15	12030.75
847.2601	932.8495	12942	11980.55
847.4052	934.8711	12925.05	11962.45
847.5504	936.892	12814.05	11854.85
847.6955	938.9123	12741.05	11775.95
847.8407	940.9318	12721.05	11763
847.9858	942.9506	12659.65	11699.25
848.131	944.9688	12600.7	11642.95
848.2761	946.9862	12540.05	11582.55
848.4213	949.003	12411.4	11446.4
848.5664	951.019	12348.45	11388.95
848.7115	953.0344	12316.9	11356.55
848.8567	955.0491	12358.6	11395.25
849.0018	957.063	12417.65	11459.1
849.147	959.0763	12510.4	11552.45
849.2921	961.0888	12540.45	11581.6
849.4373	963.1007	12596.65	11643.2
849.5824	965.1119	12613.6	11664.05
849.7275	967.1223	12635.15	11689.75
849.8727	969.1321	12627.45	11686.35
850.0178	971.1412	12650.4	11702.1
850.1629	973.1495	12673	11715.25
850.3081	975.1572	12710.4	11703.35
850.4532	977.1641	12709.1	11749.85
850.5983	979.1704	12704.55	11742.05
850.7435	981.1759	12690	11726.45
850.8886	983.1808	12704.55	11744.95
851.0337	985.1849	12757.65	11788.5
851.1788	987.1884	12856.35	11896.65
851.324	989.1911	12961.85	12003.4
851.4691	991.1932	13044.9	12083.95
851.6142	993.1945	13081.15	12124.1
851.7593	995.1951	13050.15	12090.35
851.9045	997.1951	13035.2	12068.7
852.0496	999.1943	12959.15	12002.15
852.1947	1001.1928	12944.7	11982.65
852.3398	1003.1906	12965.45	12005.35
852.4849	1005.1877	13075	12113.35
852.63	1007.1841	13101.35	12143.85
852.7751	1009.1798	13080.55	12124.7
852.9202	1011.1748	12964	12004.9
853.0653	1013.1691	12803.15	11843.75
853.2104	1015.1627	12578.3	11621.4
853.3555	1017.1556	12381.8	11426.35
853.5006	1019.1477	12260	11306.25
853.6457	1021.1392	12170.05	11217.4
853.7908	1023.1299	12143.15	11200.3
853.9359	1025.12	12130	11188.5
854.081	1027.1093	12191.45	11262.4
854.2261	1029.0979	12309.15	11384.95
854.3712	1031.0859	12358.8	11428.75
854.5163	1033.0731	12387.5	11446.25
854.6613	1035.0596	12339.5	11387.95
854.8064	1037.0454	12223.15	11272.15
854.9515	1039.0304	12114.35	11161.2
855.0965	1041.0148	11992.25	11035.2
855.2416	1042.9985	11886.2	10929.95
855.3867	1044.9814	11853.8	10898.6
855.5317	1046.9636	11839.35	10883.4
855.6768	1048.9452	11798.65	10844.95
855.8219	1050.926	11799.25	10848.8
855.9669	1052.9061	11826.65	10875.45
856.112	1054.8855	11855.4	10897.45
856.257	1056.8642	11893.3	10940.35
856.4021	1058.8421	11938.55	10974.55
856.5471	1060.8194	11970.4	11012.55
856.6921	1062.7959	12037.15	11082.75
856.8372	1064.7717	12072.55	11113.3
856.9822	1066.7469	12122.5	11164.6
857.1272	1068.7213	12182.9	11227.55
857.2723	1070.695	12228.3	11274
857.4173	1072.6679	12186.2	11229.25
857.5623	1074.6402	12183.95	11225.1
857.7073	1076.6117	12164.05	11203.05
857.8523	1078.5826	12078.25	11119.75
857.9973	1080.5527	12014.55	11054.05
858.1423	1082.5221	12015.6	11057.4
858.2873	1084.4908	12065.1	11106.95
858.4323	1086.4587	12157.1	11198.75
858.5773	1088.426	12245.5	11287.25
858.7223	1090.3925	12261.5	11299.75
858.8673	1092.3584	12259.75	11305.35
859.0123	1094.3235	12173.65	11219.35
859.1573	1096.2879	12207.15	11249.7
859.3022	1098.2515	12275.4	11322.35
859.4472	1100.2145	12405.45	11449.7
859.5922	1102.1767	12567.6	11611.7
859.7371	1104.1382	12752.65	11801.35
859.8821	1106.099	13001	12044.85
860.027	1108.0591	13217.35	12261.5
860.172	1110.0185	13343	12385.85
860.3169	1111.9771	13401.8	12449
860.4619	1113.9351	13260.75	12305.65
860.6068	1115.8923	13073.35	12118.55
860.7517	1117.8488	12861.75	11906.35
860.8967	1119.8045	12630.8	11679.5
861.0416	1121.7596	12496.2	11541.75
861.1865	1123.7139	12432.6	11478.9
861.3314	1125.6675	12406.7	11453.35
861.4763	1127.6204	12429.95	11478.95
861.6212	1129.5726	12405.95	11448.85
861.7661	1131.524	12349.2	11397.2
861.911	1133.4748	12245.3	11290.45
862.0559	1135.4248	12099.35	11145.5
862.2008	1137.3741	12029.15	11078.4
862.3457	1139.3226	11940.55	10987.65
862.4905	1141.2705	11905.9	10954.25
862.6354	1143.2176	11807.85	10850.45
862.7803	1145.164	11780.05	10822.35
862.9251	1147.1097	11742.05	10785.35
863.07	1149.0546	11667.6	10713.6
863.2148	1150.9989	11586.75	10631.95
863.3597	1152.9424	11485	10530
863.5045	1154.8852	11374.7	10419.6
863.6493	1156.8272	11319.75	10365.65
863.7942	1158.7686	11316.8	10357.7
863.939	1160.7092	11286.45	10327.85
864.0838	1162.6491	11326.3	10367.85
864.2286	1164.5883	11404.1	10449.15
864.3734	1166.5267	11501.75	10545.4
864.5182	1168.4644	11675	10722.4
864.663	1170.4014	11828.65	10873.8
864.8078	1172.3377	12090.2	11140.55
864.9526	1174.2732	12364.7	11413.95
865.0974	1176.2081	12728.15	11770.45
865.2421	1178.1421	13128.2	12172.05
865.3869	1180.0755	13532.1	12579
865.5317	1182.0082	13796.45	12844.65
