Software Version:	3.9.2.0
Unit SN:	10000200
Spectrometer SN:	6960
Date:	3/8/2024 1:34:23 PM
Data Line Index:	25
Spectral Points:	2048
Integration time (ms):	125
Averages:	20
Delay (ms):	30000
Sequence Number:	1
Processing:	dark subtract
Laser Power (mW):	305
Laser Current (mA):	823
Laser Diode Temp (C):	25.1
Laser Case Temp (C):	26.3
System Temp (C):	26.3
Spectrometer Temp (C):	24.1
CCD Temp (C):	0.01
Secondary Temp (C):	20.006
Heatsink Temp (C):	20.764
CCDPCB Temp (C):	36.285
SecondaryPCB Temp (C):	30.093

Wavelength	RamanShift	Raw Counts	Dark Subtracted
787.061	30.1047	455.25	46.15
787.2016	32.3739	454.9	49.4
787.3422	34.6426	460.75	53.25
787.4828	36.9109	467.9	58.9
787.6235	39.1787	476.3	62.7
787.7642	41.4461	486.3	69.05
787.9049	43.7131	495.6	75.65
788.0456	45.9796	498.3	74.4
788.1863	48.2456	510.1	81.65
788.3271	50.5112	518.35	87
788.4679	52.7764	527.55	92.45
788.6087	55.0411	538.75	99.35
788.7496	57.3054	550.1	105.1
788.8904	59.5692	559.6	112.95
789.0313	61.8326	572.75	125
789.1722	64.0955	581.9	130.15
789.3132	66.3579	596.45	139.95
789.4541	68.6199	617.3	156.7
789.5951	70.8815	653.1	186.2
789.7361	73.1426	732.45	262.85
789.8771	75.4032	927.4	456
790.0181	77.6634	1411.4	931.75
790.1592	79.9231	2580.75	2093.55
790.3003	82.1824	5073.7	4567.7
790.4414	84.4412	9586.25	9053.15
790.5825	86.6995	15793.45	15225.9
790.7237	88.9574	21850.95	21251.4
790.8648	91.2148	26052.5	25430.45
791.006	93.4717	27971	27331.25
791.1472	95.7282	28401.25	27754.15
791.2885	97.9842	28243.45	27593
791.4297	100.2398	27661.5	27006.8
791.571	102.4949	27021.45	26368.6
791.7123	104.7495	26196.85	25536.35
791.8536	107.0036	25417.95	24761.35
791.9949	109.2573	24670.45	24015.1
792.1363	111.5105	23920.7	23259.35
792.2777	113.7632	23189.2	22528.25
792.4191	116.0154	22592.5	21918.1
792.5605	118.2672	22122.6	21450.15
792.7019	120.5185	21690.3	21019.2
792.8434	122.7693	21295.5	20624.05
792.9849	125.0197	21021.9	20347.35
793.1264	127.2696	20748.9	20067.85
793.2679	129.519	20569.65	19882.95
793.4094	131.7679	20336.45	19650.15
793.551	134.0163	20197.6	19505.6
793.6926	136.2642	19960.9	19266.3
793.8342	138.5117	19689.45	18989.25
793.9758	140.7587	19447.55	18750
794.1175	143.0052	19237.2	18536
794.2591	145.2512	18950.9	18251.95
794.4008	147.4967	18741.8	18041.1
794.5425	149.7417	18550.7	17849.4
794.6842	151.9863	18419.55	17709.6
794.826	154.2304	18339.7	17624.65
794.9677	156.4739	18219.05	17502.45
795.1095	158.717	18190.2	17471.05
795.2513	160.9596	17962.55	17238.1
795.3931	163.2017	17729.4	17004.95
795.535	165.4433	17441.55	16718.45
795.6768	167.6844	17091.1	16368.05
795.8187	169.925	16818.95	16087.7
795.9606	172.1651	16435.4	15700
796.1025	174.4047	16160.8	15421.1
796.2445	176.6439	15919.55	15184.8
796.3864	178.8825	15672.15	14934.45
796.5284	181.1206	15491.6	14744.6
796.6704	183.3582	15356.4	14607.15
796.8124	185.5954	15216.15	14467.95
796.9544	187.832	15166.3	14411.4
797.0965	190.0681	15116	14357.25
797.2386	192.3037	15118.85	14356.8
797.3806	194.5388	15111.3	14346.6
797.5228	196.7734	15152.35	14387.3
797.6649	199.0075	15247.05	14479.3
797.807	201.2411	15359.25	14589.2
797.9492	203.4742	15432.85	14662.15
798.0914	205.7068	15566.15	14794.75
798.2336	207.9389	15684.35	14907.9
798.3758	210.1704	15854.8	15081.05
798.518	212.4015	15950.65	15188.55
798.6603	214.632	16149.7	15396.45
798.8025	216.862	16294.15	15542.9
798.9448	219.0915	16469.2	15716.7
799.0871	221.3205	16643.65	15889.8
799.2294	223.549	16866.85	16111.55
799.3718	225.777	17142.15	16389.5
799.5141	228.0044	17447.45	16688.95
799.6565	230.2314	17865.95	17104.4
799.7989	232.4578	18242.85	17480.5
799.9413	234.6837	18531.35	17760.25
800.0837	236.909	18721.15	17945.5
800.2262	239.1339	18734	17936.95
800.3687	241.3582	18533.05	17746.95
800.5111	243.582	18255.9	17442.2
800.6536	245.8053	17956.35	17155.65
800.7961	248.0281	17682.1	16890
800.9387	250.2503	17480.75	16681.95
801.0812	252.472	17374.45	16572.35
801.2238	254.6932	17324.7	16520.85
801.3664	256.9139	17269.6	16465.15
801.509	259.134	17353.7	16543.2
801.6516	261.3536	17379.9	16574.85
801.7942	263.5727	17485.95	16680.75
801.9369	265.7912	17489.05	16678.55
802.0795	268.0092	17554.05	16747
802.2222	270.2267	17563.25	16756.6
802.3649	272.4436	17587.5	16778.7
802.5076	274.6601	17528.25	16706.7
802.6504	276.8759	17432.65	16615.35
802.7931	279.0913	17381.8	16569.8
802.9359	281.3061	17299.85	16486.05
803.0787	283.5204	17337.2	16519.05
803.2215	285.7341	17400.25	16578.25
803.3643	287.9473	17543.2	16711.4
803.5071	290.16	17756.2	16926.4
803.6499	292.3721	18027.45	17207.2
803.7928	294.5837	18412.55	17590
803.9357	296.7947	18741.05	17923.2
804.0786	299.0052	18935.65	18115.35
804.2215	301.2152	18810.65	17989.05
804.3644	303.4246	18494.95	17674.95
804.5074	305.6334	17976.35	17159.95
804.6503	307.8418	17470.55	16647.05
804.7933	310.0495	17073.35	16243.65
804.9363	312.2568	16751.45	15922.65
805.0793	314.4635	16478.5	15651.25
805.2223	316.6696	16334.15	15506.75
805.3653	318.8752	16275.15	15433.8
805.5084	321.0802	16344.55	15515.8
805.6514	323.2847	16393.25	15558.8
805.7945	325.4887	16436.5	15601.8
805.9376	327.692	16422.45	15586.55
806.0807	329.8949	16303.65	15468.75
806.2238	332.0972	16070.75	15230.9
806.367	334.2989	15809.5	14965.75
806.5101	336.5001	15521.3	14683.05
806.6533	338.7007	15333.85	14489.65
806.7965	340.9008	15214.7	14367.1
806.9397	343.1003	15084.15	14236.6
807.0829	345.2992	15005.3	14158.45
807.2261	347.4976	14964.1	14116.3
807.3693	349.6955	14949.15	14097.75
807.5126	351.8927	14998.2	14145.75
807.6559	354.0895	14961.85	14092.65
807.7991	356.2856	15027.6	14174.6
807.9424	358.4812	14998.25	14142.8
808.0857	360.6763	15035.9	14180.55
808.2291	362.8707	15012.8	14151.85
808.3724	365.0646	15078.45	14218.55
808.5158	367.258	15059.6	14201.6
808.6591	369.4508	15137.3	14272.8
808.8025	371.643	15238.5	14375.2
808.9459	373.8346	15216.9	14348.5
809.0893	376.0257	15212.6	14346.15
809.2327	378.2162	15147.85	14280.65
809.3762	380.4062	15038.5	14174.1
809.5196	382.5956	14910.4	14045.45
809.6631	384.7844	14822.6	13962.2
809.8066	386.9726	14677.15	13818.35
809.9501	389.1603	14649.6	13793.8
810.0936	391.3474	14610.5	13718.35
810.2371	393.5339	14565.9	13702.35
810.3806	395.7199	14544.7	13687.05
810.5241	397.9052	14562.55	13703.85
810.6677	400.09	14577.9	13715.75
810.8113	402.2743	14718.85	13859.3
810.9548	404.4579	14772.7	13916
811.0984	406.641	14966.75	14107.15
811.2421	408.8235	15134.45	14271.75
811.3857	411.0054	15460.7	14598.35
811.5293	413.1868	15830.75	14958.1
811.673	415.3675	16096	15220.5
811.8166	417.5477	16296.5	15420.55
811.9603	419.7273	16332.15	15457.4
812.104	421.9064	16210.85	15332.95
812.2477	424.0848	16091.4	15219.3
812.3914	426.2627	15907	15036.9
812.5351	428.4399	15621.8	14741.2
812.6788	430.6166	15266.05	14387.9
812.8226	432.7928	14905.05	14023.85
812.9663	434.9683	14606.85	13729.85
813.1101	437.1432	14341.75	13465.15
813.2539	439.3176	14183.85	13315.75
813.3977	441.4914	14068.1	13196.05
813.5415	443.6645	14058.85	13188.75
813.6853	445.8371	14005.15	13128.2
813.8291	448.0091	13942.2	13064.5
813.973	450.1806	13921.4	13047.1
814.1168	452.3514	13852.4	12980
814.2607	454.5216	13887.25	13003.6
814.4046	456.6913	13822.75	12943.3
814.5485	458.8603	13858.25	12980.65
814.6924	461.0288	13924.1	13054.35
814.8363	463.1967	13927.2	13058.15
814.9802	465.3639	14023.35	13146.4
815.1241	467.5306	14090.9	13219.85
815.2681	469.6967	14222.95	13348.4
815.412	471.8622	14344.9	13473.4
815.556	474.0271	14476.55	13603.35
815.7	476.1914	14532.3	13653.2
815.844	478.3551	14538.45	13658.55
815.988	480.5182	14527.7	13653.2
816.132	482.6807	14571.65	13702.55
816.276	484.8426	14661.05	13796.75
816.4201	487.0039	14950.55	14083.3
816.5641	489.1647	15357.55	14478.95
816.7082	491.3248	15760	14879.55
816.8522	493.4843	15924.5	15050.7
816.9963	495.6432	15894.7	15019
817.1404	497.8015	15820.9	14933.7
817.2845	499.9592	15797.55	14905.8
817.4286	502.1163	15724.25	14835.45
817.5727	504.2728	15497.1	14617.75
817.7168	506.4287	15186.3	14312.65
817.861	508.5839	14770.7	13900.45
818.0051	510.7386	14473.65	13594.9
818.1493	512.8927	14323.9	13438
818.2935	515.0461	14244.55	13359.4
818.4377	517.199	14199.45	13315.25
818.5818	519.3512	14244.3	13353.85
818.726	521.5029	14330.6	13441.85
818.8703	523.6539	14438.55	13547.9
819.0145	525.8043	14518.05	13631.25
819.1587	527.9541	14506.35	13613.1
819.303	530.1033	14456.15	13565.25
819.4472	532.2519	14440.95	13551.45
819.5915	534.3999	14531.5	13637.1
819.7357	536.5472	14759.2	13871.45
819.88	538.694	15181	14295.15
820.0243	540.8401	15714.25	14822.9
820.1686	542.9856	16146.75	15246.25
820.3129	545.1305	16291.1	15383.8
820.4572	547.2748	16159.75	15250.95
820.6016	549.4185	15840.75	14932.8
820.7459	551.5615	15540.4	14630.6
820.8902	553.704	15422.6	14516.35
821.0346	555.8458	15367	14467.75
821.1789	557.987	15415.3	14517.4
821.3233	560.1276	15465.45	14567.15
821.4677	562.2675	15544.55	14646.1
821.6121	564.4069	15721	14822.85
821.7565	566.5456	15775.8	14877.45
821.9009	568.6837	15712.65	14814.8
822.0453	570.8212	15420.65	14522.6
822.1897	572.958	15013.95	14117.7
822.3342	575.0942	14686.1	13790.9
822.4786	577.2299	14445.3	13553.25
822.6231	579.3648	14394.1	13511.9
822.7675	581.4992	14416.9	13540.55
822.912	583.6329	14578.8	13705.1
823.0565	585.766	14818	13940.6
823.201	587.8985	14953.15	14067.65
823.3454	590.0304	14979.6	14062.95
823.4899	592.1616	14888	13985.35
823.6345	594.2922	14768.85	13867
823.779	596.4222	14630.65	13724.3
823.9235	598.5515	14460.5	13554.1
824.068	600.6802	14290.3	13386.75
824.2126	602.8083	14125.05	13224.1
824.3571	604.9358	14067	13163
824.5017	607.0626	14042.95	13136.05
824.6462	609.1888	14023	13113.05
824.7908	611.3144	13986.85	13075.7
824.9354	613.4393	13955.05	13042.5
825.08	615.5636	13903.4	12992.55
825.2246	617.6873	13834.4	12925.15
825.3692	619.8103	13772.6	12860.7
825.5138	621.9327	13663.5	12757.05
825.6584	624.0544	13578.55	12674.35
825.803	626.1756	13517.45	12615.15
825.9477	628.2961	13461	12552.95
826.0923	630.4159	13408.75	12496.3
826.237	632.5351	13390.65	12478.25
826.3816	634.6537	13314.45	12401.7
826.5263	636.7716	13337.55	12426.35
826.6709	638.8889	13332.6	12414.85
826.8156	641.0056	13348.45	12430.9
826.9603	643.1216	13355.2	12441.35
827.105	645.237	13367.8	12453.5
827.2497	647.3518	13297.4	12388.3
827.3944	649.4659	13322.7	12418.95
827.5391	651.5793	13290.6	12386.35
827.6838	653.6922	13308	12400.75
827.8285	655.8043	13294.55	12384.25
827.9733	657.9159	13286.35	12377.45
828.118	660.0268	13203.2	12295.2
828.2627	662.137	13180	12267.45
828.4075	664.2466	13174.85	12253.95
828.5522	666.3556	13162.55	12247.05
828.697	668.4639	13151.85	12237.75
828.8418	670.5716	13137.05	12228.55
828.9865	672.6786	13204	12291.8
829.1313	674.785	13255.1	12334.45
829.2761	676.8907	13284.5	12366.8
829.4209	678.9958	13362.3	12453.5
829.5657	681.1002	13335.15	12422.15
829.7105	683.204	13338.2	12416.55
829.8553	685.3072	13273.45	12353.3
830.0001	687.4097	13237.95	12319.15
830.1449	689.5115	13209.9	12289.1
830.2898	691.6127	13162.6	12244.65
830.4346	693.7132	13116.75	12204.35
830.5794	695.8131	13116.7	12189.5
830.7243	697.9123	13087.55	12165.75
830.8691	700.0109	13068.15	12145.6
831.014	702.1089	13054.6	12135.5
831.1588	704.2061	13052.55	12132.35
831.3037	706.3028	13089.4	12166.8
831.4486	708.3987	13122.7	12202.7
831.5935	710.4941	13198.55	12273.95
831.7383	712.5887	13366.55	12445.75
831.8832	714.6827	13613.35	12688.95
832.0281	716.7761	13874.25	12957.8
832.173	718.8688	14230.4	13310.25
832.3179	720.9608	14400.85	13476.4
832.4628	723.0522	14498.8	13569.9
832.6077	725.1429	14391.85	13468.7
832.7527	727.233	14169.5	13247
832.8976	729.3224	13976	13056.45
833.0425	731.4112	13743.25	12818.35
833.1874	733.4993	13549	12627.05
833.3324	735.5867	13385.45	12464.15
833.4773	737.6735	13272.3	12347.4
833.6222	739.7596	13164.25	12239.1
833.7672	741.845	13112.2	12193.05
833.9122	743.9298	13088.6	12163.65
834.0571	746.014	13059.05	12135.45
834.2021	748.0974	13079.55	12146.8
834.347	750.1802	13081.2	12155.05
834.492	752.2624	13058.65	12132.4
834.637	754.3439	13086.3	12156.15
834.782	756.4247	13193.05	12256.7
834.9269	758.5048	13346.7	12417.6
835.0719	760.5843	13575.6	12645.4
835.2169	762.6631	13928.7	13002.4
835.3619	764.7413	14394.55	13469.1
835.5069	766.8188	14997.75	14070.1
835.6519	768.8956	15436.2	14507.2
835.7969	770.9718	15761.5	14836.05
835.9419	773.0473	15635.1	14709.2
836.0869	775.1221	15330	14405.7
836.232	777.1962	14997.6	14069.5
836.377	779.2697	14807.75	13876.45
836.522	781.3426	14851.3	13902.5
836.667	783.4147	15039.7	14111.7
836.8121	785.4862	15287.9	14361.5
836.9571	787.557	15297	14365
837.1021	789.6271	14945.9	14016.2
837.2472	791.6966	14396.55	13465.6
837.3922	793.7654	13881.65	12951.4
837.5373	795.8335	13532.4	12599.85
837.6823	797.901	13313.5	12381.4
837.8274	799.9678	13234.35	12301.6
837.9724	802.0339	13234.9	12302.95
838.1175	804.0993	13279.4	12337.2
838.2626	806.1641	13246.4	12313.9
838.4076	808.2282	13179.4	12248.35
838.5527	810.2916	13080.6	12146.1
838.6978	812.3544	12998.45	12070.15
838.8428	814.4164	12938.15	12008.7
838.9879	816.4778	12958.3	12023.2
839.133	818.5385	12937.95	12001.1
839.2781	820.5986	13051.7	12118.6
839.4232	822.658	13185.75	12253.05
839.5682	824.7166	13317.2	12384.7
839.7133	826.7747	13628.05	12696
839.8584	828.832	13884.55	12949.15
840.0035	830.8886	14060	13122.5
840.1486	832.9446	14179.6	13241.15
840.2937	834.9999	14173.9	13240.4
840.4388	837.0545	14133.75	13198.45
840.5839	839.1085	14057	13123.5
840.729	841.1618	13952.3	13012.65
840.8741	843.2143	13912.3	12977.25
841.0192	845.2662	13808.15	12876.1
841.1643	847.3175	13727.65	12792.35
841.3095	849.368	13615.8	12679.55
841.4546	851.4179	13508.7	12575.45
841.5997	853.467	13391.45	12458
841.7448	855.5155	13285.85	12349.6
841.8899	857.5633	13176	12238.55
842.0351	859.6105	13077.15	12140.3
842.1802	861.6569	12997.1	12064.6
842.3253	863.7027	12967.85	12029.55
842.4704	865.7478	12940.45	12001.45
842.6156	867.7922	12945.55	12006
842.7607	869.8359	12971.05	12034.25
842.9058	871.8789	13087.8	12148.55
843.0509	873.9212	13260.55	12289.85
843.1961	875.9629	13346.25	12411.35
843.3412	878.0039	13522.3	12585.3
843.4863	880.0441	13624.55	12691.5
843.6315	882.0837	13654.5	12717.9
843.7766	884.1226	13612.25	12673.25
843.9218	886.1609	13522.5	12587.25
844.0669	888.1984	13467.65	12532.75
844.212	890.2352	13489	12552.95
844.3572	892.2714	13436.75	12496.15
844.5023	894.3069	13481.15	12545.1
844.6475	896.3416	13365.15	12424.95
844.7926	898.3757	13267.25	12331.25
844.9377	900.4091	13261.15	12318.05
845.0829	902.4418	13278.1	12331.05
845.228	904.4739	13299.7	12357.85
845.3732	906.5052	13315.85	12373.65
845.5183	908.5358	13229.2	12282.75
845.6635	910.5658	13068	12123.4
845.8086	912.595	12896.9	11960.15
845.9538	914.6236	12767.65	11829.5
846.0989	916.6515	12671.7	11731
846.2441	918.6786	12659.5	11718.65
846.3892	920.7051	12740.75	11799.6
846.5344	922.7309	12826.2	11884.5
846.6795	924.756	12857.85	11917.8
846.8246	926.7804	12976.1	12034.1
846.9698	928.8041	12927.45	11983.85
847.1149	930.8272	12970.45	12030.45
847.2601	932.8495	12915.5	11970.95
847.4052	934.8711	12872.4	11928.45
847.5504	936.892	12751.95	11809.5
847.6955	938.9123	12651.15	11708.7
847.8407	940.9318	12566.65	11623.3
847.9858	942.9506	12470.35	11530.2
848.131	944.9688	12379.4	11436.65
848.2761	946.9862	12358.65	11418.2
848.4213	949.003	12248.35	11304.7
848.5664	951.019	12231.1	11292.1
848.7115	953.0344	12222.25	11282.45
848.8567	955.0491	12276.2	11333.35
849.0018	957.063	12331.25	11390.35
849.147	959.0763	12463.25	11523.25
849.2921	961.0888	12463.7	11519.7
849.4373	963.1007	12548.05	11608.55
849.5824	965.1119	12608.5	11679
849.7275	967.1223	12627.9	11702.45
849.8727	969.1321	12617.65	11691
850.0178	971.1412	12667.35	11734.25
850.1629	973.1495	12674.35	11738.1
850.3081	975.1572	12730.2	11745.05
850.4532	977.1641	12752.3	11812.75
850.5983	979.1704	12714.95	11770.15
850.7435	981.1759	12719.95	11772.6
850.8886	983.1808	12766.4	11821.1
851.0337	985.1849	12834.55	11883.2
851.1788	987.1884	12988.15	12045.35
851.324	989.1911	13126.1	12186.1
851.4691	991.1932	13267.15	12325.3
851.6142	993.1945	13282.15	12344.15
851.7593	995.1951	13242.65	12302.3
851.9045	997.1951	13241.8	12294.55
852.0496	999.1943	13129.5	12184.9
852.1947	1001.1928	13110.25	12166.15
852.3398	1003.1906	13106.75	12164.55
852.4849	1005.1877	13197.5	12254.65
852.63	1007.1841	13180.85	12240.95
852.7751	1009.1798	13148.05	12205.05
852.9202	1011.1748	12962.35	12021.75
853.0653	1013.1691	12818	11877.95
853.2104	1015.1627	12557.9	11617.1
853.3555	1017.1556	12379.2	11439.9
853.5006	1019.1477	12290.35	11350.6
853.6457	1021.1392	12185.95	11254.25
853.7908	1023.1299	12166.65	11236.05
853.9359	1025.12	12194.5	11267.6
854.081	1027.1093	12235.2	11318.55
854.2261	1029.0979	12324.2	11409.9
854.3712	1031.0859	12399.9	11479.25
854.5163	1033.0731	12407.55	11480.65
854.6613	1035.0596	12373.25	11440.55
854.8064	1037.0454	12206.45	11269.7
854.9515	1039.0304	12133.3	11191.6
855.0965	1041.0148	11991.25	11053.25
855.2416	1042.9985	11882.65	10942
855.3867	1044.9814	11871.85	10933.9
855.5317	1046.9636	11828.35	10886.3
855.6768	1048.9452	11801.95	10862.5
855.8219	1050.926	11836.9	10902.15
855.9669	1052.9061	11838.8	10901.55
856.112	1054.8855	11838.7	10901
856.257	1056.8642	11875.3	10936.5
856.4021	1058.8421	11943.7	10999.4
856.5471	1060.8194	11964.65	11022.5
856.6921	1062.7959	12008.5	11067.55
856.8372	1064.7717	12025.35	11082.45
856.9822	1066.7469	12064.1	11122.4
857.1272	1068.7213	12069.1	11130
857.2723	1070.695	12091.65	11151.5
857.4173	1072.6679	12049.35	11107.55
857.5623	1074.6402	12036.7	11097.5
857.7073	1076.6117	12005.5	11056.85
857.8523	1078.5826	11958.85	11017.2
857.9973	1080.5527	11926.55	10985.1
858.1423	1082.5221	12011.15	11074.35
858.2873	1084.4908	12165.5	11224.3
858.4323	1086.4587	12292.2	11350.1
858.5773	1088.426	12421.95	11477.95
858.7223	1090.3925	12397.95	11453.3
858.8673	1092.3584	12370	11430.7
859.0123	1094.3235	12282.95	11343.1
859.1573	1096.2879	12236.7	11293.4
859.3022	1098.2515	12254.3	11313.1
859.4472	1100.2145	12344.1	11407.85
859.5922	1102.1767	12465.35	11527
859.7371	1104.1382	12635.15	11695.65
859.8821	1106.099	12847.8	11906.1
860.027	1108.0591	13053.65	12116.15
860.172	1110.0185	13211.7	12273.5
860.3169	1111.9771	13249.8	12311.05
860.4619	1113.9351	13043.95	12103.5
860.6068	1115.8923	12795.75	11857.55
860.7517	1117.8488	12543.3	11603.2
860.8967	1119.8045	12298.6	11361.4
861.0416	1121.7596	12175.45	11234.2
861.1865	1123.7139	12079.35	11143
861.3314	1125.6675	12084.05	11146.1
861.4763	1127.6204	12145.3	11207.15
861.6212	1129.5726	12120.85	11182.55
861.7661	1131.524	12110.5	11171.55
861.911	1133.4748	12040.65	11103.65
862.0559	1135.4248	12013.25	11072.5
862.2008	1137.3741	11962.15	11023.55
862.3457	1139.3226	11893.2	10955.75
862.4905	1141.2705	11895.1	10958.4
862.6354	1143.2176	11786.5	10840.4
862.7803	1145.164	11783.9	10848.05
862.9251	1147.1097	11759	10821.25
863.07	1149.0546	11740.65	10800.05
863.2148	1150.9989	11662.85	10723.65
863.3597	1152.9424	11536.3	10595.85
863.5045	1154.8852	11365.8	10428.65
863.6493	1156.8272	11284.5	10347.1
863.7942	1158.7686	11265.6	10319.45
863.939	1160.7092	11246.4	10306.55
864.0838	1162.6491	11238.95	10296.75
864.2286	1164.5883	11330.65	10394.45
864.3734	1166.5267	11407.15	10469.4
864.5182	1168.4644	11556.05	10617.2
864.663	1170.4014	11720	10782.95
864.8078	1172.3377	12004.05	11067.4
864.9526	1174.2732	12225.5	11289.2
865.0974	1176.2081	12512.8	11577.3
865.2421	1178.1421	12794.15	11850.95
865.3869	1180.0755	13063.15	12127.35
865.5317	1182.0082	13230.1	12296.6
