Software Version:	3.9.2.0
Unit SN:	10000200
Spectrometer SN:	6960
Date:	3/8/2024 11:19:50 AM
Data Line Index:	25
Spectral Points:	2048
Integration time (ms):	125
Averages:	20
Delay (ms):	30000
Sequence Number:	1
Processing:	dark subtract
Laser Power (mW):	300
Laser Current (mA):	822
Laser Diode Temp (C):	25.1
Laser Case Temp (C):	24.8
System Temp (C):	24.7
Spectrometer Temp (C):	22.7
CCD Temp (C):	0
Secondary Temp (C):	20.008
Heatsink Temp (C):	19.546
CCDPCB Temp (C):	33.106
SecondaryPCB Temp (C):	26.436

Wavelength	RamanShift	Raw Counts	Dark Subtracted
787.061	30.1047	416.6	7.95
787.2016	32.3739	416.5	9.6
787.3422	34.6426	418.15	9.35
787.4828	36.9109	420.75	8.65
787.6235	39.1787	426.05	12.55
787.7642	41.4461	430.2	11.6
787.9049	43.7131	435.05	12.45
788.0456	45.9796	438	12.85
788.1863	48.2456	440.85	12.4
788.3271	50.5112	448.65	15.75
788.4679	52.7764	448.55	13.2
788.6087	55.0411	456.4	17.5
788.7496	57.3054	460.3	15.25
788.8904	59.5692	464.85	17.95
789.0313	61.8326	469.2	20.7
789.1722	64.0955	475.15	23.7
789.3132	66.3579	480.55	25.2
789.4541	68.6199	486.95	26.55
789.5951	70.8815	499.15	32.95
789.7361	73.1426	523.65	52.75
789.8771	75.4032	568.55	96.2
790.0181	77.6634	668.35	193.55
790.1592	79.9231	899.55	418.65
790.3003	82.1824	1387.85	900
790.4414	84.4412	2184.35	1684.75
790.5825	86.6995	3190.2	2676.15
790.7237	88.9574	4175.4	3651.65
790.8648	91.2148	4837.45	4304.5
791.006	93.4717	5129.75	4592.6
791.1472	95.7282	5219.15	4677.1
791.2885	97.9842	5189.4	4646.7
791.4297	100.2398	5118.65	4572.85
791.571	102.4949	5054.35	4505.2
791.7123	104.7495	5012.85	4460.45
791.8536	107.0036	4932.6	4379
791.9949	109.2573	4850.2	4297.05
792.1363	111.5105	4746.45	4191.45
792.2777	113.7632	4617.2	4060.75
792.4191	116.0154	4486.2	3917.1
792.5605	118.2672	4344.75	3782.5
792.7019	120.5185	4200.65	3636.25
792.8434	122.7693	4075.6	3510.45
792.9849	125.0197	3960.65	3390.2
793.1264	127.2696	3843.2	3268.55
793.2679	129.519	3764.6	3186.75
793.4094	131.7679	3724.85	3144.45
793.551	134.0163	3694.15	3110.75
793.6926	136.2642	3682.95	3096.5
793.8342	138.5117	3684	3096.7
793.9758	140.7587	3656.35	3068.05
794.1175	143.0052	3602.1	3008.9
794.2591	145.2512	3522.95	2929.65
794.4008	147.4967	3444.05	2850.25
794.5425	149.7417	3387.9	2790.45
794.6842	151.9863	3336.4	2734
794.826	154.2304	3321.35	2714.8
794.9677	156.4739	3305.95	2694.55
795.1095	158.717	3327.95	2715
795.2513	160.9596	3356.75	2739.65
795.3931	163.2017	3398.35	2781.3
795.535	165.4433	3445.5	2825.6
795.6768	167.6844	3448.8	2824.3
795.8187	169.925	3403.55	2778.6
795.9606	172.1651	3333.8	2705.55
796.1025	174.4047	3262.3	2628.95
796.2445	176.6439	3200.75	2566.15
796.3864	178.8825	3151.75	2512.1
796.5284	181.1206	3130.65	2486
796.6704	183.3582	3109.4	2462.95
796.8124	185.5954	3109.75	2462.75
796.9544	187.832	3103.75	2454.6
797.0965	190.0681	3106.35	2449.25
797.2386	192.3037	3119.9	2463.1
797.3806	194.5388	3117.6	2459.9
797.5228	196.7734	3133.85	2472.05
797.6649	199.0075	3160.7	2501.15
797.807	201.2411	3192.35	2529.35
797.9492	203.4742	3222.15	2556.9
798.0914	205.7068	3249.6	2578.7
798.2336	207.9389	3282.55	2607
798.3758	210.1704	3316.75	2650.5
798.518	212.4015	3300.8	2644.75
798.6603	214.632	3301.75	2654.7
798.8025	216.862	3303.35	2656.15
798.9448	219.0915	3319.55	2669.65
799.0871	221.3205	3351	2696.85
799.2294	223.549	3355.15	2708.3
799.3718	225.777	3357.55	2706.55
799.5141	228.0044	3342.35	2684.85
799.6565	230.2314	3358.6	2700.75
799.7989	232.4578	3339.15	2678.25
799.9413	234.6837	3314.7	2644.65
800.0837	236.909	3307.05	2635.7
800.2262	239.1339	3286.9	2592.65
800.3687	241.3582	3278.85	2595.85
800.5111	243.582	3290.75	2577.55
800.6536	245.8053	3289	2592.9
800.7961	248.0281	3295.65	2601.5
800.9387	250.2503	3305	2605.85
801.0812	252.472	3323.6	2621.2
801.2238	254.6932	3328.8	2628.55
801.3664	256.9139	3325.75	2624.05
801.509	259.134	3348.1	2641.9
801.6516	261.3536	3379.9	2677.55
801.7942	263.5727	3421.65	2717.15
801.9369	265.7912	3487.1	2783.35
802.0795	268.0092	3584.65	2878.5
802.2222	270.2267	3655.75	2951.4
802.3649	272.4436	3737.75	3027.8
802.5076	274.6601	3787.75	3068.3
802.6504	276.8759	3820.15	3107.6
802.7931	279.0913	3849.95	3134.7
802.9359	281.3061	3863.2	3147.35
803.0787	283.5204	3907.15	3189.8
803.2215	285.7341	3941.25	3218
803.3643	287.9473	3975.6	3252.15
803.5071	290.16	3971.15	3247.3
803.6499	292.3721	3931.35	3212.25
803.7928	294.5837	3862.3	3142.9
803.9357	296.7947	3799.25	3080.45
804.0786	299.0052	3768.2	3044.65
804.2215	301.2152	3736.15	3010.05
804.3644	303.4246	3736.8	3015.6
804.5074	305.6334	3713.1	2990.4
804.6503	307.8418	3701.8	2972.85
804.7933	310.0495	3680.65	2953.2
804.9363	312.2568	3637.35	2911.45
805.0793	314.4635	3561.3	2831.6
805.2223	316.6696	3491.25	2758.6
805.3653	318.8752	3426.6	2686
805.5084	321.0802	3374.1	2639.65
805.6514	323.2847	3379	2641.6
805.7945	325.4887	3384.55	2647.65
805.9376	327.692	3398.65	2661.3
806.0807	329.8949	3464.2	2724.15
806.2238	332.0972	3532.9	2788.9
806.367	334.2989	3583.95	2841.15
806.5101	336.5001	3581.65	2837.5
806.6533	338.7007	3542.25	2797.65
806.7965	340.9008	3477.85	2729.2
806.9397	343.1003	3401.85	2650.6
807.0829	345.2992	3331.55	2579.7
807.2261	347.4976	3254.65	2504.35
807.3693	349.6955	3211.05	2455.3
807.5126	351.8927	3178.35	2422.65
807.6559	354.0895	3160	2393.25
807.7991	356.2856	3125.25	2367.75
807.9424	358.4812	3108.75	2351.35
808.0857	360.6763	3105.45	2341.25
808.2291	362.8707	3102.65	2341.75
808.3724	365.0646	3109.85	2342.9
808.5158	367.258	3120.2	2353.45
808.6591	369.4508	3138.2	2367.85
808.8025	371.643	3171.3	2402.95
808.9459	373.8346	3215.95	2442.75
809.0893	376.0257	3260.55	2487.15
809.2327	378.2162	3313.05	2542.45
809.3762	380.4062	3334.1	2560.8
809.5196	382.5956	3304	2531.95
809.6631	384.7844	3245.1	2478
809.8066	386.9726	3177.45	2412.85
809.9501	389.1603	3121.95	2358.85
810.0936	391.3474	3135.55	2333.8
810.2371	393.5339	3088.95	2319.8
810.3806	395.7199	3109.05	2343.6
810.5241	397.9052	3134.5	2368.1
810.6677	400.09	3213.5	2445.2
810.8113	402.2743	3274.95	2505.75
810.9548	404.4579	3329.7	2557.15
811.0984	406.641	3386.6	2613.8
811.2421	408.8235	3440.55	2665.35
811.3857	411.0054	3507.1	2731.75
811.5293	413.1868	3575.25	2793.95
811.673	415.3675	3613.35	2830.2
811.8166	417.5477	3612.55	2830.8
811.9603	419.7273	3563.75	2778.05
812.104	421.9064	3476.7	2683.3
812.2477	424.0848	3400.9	2613.6
812.3914	426.2627	3295.3	2506.8
812.5351	428.4399	3201.7	2412.75
812.6788	430.6166	3126.8	2334.45
812.8226	432.7928	3052.4	2257.35
812.9663	434.9683	3015.9	2222.4
813.1101	437.1432	2985	2190.95
813.2539	439.3176	2927.4	2134.9
813.3977	441.4914	2904.35	2111.9
813.5415	443.6645	2922.5	2129.8
813.6853	445.8371	2912.6	2118.9
813.8291	448.0091	2915.45	2118.45
813.973	450.1806	2902.8	2107
814.1168	452.3514	2896.2	2098.2
814.2607	454.5216	2905.45	2101.45
814.4046	456.6913	2908.1	2105.55
814.5485	458.8603	2894.3	2096
814.6924	461.0288	2901.45	2104.7
814.8363	463.1967	2902.1	2102.35
814.9802	465.3639	2908.85	2106.6
815.1241	467.5306	2897.85	2097.75
815.2681	469.6967	2898.35	2097.7
815.412	471.8622	2875.2	2077.95
815.556	474.0271	2868.35	2070.6
815.7	476.1914	2867.75	2065.2
815.844	478.3551	2853.05	2051.4
815.988	480.5182	2849.4	2048.35
816.132	482.6807	2856.95	2054.3
816.276	484.8426	2882.15	2081.55
816.4201	487.0039	2946.3	2144.5
816.5641	489.1647	3020.8	2212.6
816.7082	491.3248	3101.95	2295
816.8522	493.4843	3112.1	2305.4
816.9963	495.6432	3102.05	2294.6
817.1404	497.8015	3057.85	2247.55
817.2845	499.9592	2987.8	2179.25
817.4286	502.1163	2933.65	2124.25
817.5727	504.2728	2856.7	2046.4
817.7168	506.4287	2814.15	2007.05
817.861	508.5839	2791.95	1982.85
818.0051	510.7386	2775.7	1966.55
818.1493	512.8927	2778.35	1958.4
818.2935	515.0461	2807.6	1993.35
818.4377	517.199	2821.2	2007.05
818.5818	519.3512	2882.4	2067.95
818.726	521.5029	2985.45	2166.65
818.8703	523.6539	3064.75	2248.05
819.0145	525.8043	3090.15	2272.45
819.1587	527.9541	3020.85	2200.5
819.303	530.1033	2908.8	2091.85
819.4472	532.2519	2828.2	2010.45
819.5915	534.3999	2804.5	1983.65
819.7357	536.5472	2783.25	1965
819.88	538.694	2790.65	1971.9
820.0243	540.8401	2804.05	1981.75
820.1686	542.9856	2829.9	2006.6
820.3129	545.1305	2842.45	2014.85
820.4572	547.2748	2867.85	2043.85
820.6016	549.4185	2878.75	2052.1
820.7459	551.5615	2881.1	2057.25
820.8902	553.704	2917.3	2092.35
821.0346	555.8458	2925.1	2102.7
821.1789	557.987	2966.35	2143.6
821.3233	560.1276	3006.5	2181.5
821.4677	562.2675	3092.6	2266.05
821.6121	564.4069	3192.45	2366.55
821.7565	566.5456	3266.05	2440.2
821.9009	568.6837	3235.55	2412.45
822.0453	570.8212	3129.85	2307.35
822.1897	572.958	2984.7	2159.6
822.3342	575.0942	2879	2053.45
822.4786	577.2299	2841.15	2016.45
822.6231	579.3648	2798.65	1977.15
822.7675	581.4992	2784.5	1961.65
822.912	583.6329	2785.4	1960.2
823.0565	585.766	2844.75	2020.7
823.201	587.8985	2898.6	2076.3
823.3454	590.0304	2986.8	2147.9
823.4899	592.1616	3025.6	2194.85
823.6345	594.2922	3039.95	2208.25
823.779	596.4222	2979.75	2145.55
823.9235	598.5515	2904.2	2069
824.068	600.6802	2818.75	1983.3
824.2126	602.8083	2749.15	1916.4
824.3571	604.9358	2712.6	1877.6
824.5017	607.0626	2715.2	1881.6
824.6462	609.1888	2717.5	1881.25
824.7908	611.3144	2751.45	1916.3
824.9354	613.4393	2822.45	1988.8
825.08	615.5636	2887.1	2051.5
825.2246	617.6873	2966	2128.6
825.3692	619.8103	3009.4	2172.05
825.5138	621.9327	3027.15	2188.25
825.6584	624.0544	2971.1	2133.5
825.803	626.1756	2884.2	2049.25
825.9477	628.2961	2797.6	1958.9
826.0923	630.4159	2758.95	1920.3
826.237	632.5351	2752.35	1912.6
826.3816	634.6537	2730.6	1888.5
826.5263	636.7716	2713.2	1871.05
826.6709	638.8889	2719.1	1875.45
826.8156	641.0056	2726.15	1882.85
826.9603	643.1216	2740.35	1896.7
827.105	645.237	2745.4	1899.8
827.2497	647.3518	2713.25	1872
827.3944	649.4659	2685.35	1845.55
827.5391	651.5793	2658.35	1817.4
827.6838	653.6922	2623.75	1784.35
827.8285	655.8043	2608.5	1767.05
827.9733	657.9159	2582.05	1738.55
828.118	660.0268	2569.65	1725.05
828.2627	662.137	2565.1	1720.65
828.4075	664.2466	2575.9	1729.6
828.5522	666.3556	2584.75	1738.85
828.697	668.4639	2567.2	1719.65
828.8418	670.5716	2554.65	1709.65
828.9865	672.6786	2550.25	1701.8
829.1313	674.785	2541.8	1694.05
829.2761	676.8907	2525.25	1676.95
829.4209	678.9958	2516.25	1671.15
829.5657	681.1002	2514.5	1664.65
829.7105	683.204	2527.8	1673.6
829.8553	685.3072	2520.95	1669.2
830.0001	687.4097	2516.85	1666.8
830.1449	689.5115	2517.6	1665.4
830.2898	691.6127	2519.5	1669.8
830.4346	693.7132	2514.3	1664.65
830.5794	695.8131	2512.95	1656.65
830.7243	697.9123	2519.7	1667.2
830.8691	700.0109	2509.95	1658.25
831.014	702.1089	2523.15	1671.95
831.1588	704.2061	2555.25	1705.45
831.3037	706.3028	2574.2	1718.85
831.4486	708.3987	2621.6	1768
831.5935	710.4941	2644.4	1792.7
831.7383	712.5887	2652.6	1797.8
831.8832	714.6827	2650.1	1791.85
832.0281	716.7761	2633.6	1781.6
832.173	718.8688	2620.4	1765.15
832.3179	720.9608	2629.8	1771.05
832.4628	723.0522	2632.3	1771.8
832.6077	725.1429	2658.85	1802.6
832.7527	727.233	2721.6	1865.25
832.8976	729.3224	2803.55	1949.5
833.0425	731.4112	2889.5	2030.25
833.1874	733.4993	2916.75	2059.45
833.3324	735.5867	2853	1994.9
833.4773	737.6735	2747.85	1887.5
833.6222	739.7596	2652.1	1791.8
833.7672	741.845	2594.4	1735.65
833.9122	743.9298	2578	1717.2
834.0571	746.014	2583.6	1725.25
834.2021	748.0974	2586.65	1725.45
834.347	750.1802	2586.7	1724.3
834.492	752.2624	2576.85	1715.95
834.637	754.3439	2581.6	1720
834.782	756.4247	2582.05	1712.3
834.9269	758.5048	2571.2	1708.9
835.0719	760.5843	2600.05	1738.35
835.2169	762.6631	2643.4	1780.05
835.3619	764.7413	2721.2	1860.3
835.5069	766.8188	2845.55	1979.35
835.6519	768.8956	2980	2119
835.7969	770.9718	3070.05	2208.8
835.9419	773.0473	3052.75	2192.05
836.0869	775.1221	2997.05	2135.5
836.232	777.1962	2981.6	2120.15
836.377	779.2697	3061.55	2195.8
836.522	781.3426	3224.95	2344.7
836.667	783.4147	3332	2463.8
836.8121	785.4862	3337.65	2474.35
836.9571	787.557	3216	2352.8
837.1021	789.6271	3007.85	2139.15
837.2472	791.6966	2818.1	1954.9
837.3922	793.7654	2660.2	1793.2
837.5373	795.8335	2570.45	1708.4
837.6823	797.901	2511.85	1646.65
837.8274	799.9678	2496.8	1629
837.9724	802.0339	2501.3	1634.75
838.1175	804.0993	2531.9	1653.65
838.2626	806.1641	2505.35	1638.6
838.4076	808.2282	2471.95	1605.95
838.5527	810.2916	2459.2	1588.35
838.6978	812.3544	2429.85	1563.65
838.8428	814.4164	2413.75	1547.55
838.9879	816.4778	2419.75	1549.8
839.133	818.5385	2450.65	1582.15
839.2781	820.5986	2489.7	1621.5
839.4232	822.658	2562.35	1694.45
839.5682	824.7166	2657.5	1788.55
839.7133	826.7747	2786.65	1918.65
839.8584	828.832	2916.15	2048.6
840.0035	830.8886	3003	2134.05
840.1486	832.9446	3042.9	2172.4
840.2937	834.9999	3005.8	2136.75
840.4388	837.0545	2908	2037.3
840.5839	839.1085	2770.8	1903.55
840.729	841.1618	2658.8	1783.8
840.8741	843.2143	2568.65	1701.05
841.0192	845.2662	2519.25	1648.2
841.1643	847.3175	2491.25	1618.75
841.3095	849.368	2470.65	1600
841.4546	851.4179	2471.45	1598.5
841.5997	853.467	2467.2	1597.05
841.7448	855.5155	2479.45	1608.55
841.8899	857.5633	2490.2	1619.95
842.0351	859.6105	2472.85	1600.6
842.1802	861.6569	2455.8	1585.1
842.3253	863.7027	2434.25	1560.9
842.4704	865.7478	2413.2	1540.9
842.6156	867.7922	2395.75	1524.95
842.7607	869.8359	2378.3	1504.65
842.9058	871.8789	2377.15	1503.55
843.0509	873.9212	2406.8	1502
843.1961	875.9629	2380.4	1507.8
843.3412	878.0039	2391.85	1518.15
843.4863	880.0441	2417.7	1546.65
843.6315	882.0837	2454.4	1582.5
843.7766	884.1226	2477.05	1601.15
843.9218	886.1609	2533.6	1660.4
844.0669	888.1984	2611.1	1737.05
844.212	890.2352	2690.2	1815.7
844.3572	892.2714	2711.35	1836.05
844.5023	894.3069	2675.7	1801.05
844.6475	896.3416	2587.6	1710.55
844.7926	898.3757	2515	1638.45
844.9377	900.4091	2469	1591.85
845.0829	902.4418	2490.4	1612.05
845.228	904.4739	2512.45	1635.5
845.3732	906.5052	2542.55	1667.85
845.5183	908.5358	2535.6	1659.6
845.6635	910.5658	2505.9	1624.9
845.8086	912.595	2458.75	1580.9
845.9538	914.6236	2404.25	1527.4
846.0989	916.6515	2366.1	1490.8
846.2441	918.6786	2324.8	1445.6
846.3892	920.7051	2321.75	1443
846.5344	922.7309	2310.55	1433.55
846.6795	924.756	2305.8	1429.35
846.8246	926.7804	2324.8	1447.1
846.9698	928.8041	2348.2	1471
847.1149	930.8272	2375.6	1496.95
847.2601	932.8495	2383.7	1504.85
847.4052	934.8711	2389.75	1510.6
847.5504	936.892	2404.35	1526.1
847.6955	938.9123	2440	1560.85
847.8407	940.9318	2468.7	1589.8
847.9858	942.9506	2489.55	1612.7
848.131	944.9688	2485.3	1607.95
848.2761	946.9862	2466.35	1588.35
848.4213	949.003	2402.55	1524.15
848.5664	951.019	2362.45	1482.1
848.7115	953.0344	2333.2	1454.65
848.8567	955.0491	2316.1	1431.85
849.0018	957.063	2292.6	1415.05
849.147	959.0763	2300.1	1420.7
849.2921	961.0888	2300.8	1419.55
849.4373	963.1007	2289.65	1410.3
849.5824	965.1119	2284	1406.85
849.7275	967.1223	2278.85	1403.8
849.8727	969.1321	2249.15	1373.8
850.0178	971.1412	2256.25	1378.7
850.1629	973.1495	2256.75	1377.25
850.3081	975.1572	2267.55	1357.4
850.4532	977.1641	2252.55	1371.2
850.5983	979.1704	2253.4	1373.6
850.7435	981.1759	2255.65	1370.5
850.8886	983.1808	2243.15	1359.45
851.0337	985.1849	2236.95	1343.9
851.1788	987.1884	2233.1	1350
851.324	989.1911	2228.4	1347.65
851.4691	991.1932	2240.25	1356.5
851.6142	993.1945	2246.7	1364.8
851.7593	995.1951	2241.5	1360.85
851.9045	997.1951	2243.6	1358.55
852.0496	999.1943	2230.75	1351.1
852.1947	1001.1928	2226.25	1342.7
852.3398	1003.1906	2254.1	1372.45
852.4849	1005.1877	2283.85	1401.05
852.63	1007.1841	2329.05	1447.8
852.7751	1009.1798	2344.4	1463.05
852.9202	1011.1748	2330.25	1447.8
853.0653	1013.1691	2295.7	1414.45
853.2104	1015.1627	2260.85	1380.6
853.3555	1017.1556	2197.7	1317.7
853.5006	1019.1477	2171.7	1289.05
853.6457	1021.1392	2156.3	1276.6
853.7908	1023.1299	2135.6	1255.2
853.9359	1025.12	2128.35	1247.7
854.081	1027.1093	2150.35	1275.2
854.2261	1029.0979	2172.85	1300.6
854.3712	1031.0859	2193.5	1317.55
854.5163	1033.0731	2216.7	1338.2
854.6613	1035.0596	2218.15	1336.2
854.8064	1037.0454	2205.75	1324.75
854.9515	1039.0304	2196.9	1316.85
855.0965	1041.0148	2181.1	1298.15
855.2416	1042.9985	2145.6	1261.25
855.3867	1044.9814	2121.15	1238.35
855.5317	1046.9636	2109.45	1227.3
855.6768	1048.9452	2121.1	1238.55
855.8219	1050.926	2144.4	1263.3
855.9669	1052.9061	2163.05	1280.15
856.112	1054.8855	2187.25	1304.05
856.257	1056.8642	2189.95	1308.55
856.4021	1058.8421	2184.85	1297.6
856.5471	1060.8194	2184.1	1302.35
856.6921	1062.7959	2185.05	1300.5
856.8372	1064.7717	2166.55	1280.4
856.9822	1066.7469	2159.95	1275.7
857.1272	1068.7213	2170.55	1283.4
857.2723	1070.695	2184.75	1302.95
857.4173	1072.6679	2221.65	1335.45
857.5623	1074.6402	2244.2	1358.55
857.7073	1076.6117	2282	1390.5
857.8523	1078.5826	2260.3	1375.7
857.9973	1080.5527	2205.05	1318
858.1423	1082.5221	2140.1	1254.65
858.2873	1084.4908	2106.35	1222.05
858.4323	1086.4587	2086.2	1201
858.5773	1088.426	2063.6	1177.95
858.7223	1090.3925	2052.2	1163.45
858.8673	1092.3584	2069.8	1184.6
859.0123	1094.3235	2070.75	1189.25
859.1573	1096.2879	2099.7	1213.45
859.3022	1098.2515	2135.15	1249.95
859.4472	1100.2145	2173.25	1289.9
859.5922	1102.1767	2220.9	1334.25
859.7371	1104.1382	2280.2	1395.2
859.8821	1106.099	2361.55	1476
860.027	1108.0591	2438.6	1551.5
860.172	1110.0185	2491.65	1604.55
860.3169	1111.9771	2548.05	1661.9
860.4619	1113.9351	2611.6	1725.15
860.6068	1115.8923	2723.95	1838.9
860.7517	1117.8488	2786.1	1899.95
860.8967	1119.8045	2725.25	1842.15
861.0416	1121.7596	2584.3	1697.2
861.1865	1123.7139	2419.8	1536.9
861.3314	1125.6675	2324.45	1439.35
861.4763	1127.6204	2310.4	1425.05
861.6212	1129.5726	2345.6	1454
861.7661	1131.524	2353.55	1468.5
861.911	1133.4748	2308.3	1422.2
862.0559	1135.4248	2217.95	1331.45
862.2008	1137.3741	2137.9	1250.55
862.3457	1139.3226	2095.9	1206.9
862.4905	1141.2705	2077.3	1191.4
862.6354	1143.2176	2099	1208.1
862.7803	1145.164	2119.05	1231.5
862.9251	1147.1097	2122.1	1235.8
863.07	1149.0546	2089.05	1201.6
863.2148	1150.9989	2067.15	1180.1
863.3597	1152.9424	2025.85	1140.6
863.5045	1154.8852	2006.65	1120.25
863.6493	1156.8272	1991.05	1102.25
863.7942	1158.7686	1992.3	1097.65
863.939	1160.7092	1979.05	1090.65
864.0838	1162.6491	1999	1109.4
864.2286	1164.5883	2014	1127.85
864.3734	1166.5267	2023.35	1133.2
864.5182	1168.4644	2053.6	1167.85
864.663	1170.4014	2092.95	1205.8
864.8078	1172.3377	2150.45	1264.4
864.9526	1174.2732	2229.7	1342
865.0974	1176.2081	2361.25	1476.25
865.2421	1178.1421	2545.1	1656.95
865.3869	1180.0755	2733.15	1849.45
865.5317	1182.0082	2851.1	1963.9
865.6764	1183.9401	2850.3	1964.3
865.8212	1185.8713	2702.95	1816.45
865.9659	1187.8017	2513.15	1630.3
866.1106	1189.7315	2339.3	1457.4
866.2554	1191.6605	2229.75	1320.9
866.4001	1193.5888	2135.05	1250.65
866.5448	1195.5163	2092.8	1208.8
866.6895	1197.4432	2058.45	1172.4
866.8342	1199.3693	2034.45	1148.8
866.9789	1201.2947	2023.6	1132.25
867.1236	1203.2193	2009.75	1121.45
867.2683	1205.1432	1990.4	1101.85
867.413	1207.0664	1993.65	1104.5
867.5576	1208.9889	1992.1	1102.5
867.7023	1210.9106	1989.15	1099.8
867.847	1212.8316	1988.65	1101.6
867.9916	1214.7519	2025.75	1130.4
868.1363	1216.6715	2033.05	1145.25
868.2809	1218.5903	2055.55	1169.95
868.4255	1220.5084	2066.65	1179
868.5701	1222.4257	2078.95	1191.8
868.7148	1224.3424	2094.55	1208
868.8594	1226.2583	2132.9	1238.55
869.004	1228.1735	2155.85	1266.85
869.1486	1230.0879	2216.8	1330.25
869.2932	1232.0016	2275.2	1387.05
869.4377	1233.9146	2327.75	1439.95
869.5823	1235.8269	2353.95	1465.85
869.7269	1237.7384	2367.75	1480.6
869.8715	1239.6492	2353.9	1466.4
