Software Version:	3.9.2.0
Unit SN:	10000200
Spectrometer SN:	6960
Date:	3/8/2024 11:38:53 AM
Data Line Index:	25
Spectral Points:	2048
Integration time (ms):	125
Averages:	20
Delay (ms):	30000
Sequence Number:	1
Processing:	dark subtract
Laser Power (mW):	300
Laser Current (mA):	823
Laser Diode Temp (C):	25
Laser Case Temp (C):	25.2
System Temp (C):	25.2
Spectrometer Temp (C):	23
CCD Temp (C):	0.005
Secondary Temp (C):	20.008
Heatsink Temp (C):	19.944
CCDPCB Temp (C):	34.551
SecondaryPCB Temp (C):	27.648

Wavelength	RamanShift	Raw Counts	Dark Subtracted
787.061	30.1047	413.75	5
787.2016	32.3739	413.95	6.5
787.3422	34.6426	415.8	6.4
787.4828	36.9109	417.25	7.6
787.6235	39.1787	424.35	8.8
787.7642	41.4461	425.8	7.8
787.9049	43.7131	431.1	9.8
788.0456	45.9796	434.95	9.35
788.1863	48.2456	437.8	9.8
788.3271	50.5112	445	13.3
788.4679	52.7764	445.65	10.45
788.6087	55.0411	452	11.5
788.7496	57.3054	456.4	8.95
788.8904	59.5692	461.15	13.8
789.0313	61.8326	464.7	15.15
789.1722	64.0955	467.85	16.65
789.3132	66.3579	475.35	19.45
789.4541	68.6199	483.05	19.1
789.5951	70.8815	494.15	27.5
789.7361	73.1426	508.3	38.45
789.8771	75.4032	546	72
790.0181	77.6634	623.7	147.15
790.1592	79.9231	809.95	329.65
790.3003	82.1824	1184.5	697.55
790.4414	84.4412	1801.75	1300.7
790.5825	86.6995	2555.2	2039.65
790.7237	88.9574	3292.2	2768.75
790.8648	91.2148	3808.45	3276.6
791.006	93.4717	4010.3	3472.15
791.1472	95.7282	4025	3482.85
791.2885	97.9842	4010.4	3465.2
791.4297	100.2398	3957.65	3409.2
791.571	102.4949	3885.75	3333.9
791.7123	104.7495	3872.5	3318.1
791.8536	107.0036	3804.5	3245.5
791.9949	109.2573	3713.85	3159.45
792.1363	111.5105	3615.7	3058.45
792.2777	113.7632	3521.9	2963.25
792.4191	116.0154	3410.85	2838.3
792.5605	118.2672	3291.3	2727.4
792.7019	120.5185	3166.95	2601.9
792.8434	122.7693	3075.85	2506.05
792.9849	125.0197	2970.3	2397.55
793.1264	127.2696	2893.7	2317.65
793.2679	129.519	2847.55	2267.9
793.4094	131.7679	2803	2217.85
793.551	134.0163	2777.45	2194.2
793.6926	136.2642	2774.4	2187.1
793.8342	138.5117	2759.7	2167.75
793.9758	140.7587	2729.05	2139.2
794.1175	143.0052	2689.4	2092.65
794.2591	145.2512	2633.15	2037.5
794.4008	147.4967	2575.15	1978.6
794.5425	149.7417	2521.85	1920.15
794.6842	151.9863	2502.65	1898.95
794.826	154.2304	2490.6	1882.6
794.9677	156.4739	2483.4	1871.55
795.1095	158.717	2496.1	1880.95
795.2513	160.9596	2515.85	1895.75
795.3931	163.2017	2553.9	1931.75
795.535	165.4433	2564.75	1944.15
795.6768	167.6844	2550.25	1925.25
795.8187	169.925	2514.4	1885.75
795.9606	172.1651	2455.95	1823.8
796.1025	174.4047	2408.65	1775.1
796.2445	176.6439	2364.1	1727.65
796.3864	178.8825	2332.1	1693.5
796.5284	181.1206	2313.6	1668.05
796.6704	183.3582	2306.5	1659.05
796.8124	185.5954	2292.4	1642.15
796.9544	187.832	2303.9	1650.35
797.0965	190.0681	2309.8	1655.85
797.2386	192.3037	2310.85	1654.5
797.3806	194.5388	2321.05	1655.75
797.5228	196.7734	2327.1	1663.2
797.6649	199.0075	2341.9	1675.15
797.807	201.2411	2375.6	1709.8
797.9492	203.4742	2382.5	1716.05
798.0914	205.7068	2426	1754.05
798.2336	207.9389	2441.65	1767.25
798.3758	210.1704	2443.15	1774.85
798.518	212.4015	2438.55	1781.2
798.6603	214.632	2446.45	1795.75
798.8025	216.862	2458.2	1808.5
798.9448	219.0915	2465.45	1814.6
799.0871	221.3205	2481.75	1825.9
799.2294	223.549	2485.05	1833.1
799.3718	225.777	2475.35	1824.6
799.5141	228.0044	2488.65	1830.65
799.6565	230.2314	2479.65	1818.4
799.7989	232.4578	2461.15	1797.6
799.9413	234.6837	2452.9	1782.55
800.0837	236.909	2440.8	1769.15
800.2262	239.1339	2443	1744.45
800.3687	241.3582	2431.05	1746.8
800.5111	243.582	2439.85	1724.15
800.6536	245.8053	2455.05	1755.7
800.7961	248.0281	2444.2	1745.6
800.9387	250.2503	2460.45	1764
801.0812	252.472	2474.6	1773.3
801.2238	254.6932	2487.5	1788.75
801.3664	256.9139	2479.7	1776.2
801.509	259.134	2508.3	1800.2
801.6516	261.3536	2524.45	1821.4
801.7942	263.5727	2562.4	1858.8
801.9369	265.7912	2621.35	1914.6
802.0795	268.0092	2686.85	1980.5
802.2222	270.2267	2751.65	2044.4
802.3649	272.4436	2808.3	2097.35
802.5076	274.6601	2850.7	2126.5
802.6504	276.8759	2864.65	2149.15
802.7931	279.0913	2886.25	2167.75
802.9359	281.3061	2902.2	2185
803.0787	283.5204	2941.3	2219.35
803.2215	285.7341	2958.65	2235.35
803.3643	287.9473	2980.25	2257.3
803.5071	290.16	2991.7	2263.2
803.6499	292.3721	2937.75	2215.6
803.7928	294.5837	2905.8	2184.15
803.9357	296.7947	2875.85	2155.1
804.0786	299.0052	2850.8	2124.7
804.2215	301.2152	2843.55	2116.4
804.3644	303.4246	2812.25	2091.45
804.5074	305.6334	2795.7	2072.25
804.6503	307.8418	2775.55	2046.15
804.7933	310.0495	2744.85	2015.15
804.9363	312.2568	2706.9	1978.15
805.0793	314.4635	2671.05	1941.1
805.2223	316.6696	2612.6	1879.05
805.3653	318.8752	2566.1	1823.8
805.5084	321.0802	2527	1790.7
805.6514	323.2847	2526.85	1786.4
805.7945	325.4887	2530.6	1792.95
805.9376	327.692	2558.1	1818.9
806.0807	329.8949	2602.7	1858.95
806.2238	332.0972	2649.45	1903.95
806.367	334.2989	2667.15	1922.65
806.5101	336.5001	2649.75	1904.1
806.6533	338.7007	2623.2	1878.5
806.7965	340.9008	2580.5	1833.65
806.9397	343.1003	2516.1	1763
807.0829	345.2992	2473.55	1721.4
807.2261	347.4976	2435.45	1681.9
807.3693	349.6955	2394.55	1635.65
807.5126	351.8927	2370.9	1614.15
807.6559	354.0895	2363.3	1594.85
807.7991	356.2856	2344.55	1584.9
807.9424	358.4812	2323.8	1565.4
808.0857	360.6763	2329.7	1570.15
808.2291	362.8707	2322.55	1560.15
808.3724	365.0646	2329.8	1562.1
808.5158	367.258	2351.05	1581.6
808.6591	369.4508	2357.4	1587
808.8025	371.643	2396.9	1623.95
808.9459	373.8346	2424.95	1652.8
809.0893	376.0257	2444.05	1667.95
809.2327	378.2162	2490.3	1713
809.3762	380.4062	2492.8	1718.2
809.5196	382.5956	2458.7	1686.45
809.6631	384.7844	2420.45	1650.9
809.8066	386.9726	2379.15	1610.65
809.9501	389.1603	2358.7	1591.7
810.0936	391.3474	2364.6	1564.3
810.2371	393.5339	2338.25	1566.4
810.3806	395.7199	2341.9	1575.8
810.5241	397.9052	2377.25	1610.9
810.6677	400.09	2421.3	1650.45
810.8113	402.2743	2462.05	1691.1
810.9548	404.4579	2516.15	1744
811.0984	406.641	2559.2	1781.7
811.2421	408.8235	2615.65	1842.55
811.3857	411.0054	2664.6	1886.7
811.5293	413.1868	2710.55	1927.65
811.673	415.3675	2767.75	1983.05
811.8166	417.5477	2762.45	1976.8
811.9603	419.7273	2697.5	1910.75
812.104	421.9064	2627.85	1833.15
812.2477	424.0848	2561.7	1773
812.3914	426.2627	2486.5	1697.6
812.5351	428.4399	2431.7	1643.05
812.6788	430.6166	2369.8	1576.2
812.8226	432.7928	2318.5	1522
812.9663	434.9683	2272.4	1476.75
813.1101	437.1432	2245.3	1450.25
813.2539	439.3176	2222.75	1429.55
813.3977	441.4914	2207.35	1413.45
813.5415	443.6645	2213.75	1416.65
813.6853	445.8371	2199.15	1402.35
813.8291	448.0091	2202.35	1405.7
813.973	450.1806	2207.1	1411.35
814.1168	452.3514	2208.55	1409.65
814.2607	454.5216	2212	1403.9
814.4046	456.6913	2192.65	1390.5
814.5485	458.8603	2204.8	1403.75
814.6924	461.0288	2200.75	1403.25
814.8363	463.1967	2201.8	1403.05
814.9802	465.3639	2207.25	1406.4
815.1241	467.5306	2196.6	1395.4
815.2681	469.6967	2192.45	1392.5
815.412	471.8622	2183.4	1382.1
815.556	474.0271	2185.45	1386.05
815.7	476.1914	2182.05	1377.05
815.844	478.3551	2171.1	1367.05
815.988	480.5182	2181.5	1378.5
816.132	482.6807	2181.9	1377
816.276	484.8426	2196.4	1396.3
816.4201	487.0039	2245.5	1444.3
816.5641	489.1647	2307.7	1502
816.7082	491.3248	2363.05	1555.05
816.8522	493.4843	2372.25	1567.55
816.9963	495.6432	2352.05	1543.9
817.1404	497.8015	2328.7	1516.65
817.2845	499.9592	2286.5	1476.3
817.4286	502.1163	2225.75	1412.5
817.5727	504.2728	2175.85	1362.65
817.7168	506.4287	2157.05	1348
817.861	508.5839	2133.95	1324.5
818.0051	510.7386	2124.7	1313.8
818.1493	512.8927	2145.4	1323.8
818.2935	515.0461	2135.4	1322.15
818.4377	517.199	2163.8	1346.45
818.5818	519.3512	2211.2	1396.45
818.726	521.5029	2292.7	1473.9
818.8703	523.6539	2349.35	1533.1
819.0145	525.8043	2365.8	1547.5
819.1587	527.9541	2295.9	1477.1
819.303	530.1033	2221.1	1400.75
819.4472	532.2519	2170.3	1352.05
819.5915	534.3999	2143.95	1320.5
819.7357	536.5472	2138.2	1317.25
819.88	538.694	2137.45	1316.45
820.0243	540.8401	2154.05	1332.1
820.1686	542.9856	2161.15	1336
820.3129	545.1305	2185.2	1358.95
820.4572	547.2748	2195.55	1368.8
820.6016	549.4185	2219.3	1390.6
820.7459	551.5615	2220.65	1392.75
820.8902	553.704	2247	1417.85
821.0346	555.8458	2258.1	1430.25
821.1789	557.987	2281.1	1455.9
821.3233	560.1276	2306.05	1479.55
821.4677	562.2675	2373.35	1549.75
821.6121	564.4069	2448.65	1622
821.7565	566.5456	2497.95	1673.3
821.9009	568.6837	2475.55	1650.45
822.0453	570.8212	2401	1577.6
822.1897	572.958	2307.35	1482.6
822.3342	575.0942	2243.3	1418.9
822.4786	577.2299	2205.25	1381.15
822.6231	579.3648	2175.35	1354.35
822.7675	581.4992	2148.9	1329.3
822.912	583.6329	2169.15	1347.9
823.0565	585.766	2198.1	1374.15
823.201	587.8985	2251	1425.85
823.3454	590.0304	2304.25	1463.8
823.4899	592.1616	2339.6	1507.95
823.6345	594.2922	2340.1	1505.9
823.779	596.4222	2286.05	1452.15
823.9235	598.5515	2227.2	1392.6
824.068	600.6802	2159.35	1325.1
824.2126	602.8083	2123.3	1290.95
824.3571	604.9358	2109.35	1273.55
824.5017	607.0626	2100.75	1264.85
824.6462	609.1888	2111.5	1271.15
824.7908	611.3144	2151.45	1311.3
824.9354	613.4393	2184.85	1347.15
825.08	615.5636	2236.6	1400.4
825.2246	617.6873	2298.3	1460.25
825.3692	619.8103	2319.85	1479
825.5138	621.9327	2320.5	1480.05
825.6584	624.0544	2270.4	1433.3
825.803	626.1756	2225.1	1386.3
825.9477	628.2961	2164.65	1326.6
826.0923	630.4159	2143.15	1301.15
826.237	632.5351	2135.8	1294.1
826.3816	634.6537	2134.65	1292.75
826.5263	636.7716	2117.85	1275.8
826.6709	638.8889	2105.4	1259.65
826.8156	641.0056	2115.8	1270.75
826.9603	643.1216	2121.65	1277.7
827.105	645.237	2111.7	1264.6
827.2497	647.3518	2107.95	1264.6
827.3944	649.4659	2075.6	1234.95
827.5391	651.5793	2062.95	1222.15
827.6838	653.6922	2050.4	1207.25
827.8285	655.8043	2038.45	1196.2
827.9733	657.9159	2011.5	1166.25
828.118	660.0268	2019.05	1172.05
828.2627	662.137	2012.3	1166.35
828.4075	664.2466	2012.05	1164.15
828.5522	666.3556	2011.6	1163.95
828.697	668.4639	2003.95	1155.75
828.8418	670.5716	1989.4	1142.95
828.9865	672.6786	1986.7	1138.05
829.1313	674.785	1979.85	1127.95
829.2761	676.8907	1981.7	1133.55
829.4209	678.9958	1974.75	1127.6
829.5657	681.1002	1974.5	1126.8
829.7105	683.204	1975.2	1118
829.8553	685.3072	1977.6	1126.35
830.0001	687.4097	1983.6	1133.2
830.1449	689.5115	1983.35	1129.05
830.2898	691.6127	1974.85	1123.85
830.4346	693.7132	1973.95	1124.2
830.5794	695.8131	1978.9	1113.65
830.7243	697.9123	1979	1126.35
830.8691	700.0109	1979.45	1126.65
831.014	702.1089	1985.65	1134.2
831.1588	704.2061	2015.3	1162.25
831.3037	706.3028	2040.45	1182.65
831.4486	708.3987	2064.15	1209.4
831.5935	710.4941	2067.75	1213.05
831.7383	712.5887	2074.2	1220
831.8832	714.6827	2077.45	1220.6
832.0281	716.7761	2069	1216.6
832.173	718.8688	2061.9	1205.85
832.3179	720.9608	2068.45	1206.5
832.4628	723.0522	2093.3	1231.85
832.6077	725.1429	2107.55	1250.6
832.7527	727.233	2140.1	1280.65
832.8976	729.3224	2235.6	1380.05
833.0425	731.4112	2272.1	1414.05
833.1874	733.4993	2281.5	1420.3
833.3324	735.5867	2236.25	1378.3
833.4773	737.6735	2155.65	1294.6
833.6222	739.7596	2083.85	1223.05
833.7672	741.845	2058.75	1201.95
833.9122	743.9298	2052.45	1192.85
834.0571	746.014	2055.65	1194.05
834.2021	748.0974	2062	1201
834.347	750.1802	2065.2	1204.55
834.492	752.2624	2057.7	1195.65
834.637	754.3439	2041.8	1178.05
834.782	756.4247	2041.9	1171.35
834.9269	758.5048	2046.25	1182.25
835.0719	760.5843	2072.15	1210.7
835.2169	762.6631	2105.7	1243.9
835.3619	764.7413	2168.4	1306.9
835.5069	766.8188	2269.6	1406.45
835.6519	768.8956	2355.75	1489.85
835.7969	770.9718	2421.3	1557.95
835.9419	773.0473	2404.85	1540.7
836.0869	775.1221	2362.45	1496.85
836.232	777.1962	2353.9	1489.15
836.377	779.2697	2416.4	1552.35
836.522	781.3426	2541.05	1660.95
836.667	783.4147	2604.8	1741
836.8121	785.4862	2594.1	1728.75
836.9571	787.557	2486.35	1621.5
837.1021	789.6271	2341.5	1475.3
837.2472	791.6966	2211.45	1346.8
837.3922	793.7654	2089.4	1221.95
837.5373	795.8335	2049	1183
837.6823	797.901	2011.55	1146.05
837.8274	799.9678	1998.8	1131.5
837.9724	802.0339	1994.95	1130.65
838.1175	804.0993	2008.55	1131.35
838.2626	806.1641	1999.2	1132.3
838.4076	808.2282	1974.2	1107.75
838.5527	810.2916	1945.65	1077.6
838.6978	812.3544	1934.8	1068.5
838.8428	814.4164	1925.1	1060.25
838.9879	816.4778	1938.95	1070.6
839.133	818.5385	1945.5	1078.05
839.2781	820.5986	1977.4	1109.2
839.4232	822.658	2044.45	1176
839.5682	824.7166	2110.85	1239.9
839.7133	826.7747	2205.05	1337.3
839.8584	828.832	2301.6	1430.7
840.0035	830.8886	2372.9	1501.1
840.1486	832.9446	2397.65	1525.2
840.2937	834.9999	2341.25	1473.15
840.4388	837.0545	2283.35	1409.45
840.5839	839.1085	2175.65	1305
840.729	841.1618	2092.85	1219.05
840.8741	843.2143	2032.55	1163.55
841.0192	845.2662	2007.5	1137.95
841.1643	847.3175	1986.5	1115.05
841.3095	849.368	1977.75	1103.9
841.4546	851.4179	1970.8	1100
841.5997	853.467	1959.3	1089.25
841.7448	855.5155	1975.3	1103.4
841.8899	857.5633	1977.85	1106.8
842.0351	859.6105	1973.45	1102.55
842.1802	861.6569	1957.7	1087.2
842.3253	863.7027	1935.05	1062.4
842.4704	865.7478	1930.45	1058.75
842.6156	867.7922	1913	1037.75
842.7607	869.8359	1905.55	1032
842.9058	871.8789	1902.5	1029.4
843.0509	873.9212	1931	1022.8
843.1961	875.9629	1918.65	1045.55
843.3412	878.0039	1922.55	1049.45
843.4863	880.0441	1940.05	1066
843.6315	882.0837	1958.95	1087.6
843.7766	884.1226	1999.75	1125.1
843.9218	886.1609	2025.45	1153.45
844.0669	888.1984	2077.55	1203.8
844.212	890.2352	2137.1	1266
844.3572	892.2714	2154.15	1276.1
844.5023	894.3069	2117.45	1242.75
844.6475	896.3416	2064.2	1187.85
844.7926	898.3757	2017.25	1140.05
844.9377	900.4091	1991.1	1114.7
845.0829	902.4418	2001.55	1119.8
845.228	904.4739	2017.65	1139.1
845.3732	906.5052	2034.6	1158.05
845.5183	908.5358	2018.3	1141.9
845.6635	910.5658	1993.25	1114.95
845.8086	912.595	1962.85	1086.5
845.9538	914.6236	1911.8	1036.9
846.0989	916.6515	1889.7	1011.8
846.2441	918.6786	1867.05	988.5
846.3892	920.7051	1860.6	981.85
846.5344	922.7309	1856.35	979.95
846.6795	924.756	1869.45	988.45
846.8246	926.7804	1865.9	987.85
846.9698	928.8041	1876.95	997.45
847.1149	930.8272	1895.1	1016.1
847.2601	932.8495	1905.55	1025.85
847.4052	934.8711	1916.6	1036.3
847.5504	936.892	1930.15	1050.45
847.6955	938.9123	1946.1	1063.3
847.8407	940.9318	1971.3	1094.5
847.9858	942.9506	1989.6	1108.7
848.131	944.9688	1981.6	1101.7
848.2761	946.9862	1949.25	1070
848.4213	949.003	1909.9	1030.55
848.5664	951.019	1887.5	1008.25
848.7115	953.0344	1865.65	986.95
848.8567	955.0491	1860.7	980.85
849.0018	957.063	1853	974.45
849.147	959.0763	1846.7	967
849.2921	961.0888	1845.6	963
849.4373	963.1007	1843.7	965.9
849.5824	965.1119	1838.85	961.35
849.7275	967.1223	1828.25	951.4
849.8727	969.1321	1817.05	941.55
850.0178	971.1412	1819.05	942.7
850.1629	973.1495	1814.35	936.15
850.3081	975.1572	1837.05	925.55
850.4532	977.1641	1819.65	938.7
850.5983	979.1704	1819.4	937.4
850.7435	981.1759	1808.65	925.9
850.8886	983.1808	1801.95	919.75
851.0337	985.1849	1810.2	916.75
851.1788	987.1884	1790.3	906.25
851.324	989.1911	1800.7	916.85
851.4691	991.1932	1815.95	935
851.6142	993.1945	1814.7	934.7
851.7593	995.1951	1811.6	927
851.9045	997.1951	1816.1	927.1
852.0496	999.1943	1805.8	926.55
852.1947	1001.1928	1808.25	927.15
852.3398	1003.1906	1824.2	941.25
852.4849	1005.1877	1849.15	967.35
852.63	1007.1841	1865.95	982.6
852.7751	1009.1798	1874.4	992.4
852.9202	1011.1748	1875.75	991.7
853.0653	1013.1691	1849.85	970.1
853.2104	1015.1627	1810.35	927.25
853.3555	1017.1556	1778	896.5
853.5006	1019.1477	1759.35	876.7
853.6457	1021.1392	1739.55	859.5
853.7908	1023.1299	1735.55	854.65
853.9359	1025.12	1735.25	857.3
854.081	1027.1093	1741.65	867.05
854.2261	1029.0979	1765.3	892.7
854.3712	1031.0859	1776.2	898.35
854.5163	1033.0731	1793.7	911.65
854.6613	1035.0596	1798.75	922.3
854.8064	1037.0454	1788.6	908.3
854.9515	1039.0304	1765.35	883.6
855.0965	1041.0148	1750	867.45
855.2416	1042.9985	1735.35	852
855.3867	1044.9814	1718.05	837.05
855.5317	1046.9636	1714.7	831
855.6768	1048.9452	1727.55	846.35
855.8219	1050.926	1743.85	861.7
855.9669	1052.9061	1759.9	879.1
856.112	1054.8855	1768.25	885.05
856.257	1056.8642	1768.05	884.05
856.4021	1058.8421	1772.2	884.4
856.5471	1060.8194	1758.9	876.85
856.6921	1062.7959	1764.05	880.15
856.8372	1064.7717	1761.2	878.25
856.9822	1066.7469	1759.95	875.85
857.1272	1068.7213	1759.45	870.6
857.2723	1070.695	1778.25	893.45
857.4173	1072.6679	1799.85	914.4
857.5623	1074.6402	1822.9	938.2
857.7073	1076.6117	1833.85	942
857.8523	1078.5826	1811.05	925
857.9973	1080.5527	1772.3	885.9
858.1423	1082.5221	1735.45	851.35
858.2873	1084.4908	1711.2	827.9
858.4323	1086.4587	1694.4	805.55
858.5773	1088.426	1685.25	798.3
858.7223	1090.3925	1682.65	794.65
858.8673	1092.3584	1687.55	805
859.0123	1094.3235	1703.95	820.15
859.1573	1096.2879	1717.35	830.45
859.3022	1098.2515	1751.25	866.65
859.4472	1100.2145	1770.7	888.6
859.5922	1102.1767	1817.15	929.45
859.7371	1104.1382	1857.85	973.25
859.8821	1106.099	1929	1041.4
860.027	1108.0591	1968.65	1082.55
860.172	1110.0185	2006.45	1119.4
860.3169	1111.9771	2054.3	1170.95
860.4619	1113.9351	2109.4	1223.7
860.6068	1115.8923	2174.75	1285.65
860.7517	1117.8488	2194.65	1305.95
860.8967	1119.8045	2138.95	1251.35
861.0416	1121.7596	2041.1	1154.8
861.1865	1123.7139	1938.3	1056
861.3314	1125.6675	1861.9	976.7
861.4763	1127.6204	1865.7	978.95
861.6212	1129.5726	1889.4	1004
861.7661	1131.524	1884.15	1000.4
861.911	1133.4748	1842.65	956.5
862.0559	1135.4248	1787.25	898.3
862.2008	1137.3741	1727.2	840.4
862.3457	1139.3226	1703.8	816.2
862.4905	1141.2705	1702.35	814.3
862.6354	1143.2176	1717.75	826.7
862.7803	1145.164	1718.1	831.3
862.9251	1147.1097	1713.3	826.3
863.07	1149.0546	1695.55	807.8
863.2148	1150.9989	1668.3	782.15
863.3597	1152.9424	1652.35	764.75
863.5045	1154.8852	1635.3	749.4
863.6493	1156.8272	1629.9	745.2
863.7942	1158.7686	1627.85	733.55
863.939	1160.7092	1629.45	742.95
864.0838	1162.6491	1633.45	744.55
864.2286	1164.5883	1642	756.85
864.3734	1166.5267	1664.5	777.15
864.5182	1168.4644	1702.2	814.65
864.663	1170.4014	1728.3	835.8
864.8078	1172.3377	1764.6	877.35
864.9526	1174.2732	1822.7	938.1
865.0974	1176.2081	1927.45	1039.05
865.2421	1178.1421	2059.25	1169.5
865.3869	1180.0755	2182.75	1295.8
865.5317	1182.0082	2252.15	1367.35
865.6764	1183.9401	2217.3	1331.1
865.8212	1185.8713	2112.1	1228.05
865.9659	1187.8017	1963.8	1081.8
866.1106	1189.7315	1858.3	975.8
866.2554	1191.6605	1802.65	892.95
866.4001	1193.5888	1729	845.75
866.5448	1195.5163	1703.5	818.35
866.6895	1197.4432	1688.4	802.3
866.8342	1199.3693	1663.55	778.8
866.9789	1201.2947	1649.25	757.45
867.1236	1203.2193	1639.35	752.65
867.2683	1205.1432	1641.1	752.6
867.413	1207.0664	1633.45	745.15
867.5576	1208.9889	1633.25	741.65
867.7023	1210.9106	1639.2	750.9
867.847	1212.8316	1633.6	748.45
867.9916	1214.7519	1658.05	762.25
868.1363	1216.6715	1661.4	775.95
868.2809	1218.5903	1679.45	791.4
868.4255	1220.5084	1700.3	811.55
868.5701	1222.4257	1713.75	826.2
868.7148	1224.3424	1719.75	831.5
868.8594	1226.2583	1752.9	858.8
869.004	1228.1735	1772.6	883.65
869.1486	1230.0879	1817.05	927.55
869.2932	1232.0016	1866.7	983.3
869.4377	1233.9146	1909.2	1020.8
869.5823	1235.8269	1923.7	1035.7
869.7269	1237.7384	1931.75	1045.35
869.8715	1239.6492	1929.6	1043.45
870.016	1241.5592	1953.2	1063.6
870.1606	1243.4686	2003.55	1115.55
870.3051	1245.3772	2067.7	1180.25
870.4496	1247.285	2171.8	1283.5
870.5941	1249.1922	2266.7	1378.2
