Software Version:	3.9.2.0
Unit SN:	10000200
Spectrometer SN:	6960
Date:	3/8/2024 12:08:30 PM
Data Line Index:	25
Spectral Points:	2048
Integration time (ms):	125
Averages:	20
Delay (ms):	30000
Sequence Number:	1
Processing:	dark subtract
Laser Power (mW):	305
Laser Current (mA):	823
Laser Diode Temp (C):	25.1
Laser Case Temp (C):	25.7
System Temp (C):	25.6
Spectrometer Temp (C):	23.5
CCD Temp (C):	0.004
Secondary Temp (C):	20.008
Heatsink Temp (C):	20.25
CCDPCB Temp (C):	34.84
SecondaryPCB Temp (C):	28.381

Wavelength	RamanShift	Raw Counts	Dark Subtracted
787.061	30.1047	438.7	30.75
787.2016	32.3739	437.75	32.85
787.3422	34.6426	441.85	36.3
787.4828	36.9109	444.15	34.7
787.6235	39.1787	451.8	37.35
787.7642	41.4461	459.9	41.1
787.9049	43.7131	467.1	43.85
788.0456	45.9796	473.7	50.7
788.1863	48.2456	477	48.25
788.3271	50.5112	486.9	54.15
788.4679	52.7764	493.8	58.85
788.6087	55.0411	504.7	63
788.7496	57.3054	510.3	64
788.8904	59.5692	517.65	71.35
789.0313	61.8326	524.4	74.2
789.1722	64.0955	533.25	78.65
789.3132	66.3579	548.9	90
789.4541	68.6199	559.55	95.8
789.5951	70.8815	587.85	120.05
789.7361	73.1426	650.15	179.75
789.8771	75.4032	804.95	333.25
790.0181	77.6634	1175.25	697.9
790.1592	79.9231	2055.25	1574.05
790.3003	82.1824	3879.95	3388.4
790.4414	84.4412	7119.95	6610.9
790.5825	86.6995	11401.7	10875.05
790.7237	88.9574	15492.55	14947.25
790.8648	91.2148	18296.4	17740.95
791.006	93.4717	19493	18926.2
791.1472	95.7282	19583.9	19012.65
791.2885	97.9842	19321.55	18750.1
791.4297	100.2398	18743.65	18170.4
791.571	102.4949	18100.7	17522.85
791.7123	104.7495	17383.8	16803.6
791.8536	107.0036	16638.35	16059.35
791.9949	109.2573	16009.7	15432.15
792.1363	111.5105	15385.45	14803.05
792.2777	113.7632	14826.1	14239.5
792.4191	116.0154	14403.85	13807.65
792.5605	118.2672	14053.65	13463.15
792.7019	120.5185	13713.15	13122.1
792.8434	122.7693	13441.55	12847.15
792.9849	125.0197	13244.05	12645.9
793.1264	127.2696	13025.25	12427.8
793.2679	129.519	12887.95	12282
793.4094	131.7679	12682.3	12073
793.551	134.0163	12464.15	11853.75
793.6926	136.2642	12218.8	11601.15
793.8342	138.5117	11933.05	11307.6
793.9758	140.7587	11607.4	10989.6
794.1175	143.0052	11319.1	10699.35
794.2591	145.2512	11038.4	10416.35
794.4008	147.4967	10755.55	10134
794.5425	149.7417	10512.1	9883.2
794.6842	151.9863	10352.5	9723.3
794.826	154.2304	10242.85	9608.85
794.9677	156.4739	10122.85	9484.85
795.1095	158.717	10077.6	9435.6
795.2513	160.9596	9987.8	9344.85
795.3931	163.2017	9854.5	9210.35
795.535	165.4433	9691.45	9044.9
795.6768	167.6844	9471.6	8822.6
795.8187	169.925	9243.2	8589.45
795.9606	172.1651	8967.85	8312.45
796.1025	174.4047	8760	8099.9
796.2445	176.6439	8558.35	7898.2
796.3864	178.8825	8382.6	7715.45
796.5284	181.1206	8279.25	7610.55
796.6704	183.3582	8174.9	7501
796.8124	185.5954	8118.6	7442.55
796.9544	187.832	8052.3	7373.85
797.0965	190.0681	8044	7362.2
797.2386	192.3037	8027.1	7338.45
797.3806	194.5388	8028.65	7340.25
797.5228	196.7734	8050.25	7361.55
797.6649	199.0075	8066.8	7377.4
797.807	201.2411	8147.45	7454.45
797.9492	203.4742	8218.85	7525.05
798.0914	205.7068	8349.3	7652.8
798.2336	207.9389	8434.75	7735.75
798.3758	210.1704	8561.45	7869.2
798.518	212.4015	8618.25	7936.1
798.6603	214.632	8725.6	8051.15
798.8025	216.862	8823.1	8147.9
798.9448	219.0915	8890.75	8212
799.0871	221.3205	8961.45	8285.7
799.2294	223.549	8996.8	8318.6
799.3718	225.777	9029.45	8353.5
799.5141	228.0044	9040.1	8354.1
799.6565	230.2314	9072.05	8387.2
799.7989	232.4578	9065.2	8376
799.9413	234.6837	9057.6	8356.95
800.0837	236.909	9073.9	8377.3
800.2262	239.1339	9102.3	8377.55
800.3687	241.3582	9036.3	8326.85
800.5111	243.582	9023.2	8282.35
800.6536	245.8053	8996.4	8270.55
800.7961	248.0281	8960.65	8237.4
800.9387	250.2503	8961.15	8238.65
801.0812	252.472	9005.25	8276.55
801.2238	254.6932	9108.65	8385
801.3664	256.9139	9199.8	8470.3
801.509	259.134	9341.15	8607.95
801.6516	261.3536	9485.2	8755.75
801.7942	263.5727	9739.2	9010.25
801.9369	265.7912	9974.75	9245.8
802.0795	268.0092	10282.6	9551.5
802.2222	270.2267	10552.55	9821.5
802.3649	272.4436	10755.05	10018.6
802.5076	274.6601	10896.7	10152.2
802.6504	276.8759	10915.45	10175.15
802.7931	279.0913	10898.45	10159.3
802.9359	281.3061	10837.9	10095
803.0787	283.5204	10816.9	10072.65
803.2215	285.7341	10814.75	10068.35
803.3643	287.9473	10850.35	10102
803.5071	290.16	10816.2	10064.7
803.6499	292.3721	10784.8	10040.9
803.7928	294.5837	10838	10091.7
803.9357	296.7947	10884.4	10135.05
804.0786	299.0052	11005	10254.9
804.2215	301.2152	11063.25	10313.55
804.3644	303.4246	11051.85	10302.6
804.5074	305.6334	10893.55	10145.4
804.6503	307.8418	10658.5	9905.95
804.7933	310.0495	10361.7	9609.9
804.9363	312.2568	10024.95	9270
805.0793	314.4635	9643.95	8888.65
805.2223	316.6696	9333.25	8575.2
805.3653	318.8752	9096.7	8330.25
805.5084	321.0802	8952.65	8190.35
805.6514	323.2847	8947.3	8183.95
805.7945	325.4887	8987.7	8227.35
805.9376	327.692	9023.7	8262.8
806.0807	329.8949	9093.65	8330.3
806.2238	332.0972	9017.95	8251.75
806.367	334.2989	8911.75	8138.85
806.5101	336.5001	8739.45	7967.95
806.6533	338.7007	8549.7	7777.7
806.7965	340.9008	8393.75	7623.5
806.9397	343.1003	8196.05	7422.65
807.0829	345.2992	8067.2	7295.4
807.2261	347.4976	7929.05	7154
807.3693	349.6955	7850.75	7073.45
807.5126	351.8927	7806.55	7023.25
807.6559	354.0895	7728.2	6935.5
807.7991	356.2856	7642.25	6860
807.9424	358.4812	7622.3	6837.9
808.0857	360.6763	7561.25	6775.4
808.2291	362.8707	7567.6	6781
808.3724	365.0646	7568.85	6779.95
808.5158	367.258	7602.9	6813.85
808.6591	369.4508	7684.75	6888.65
808.8025	371.643	7800.05	7006.65
808.9459	373.8346	7914.8	7116.35
809.0893	376.0257	8020.25	7220.9
809.2327	378.2162	8126.7	7327.65
809.3762	380.4062	8151.4	7350.85
809.5196	382.5956	8097.2	7303.45
809.6631	384.7844	7977.75	7186.15
809.8066	386.9726	7824.95	7040.65
809.9501	389.1603	7739.15	6950.9
810.0936	391.3474	7692.35	6865.5
810.2371	393.5339	7653.4	6858.7
810.3806	395.7199	7653.4	6863.45
810.5241	397.9052	7710.15	6919.85
810.6677	400.09	7846.05	7055.45
810.8113	402.2743	8014.8	7222.6
810.9548	404.4579	8159.55	7366.25
811.0984	406.641	8370.95	7577.65
811.2421	408.8235	8507.6	7711.9
811.3857	411.0054	8591.2	7791.25
811.5293	413.1868	8656.35	7853.1
811.673	415.3675	8651.35	7845.2
811.8166	417.5477	8585.5	7780.1
811.9603	419.7273	8519.35	7709.6
812.104	421.9064	8427.15	7612.6
812.2477	424.0848	8381.5	7574.2
812.3914	426.2627	8286.35	7474.35
812.5351	428.4399	8079.35	7271.8
812.6788	430.6166	7819.25	7003.8
812.8226	432.7928	7555.05	6738.45
812.9663	434.9683	7322.2	6506.25
813.1101	437.1432	7108.75	6292.8
813.2539	439.3176	6994.85	6178.8
813.3977	441.4914	6896.9	6086.85
813.5415	443.6645	6867	6055.05
813.6853	445.8371	6847.5	6028.95
813.8291	448.0091	6829	6011.7
813.973	450.1806	6822.1	6009.9
814.1168	452.3514	6816	5999.3
814.2607	454.5216	6861.2	6033.1
814.4046	456.6913	6867.05	6049.3
814.5485	458.8603	6907.45	6090.7
814.6924	461.0288	6937.4	6124.45
814.8363	463.1967	6917.25	6103.4
814.9802	465.3639	6923.3	6101.85
815.1241	467.5306	6883.5	6063.9
815.2681	469.6967	6884.45	6064.25
815.412	471.8622	6864.1	6046.95
815.556	474.0271	6874.4	6056.75
815.7	476.1914	6905.75	6084.8
815.844	478.3551	6899.45	6074.6
815.988	480.5182	6938.95	6121.85
816.132	482.6807	7017.15	6199.8
816.276	484.8426	7148.65	6332.4
816.4201	487.0039	7435.6	6616.2
816.5641	489.1647	7726.5	6900.35
816.7082	491.3248	7980.25	7156.25
816.8522	493.4843	8035.25	7213.45
816.9963	495.6432	7976.5	7151.55
817.1404	497.8015	7839.7	7008.45
817.2845	499.9592	7733.65	6901.45
817.4286	502.1163	7549.05	6716.8
817.5727	504.2728	7287.65	6458.3
817.7168	506.4287	7059.9	6233.3
817.861	508.5839	6858.4	6032.85
818.0051	510.7386	6729.65	5904.2
818.1493	512.8927	6684.3	5853.3
818.2935	515.0461	6680.15	5848.55
818.4377	517.199	6769.8	5936
818.5818	519.3512	6925.1	6091.75
818.726	521.5029	7205	6365.05
818.8703	523.6539	7493.25	6659.35
819.0145	525.8043	7613.25	6777.3
819.1587	527.9541	7533.25	6693.85
819.303	530.1033	7309	6471.1
819.4472	532.2519	7100.65	6264.05
819.5915	534.3999	6977.7	6140.25
819.7357	536.5472	6973.25	6135.75
819.88	538.694	7068	6230.7
820.0243	540.8401	7195.4	6355.75
820.1686	542.9856	7343.2	6498.35
820.3129	545.1305	7371.2	6525.7
820.4572	547.2748	7326.25	6480.4
820.6016	549.4185	7237.35	6390.1
820.7459	551.5615	7201.35	6354.7
820.8902	553.704	7215.45	6371.55
821.0346	555.8458	7322.4	6478.2
821.1789	557.987	7472.25	6628.95
821.3233	560.1276	7694.15	6847.5
821.4677	562.2675	8021.1	7177.5
821.6121	564.4069	8505.05	7660.9
821.7565	566.5456	8996.55	8155.8
821.9009	568.6837	9195.3	8352.8
822.0453	570.8212	8875.3	8032.2
822.1897	572.958	8267.85	7423.35
822.3342	575.0942	7669.8	6825.9
822.4786	577.2299	7219.45	6376
822.6231	579.3648	6994.85	6156.95
822.7675	581.4992	6931.85	6094.85
822.912	583.6329	7003.3	6168.7
823.0565	585.766	7146.95	6308.7
823.201	587.8985	7313.65	6475.65
823.3454	590.0304	7451.5	6582.75
823.4899	592.1616	7472.35	6622.25
823.6345	594.2922	7430.85	6582
823.779	596.4222	7273.05	6422.1
823.9235	598.5515	7066.15	6214.2
824.068	600.6802	6897.55	6045.75
824.2126	602.8083	6743.2	5893.05
824.3571	604.9358	6693.25	5842.4
824.5017	607.0626	6741.95	5887.6
824.6462	609.1888	6829.35	5974.3
824.7908	611.3144	6990.7	6134.85
824.9354	613.4393	7185.3	6328.1
825.08	615.5636	7365.1	6504.7
825.2246	617.6873	7454.35	6599.25
825.3692	619.8103	7427.7	6568.1
825.5138	621.9327	7260.1	6401.55
825.6584	624.0544	7035.15	6182.75
825.803	626.1756	6828.6	5979.05
825.9477	628.2961	6657.1	5800.75
826.0923	630.4159	6580.15	5723.85
826.237	632.5351	6569.6	5711.8
826.3816	634.6537	6550.05	5690.8
826.5263	636.7716	6566.4	5706.5
826.6709	638.8889	6577.3	5717.9
826.8156	641.0056	6593.1	5730.75
826.9603	643.1216	6592.1	5729.2
827.105	645.237	6587.05	5723.4
827.2497	647.3518	6511.05	5651.15
827.3944	649.4659	6398.2	5542.3
827.5391	651.5793	6344	5486.85
827.6838	653.6922	6291.2	5434.05
827.8285	655.8043	6279.6	5421.5
827.9733	657.9159	6284.25	5423.35
828.118	660.0268	6272.85	5411.25
828.2627	662.137	6284.4	5422.6
828.4075	664.2466	6318.6	5452.7
828.5522	666.3556	6295.55	5432.65
828.697	668.4639	6265.6	5398.65
828.8418	670.5716	6221.1	5362.85
828.9865	672.6786	6152.7	5290.45
829.1313	674.785	6085	5218.65
829.2761	676.8907	6044.85	5184.05
829.4209	678.9958	6017.85	5154.55
829.5657	681.1002	5999.95	5135.35
829.7105	683.204	5989.3	5117.9
829.8553	685.3072	6001.05	5134.4
830.0001	687.4097	5966.3	5099.9
830.1449	689.5115	5980.8	5111.6
830.2898	691.6127	5969.2	5107.8
830.4346	693.7132	5965.3	5098.1
830.5794	695.8131	5988.7	5101.2
830.7243	697.9123	6017.75	5148.75
830.8691	700.0109	6042.6	5174.05
831.014	702.1089	6109.95	5242.55
831.1588	704.2061	6151.65	5281.6
831.3037	706.3028	6259.6	5387.1
831.4486	708.3987	6322.75	5451.8
831.5935	710.4941	6359.2	5487.4
831.7383	712.5887	6366.1	5495.25
831.8832	714.6827	6377.8	5503.9
832.0281	716.7761	6409.85	5541.7
832.173	718.8688	6474.3	5606.8
832.3179	720.9608	6567.95	5692.6
832.4628	723.0522	6675.6	5797.55
832.6077	725.1429	6806.55	5932.4
832.7527	727.233	6928.85	6052.55
832.8976	729.3224	7116.85	6247.35
833.0425	731.4112	7112.6	6237.75
833.1874	733.4993	7049.65	6174.65
833.3324	735.5867	6827	5955.2
833.4773	737.6735	6581.9	5704.95
833.6222	739.7596	6362.05	5489.05
833.7672	741.845	6235	5361
833.9122	743.9298	6147.45	5270.8
834.0571	746.014	6094.55	5220.8
834.2021	748.0974	6084.2	5207.25
834.347	750.1802	6096.45	5220.55
834.492	752.2624	6107.15	5228.65
834.637	754.3439	6132.9	5250.5
834.782	756.4247	6219.15	5328.65
834.9269	758.5048	6330.75	5454.95
835.0719	760.5843	6524.2	5646.65
835.2169	762.6631	6791.65	5912.15
835.3619	764.7413	7243.2	6363.3
835.5069	766.8188	7817.65	6939.7
835.6519	768.8956	8386.1	7504.85
835.7969	770.9718	8820.1	7942.35
835.9419	773.0473	8881.5	8002.45
836.0869	775.1221	8675.85	7797.3
836.232	777.1962	8518.3	7641.5
836.377	779.2697	8528.2	7646.2
836.522	781.3426	8747.45	7853.65
836.667	783.4147	8953.4	8070.35
836.8121	785.4862	8971.95	8091.2
836.9571	787.557	8747.95	7868.35
837.1021	789.6271	8272.3	7390.9
837.2472	791.6966	7670.7	6792
837.3922	793.7654	7084.65	6203.4
837.5373	795.8335	6681.2	5800.15
837.6823	797.901	6413.8	5533.55
837.8274	799.9678	6216.7	5330.9
837.9724	802.0339	6138.35	5257.35
838.1175	804.0993	6137.5	5246.4
838.2626	806.1641	6069.4	5185.4
838.4076	808.2282	6016.55	5138.4
838.5527	810.2916	5956.85	5073.55
838.6978	812.3544	5890.8	5010.75
838.8428	814.4164	5822.8	4943.1
838.9879	816.4778	5826	4940.5
839.133	818.5385	5881.45	4995.7
839.2781	820.5986	5989.5	5106.05
839.4232	822.658	6191.4	5306.55
839.5682	824.7166	6493.15	5609.45
839.7133	826.7747	6952.8	6067.3
839.8584	828.832	7511.75	6624.25
840.0035	830.8886	7962.8	7074.45
840.1486	832.9446	8211.55	7324.6
840.2937	834.9999	8126	7241.15
840.4388	837.0545	7826	6938.9
840.5839	839.1085	7444.3	6558.3
840.729	841.1618	7087.2	6199.1
840.8741	843.2143	6790.5	5905.5
841.0192	845.2662	6570.65	5685.3
841.1643	847.3175	6464.25	5577.45
841.3095	849.368	6363.3	5473.1
841.4546	851.4179	6316.3	5430.85
841.5997	853.467	6238.1	5353.05
841.7448	855.5155	6193.4	5306.05
841.8899	857.5633	6155.3	5267.45
842.0351	859.6105	6092.05	5204.1
842.1802	861.6569	6022.35	5135.5
842.3253	863.7027	5962.45	5073.7
842.4704	865.7478	5898.45	5009.4
842.6156	867.7922	5862	4972.1
842.7607	869.8359	5825.45	4937.7
842.9058	871.8789	5808.35	4922.85
843.0509	873.9212	5879.05	4958
843.1961	875.9629	5891.85	5000.2
843.3412	878.0039	5968.6	5078.95
843.4863	880.0441	6050.75	5163.3
843.6315	882.0837	6107.25	5217.05
843.7766	884.1226	6185.65	5295.45
843.9218	886.1609	6287.1	5400
844.0669	888.1984	6419.35	5531.2
844.212	890.2352	6612.15	5723.35
844.3572	892.2714	6698	5805.9
844.5023	894.3069	6645.75	5754.7
844.6475	896.3416	6473.4	5585
844.7926	898.3757	6276.4	5385.3
844.9377	900.4091	6157.1	5264.9
845.0829	902.4418	6107.4	5210.1
845.228	904.4739	6144.8	5251
845.3732	906.5052	6232.25	5339.55
845.5183	908.5358	6259.9	5369
845.6635	910.5658	6146.3	5254
845.8086	912.595	5966.9	5072.75
845.9538	914.6236	5766.65	4877.45
846.0989	916.6515	5612.95	4723.1
846.2441	918.6786	5527.05	4633.6
846.3892	920.7051	5504.7	4609.15
846.5344	922.7309	5527.3	4639.2
846.6795	924.756	5521.4	4629.5
846.8246	926.7804	5577	4684.75
846.9698	928.8041	5615.7	4721.9
847.1149	930.8272	5666	4772.75
847.2601	932.8495	5682.2	4789.25
847.4052	934.8711	5676.45	4783.8
847.5504	936.892	5670.3	4778.45
847.6955	938.9123	5710.8	4816.7
847.8407	940.9318	5809.35	4916.1
847.9858	942.9506	5872.7	4981.1
848.131	944.9688	5839.1	4946.6
848.2761	946.9862	5774.45	4882.5
848.4213	949.003	5599.95	4706.3
848.5664	951.019	5464.2	4570.75
848.7115	953.0344	5384.3	4490.05
848.8567	955.0491	5345.75	4448.95
849.0018	957.063	5352.85	4457.75
849.147	959.0763	5390	4498.8
849.2921	961.0888	5426.5	4531.05
849.4373	963.1007	5474.35	4581.4
849.5824	965.1119	5470.65	4581.15
849.7275	967.1223	5444.4	4557.2
849.8727	969.1321	5425.8	4539
850.0178	971.1412	5398.6	4509.3
850.1629	973.1495	5385.75	4493.1
850.3081	975.1572	5424.45	4495.95
850.4532	977.1641	5400.85	4506.7
850.5983	979.1704	5388.2	4492.05
850.7435	981.1759	5352.05	4453.65
850.8886	983.1808	5345.9	4450.75
851.0337	985.1849	5352.3	4445.75
851.1788	987.1884	5377.05	4478.85
851.324	989.1911	5449.1	4549.9
851.4691	991.1932	5485.15	4589.3
851.6142	993.1945	5501.1	4606
851.7593	995.1951	5498.4	4603.05
851.9045	997.1951	5469.55	4569.45
852.0496	999.1943	5450.8	4555.3
852.1947	1001.1928	5457.05	4560.15
852.3398	1003.1906	5526.55	4631.1
852.4849	1005.1877	5642.35	4744.55
852.63	1007.1841	5732.65	4837.9
852.7751	1009.1798	5818.15	4923.5
852.9202	1011.1748	5797.7	4903.6
853.0653	1013.1691	5687.5	4790.95
853.2104	1015.1627	5513.9	4620.35
853.3555	1017.1556	5348.6	4454.15
853.5006	1019.1477	5228.15	4333.85
853.6457	1021.1392	5138.15	4245.1
853.7908	1023.1299	5092.65	4201.3
853.9359	1025.12	5090.9	4199.65
854.081	1027.1093	5152.65	4268.65
854.2261	1029.0979	5269.1	4387
854.3712	1031.0859	5374.8	4487.2
854.5163	1033.0731	5434.35	4544.5
854.6613	1035.0596	5416.4	4522.55
854.8064	1037.0454	5336.95	4444.25
854.9515	1039.0304	5257.8	4363.05
855.0965	1041.0148	5182.45	4290.45
855.2416	1042.9985	5112.85	4216.35
855.3867	1044.9814	5033.4	4138.7
855.5317	1046.9636	5007.8	4111.55
855.6768	1048.9452	5004.45	4114.05
855.8219	1050.926	5054.9	4158.65
855.9669	1052.9061	5101.8	4207.6
856.112	1054.8855	5145.75	4249.15
856.257	1056.8642	5142.85	4249.75
856.4021	1058.8421	5197.05	4300.3
856.5471	1060.8194	5228.3	4332.6
856.6921	1062.7959	5233.85	4337.7
856.8372	1064.7717	5278.6	4379.15
856.9822	1066.7469	5345.85	4451.45
857.1272	1068.7213	5414.75	4515.25
857.2723	1070.695	5498.05	4603.85
857.4173	1072.6679	5578.6	4681.9
857.5623	1074.6402	5659.1	4763.2
857.7073	1076.6117	5658.3	4757.75
857.8523	1078.5826	5570.75	4671.65
857.9973	1080.5527	5412.5	4515.15
858.1423	1082.5221	5234.4	4339.95
858.2873	1084.4908	5147.45	4253.05
858.4323	1086.4587	5096.25	4196.95
858.5773	1088.426	5103.7	4206.95
858.7223	1090.3925	5133.55	4232.1
858.8673	1092.3584	5144.8	4248.1
859.0123	1094.3235	5185.65	4292.95
859.1573	1096.2879	5276.95	4379.9
859.3022	1098.2515	5422.6	4525.45
859.4472	1100.2145	5578.1	4683.9
859.5922	1102.1767	5757.45	4858.5
859.7371	1104.1382	5979.25	5082.6
859.8821	1106.099	6222.45	5322.3
860.027	1108.0591	6430.8	5535.95
860.172	1110.0185	6603.45	5705.55
860.3169	1111.9771	6724.6	5829.3
860.4619	1113.9351	6699.45	5804.15
860.6068	1115.8923	6681.5	5785.9
860.7517	1117.8488	6610.85	5712.3
860.8967	1119.8045	6475.65	5578.45
861.0416	1121.7596	6300.1	5403.45
861.1865	1123.7139	6088.4	5194.45
861.3314	1125.6675	5957.75	5064.05
861.4763	1127.6204	5969.2	5074.3
861.6212	1129.5726	5955.5	5060.9
861.7661	1131.524	5948.2	5053.4
861.911	1133.4748	5810.35	4913.25
862.0559	1135.4248	5628.05	4729.4
862.2008	1137.3741	5458.5	4561.85
862.3457	1139.3226	5311.1	4411.8
862.4905	1141.2705	5275.9	4381.3
862.6354	1143.2176	5252.35	4353.8
862.7803	1145.164	5252	4351.45
862.9251	1147.1097	5181.9	4282.5
863.07	1149.0546	5086.05	4190.8
863.2148	1150.9989	4960.95	4065.55
863.3597	1152.9424	4861.9	3964.95
863.5045	1154.8852	4793.7	3895.8
863.6493	1156.8272	4748.3	3851.8
863.7942	1158.7686	4765.05	3860.75
863.939	1160.7092	4778.4	3880.95
864.0838	1162.6491	4813.15	3910.25
864.2286	1164.5883	4911.4	4017.15
864.3734	1166.5267	5004	4105.05
864.5182	1168.4644	5122.6	4227.9
864.663	1170.4014	5293.1	4391.2
864.8078	1172.3377	5478.9	4584.15
864.9526	1174.2732	5717.3	4819.45
865.0974	1176.2081	6113.5	5220.4
865.2421	1178.1421	6606.05	5703.55
865.3869	1180.0755	7169.9	6272.3
865.5317	1182.0082	7604.7	6707.25
865.6764	1183.9401	7783.65	6883.7
865.8212	1185.8713	7668.75	6776.45
865.9659	1187.8017	7270.35	6378.3
866.1106	1189.7315	6810.5	5922.15
866.2554	1191.6605	6383.9	5494.55
866.4001	1193.5888	6075.05	5184
866.5448	1195.5163	5887.55	4995.3
866.6895	1197.4432	5749.15	4855.15
866.8342	1199.3693	5660.8	4766.05
866.9789	1201.2947	5604.25	4706.2
867.1236	1203.2193	5560.7	4664.3
867.2683	1205.1432	5541.95	4646.8
867.413	1207.0664	5510.05	4615.7
867.5576	1208.9889	5525.05	4626.45
867.7023	1210.9106	5535	4639.05
867.847	1212.8316	5564.15	4670.1
867.9916	1214.7519	5611.85	4706.8
868.1363	1216.6715	5629.55	4734.2
868.2809	1218.5903	5718.85	4823.4
868.4255	1220.5084	5805.85	4909.75
868.5701	1222.4257	5911.05	5015.85
868.7148	1224.3424	5981.2	5089.6
868.8594	1226.2583	6133.15	5236.45
869.004	1228.1735	6276.1	5380.35
869.1486	1230.0879	6478.45	5580.1
869.2932	1232.0016	6728.1	5830.3
869.4377	1233.9146	6920.85	6023
869.5823	1235.8269	7023.85	6128.15
