Software Version:	3.9.2.0
Unit SN:	10000200
Spectrometer SN:	6960
Date:	3/8/2024 11:07:48 AM
Data Line Index:	25
Spectral Points:	2048
Integration time (ms):	125
Averages:	20
Delay (ms):	30000
Sequence Number:	1
Processing:	dark subtract
Laser Power (mW):	300
Laser Current (mA):	818
Laser Diode Temp (C):	25.1
Laser Case Temp (C):	24.3
System Temp (C):	24.2
Spectrometer Temp (C):	22.2
CCD Temp (C):	0.001
Secondary Temp (C):	20.019
Heatsink Temp (C):	18.88
CCDPCB Temp (C):	31.838
SecondaryPCB Temp (C):	26.136

Wavelength	RamanShift	Raw Counts	Dark Subtracted
787.061	30.1047	438.7	26.4
787.2016	32.3739	439.25	29.5
787.3422	34.6426	443.1	32.5
787.4828	36.9109	447.35	34.75
787.6235	39.1787	452.5	36.75
787.7642	41.4461	460.4	40.05
787.9049	43.7131	461.7	37.6
788.0456	45.9796	472.1	45.7
788.1863	48.2456	478.7	47.45
788.3271	50.5112	483.8	49.6
788.4679	52.7764	491.7	55.75
788.6087	55.0411	495.9	54.95
788.7496	57.3054	507.65	60.45
788.8904	59.5692	514.6	66.8
789.0313	61.8326	516.9	67.8
789.1722	64.0955	525.75	72.85
789.3132	66.3579	536.25	78.8
789.4541	68.6199	549.25	87.55
789.5951	70.8815	576.3	110.2
789.7361	73.1426	626.6	157.8
789.8771	75.4032	739.9	267.85
790.0181	77.6634	1041.15	564.85
790.1592	79.9231	1718.3	1241.5
790.3003	82.1824	3123.4	2644.55
790.4414	84.4412	5524.1	5038.1
790.5825	86.6995	8708.9	8219.45
790.7237	88.9574	11734.7	11243
790.8648	91.2148	13872.35	13376.8
791.006	93.4717	14932	14433.25
791.1472	95.7282	15243.4	14742.2
791.2885	97.9842	15289.5	14786
791.4297	100.2398	15151.5	14647.3
791.571	102.4949	15000.15	14493.4
791.7123	104.7495	14852.35	14338.65
791.8536	107.0036	14668.85	14156.45
791.9949	109.2573	14497.35	13984.1
792.1363	111.5105	14290.6	13775.55
792.2777	113.7632	14009.55	13493.75
792.4191	116.0154	13693.9	13164.7
792.5605	118.2672	13382.4	12861.6
792.7019	120.5185	13009.25	12487
792.8434	122.7693	12663.75	12135.95
792.9849	125.0197	12337.45	11806.25
793.1264	127.2696	12086.65	11551.35
793.2679	129.519	11917.85	11379.6
793.4094	131.7679	11772.75	11233.55
793.551	134.0163	11727.5	11186.4
793.6926	136.2642	11647.95	11103.4
793.8342	138.5117	11651.4	11103.05
793.9758	140.7587	11569.15	11018.8
794.1175	143.0052	11489.7	10937.15
794.2591	145.2512	11311.7	10757.75
794.4008	147.4967	11117.45	10560.55
794.5425	149.7417	10923.95	10365.1
794.6842	151.9863	10820.25	10256.5
794.826	154.2304	10732.2	10165.5
794.9677	156.4739	10675.65	10104.55
795.1095	158.717	10724.35	10152.1
795.2513	160.9596	10802.5	10225.6
795.3931	163.2017	10903.55	10325.15
795.535	165.4433	11022.8	10443
795.6768	167.6844	11065.35	10482.25
795.8187	169.925	10978.4	10392.6
795.9606	172.1651	10780.2	10189.05
796.1025	174.4047	10632.3	10037.8
796.2445	176.6439	10466.4	9870.55
796.3864	178.8825	10320.1	9720.85
796.5284	181.1206	10229.7	9624.8
796.6704	183.3582	10204.95	9598.7
796.8124	185.5954	10197.1	9590.1
796.9544	187.832	10155.2	9543.95
797.0965	190.0681	10179.75	9565
797.2386	192.3037	10207.65	9590.1
797.3806	194.5388	10208.55	9589.85
797.5228	196.7734	10254.4	9634.25
797.6649	199.0075	10306.15	9686.45
797.807	201.2411	10409.75	9787.05
797.9492	203.4742	10466.05	9840.35
798.0914	205.7068	10590.3	9959.7
798.2336	207.9389	10665.45	10034.95
798.3758	210.1704	10741.25	10120.05
798.518	212.4015	10750.6	10137
798.6603	214.632	10772.8	10164.55
798.8025	216.862	10798.65	10192.55
798.9448	219.0915	10791.25	10181.35
799.0871	221.3205	10845.4	10234.25
799.2294	223.549	10887.7	10279.65
799.3718	225.777	10956.9	10346.75
799.5141	228.0044	10925.8	10306.65
799.6565	230.2314	10928	10306.4
799.7989	232.4578	10900.25	10275.8
799.9413	234.6837	10830.9	10196.35
800.0837	236.909	10795.7	10161.15
800.2262	239.1339	10743.5	10085.75
800.3687	241.3582	10695.2	10052.25
800.5111	243.582	10695.45	10020.15
800.6536	245.8053	10730.65	10068.55
800.7961	248.0281	10723.35	10068.45
800.9387	250.2503	10770.95	10111.05
801.0812	252.472	10791.85	10131.95
801.2238	254.6932	10796.3	10135.45
801.3664	256.9139	10779	10116.85
801.509	259.134	10825.1	10159
801.6516	261.3536	10894.1	10230.65
801.7942	263.5727	11041.75	10375.75
801.9369	265.7912	11158.3	10490.15
802.0795	268.0092	11409.25	10743.05
802.2222	270.2267	11640	10973.2
802.3649	272.4436	11819.5	11150.1
802.5076	274.6601	11960.75	11280.2
802.6504	276.8759	12016.95	11339
802.7931	279.0913	12128.4	11450.9
802.9359	281.3061	12164.4	11486
803.0787	283.5204	12257.4	11578.1
803.2215	285.7341	12402.9	11718.2
803.3643	287.9473	12498.65	11813.25
803.5071	290.16	12491.1	11805.15
803.6499	292.3721	12339.55	11659.35
803.7928	294.5837	12138.9	11457.15
803.9357	296.7947	11956.55	11273.05
804.0786	299.0052	11875	11192.4
804.2215	301.2152	11797.15	11110.75
804.3644	303.4246	11751.75	11065.7
804.5074	305.6334	11728.35	11043.7
804.6503	307.8418	11714.4	11026.9
804.7933	310.0495	11661.95	10972.4
804.9363	312.2568	11523.9	10833.65
805.0793	314.4635	11340.6	10647.9
805.2223	316.6696	11167.75	10473.1
805.3653	318.8752	10956.85	10251.8
805.5084	321.0802	10803.7	10107.3
805.6514	323.2847	10778.85	10080.7
805.7945	325.4887	10758.1	10058.9
805.9376	327.692	10800.95	10102.6
806.0807	329.8949	10984.55	10285
806.2238	332.0972	11144.75	10441.3
806.367	334.2989	11325.5	10619.45
806.5101	336.5001	11371.95	10663.9
806.6533	338.7007	11258.5	10550.3
806.7965	340.9008	11077.1	10369.1
806.9397	343.1003	10824.4	10111.35
807.0829	345.2992	10600.6	9887.8
807.2261	347.4976	10422.6	9707.5
807.3693	349.6955	10275.15	9555.4
807.5126	351.8927	10190.3	9471.7
807.6559	354.0895	10108.45	9378.2
807.7991	356.2856	10061.95	9341.2
807.9424	358.4812	10020.15	9296
808.0857	360.6763	9981.3	9257.7
808.2291	362.8707	9943.95	9218.4
808.3724	365.0646	9961.85	9232.7
808.5158	367.258	9968.05	9236.75
808.6591	369.4508	9981.25	9246.95
808.8025	371.643	10124.4	9392.4
808.9459	373.8346	10210.65	9474.35
809.0893	376.0257	10351.55	9613.8
809.2327	378.2162	10451.75	9710.6
809.3762	380.4062	10537.1	9798.4
809.5196	382.5956	10469.6	9732.1
809.6631	384.7844	10330	9596.85
809.8066	386.9726	10102.4	9370.45
809.9501	389.1603	9965.7	9238.8
810.0936	391.3474	9892.9	9121.35
810.2371	393.5339	9840.7	9110
810.3806	395.7199	9849.25	9119.3
810.5241	397.9052	9934.7	9202.65
810.6677	400.09	10087.65	9354
810.8113	402.2743	10278.05	9546.3
810.9548	404.4579	10383.05	9648.8
811.0984	406.641	10550	9810.65
811.2421	408.8235	10696.7	9956.4
811.3857	411.0054	10846	10104.15
811.5293	413.1868	10951.75	10207.1
811.673	415.3675	10978.3	10230.75
811.8166	417.5477	10934	10183.9
811.9603	419.7273	10846.05	10094.95
812.104	421.9064	10697.55	9938.95
812.2477	424.0848	10511.05	9758.25
812.3914	426.2627	10235.85	9483.7
812.5351	428.4399	9996.7	9244.3
812.6788	430.6166	9752.75	8993.55
812.8226	432.7928	9579.5	8820
812.9663	434.9683	9430.25	8668.75
813.1101	437.1432	9314.85	8552.8
813.2539	439.3176	9206	8444.8
813.3977	441.4914	9139.2	8378.2
813.5415	443.6645	9124.3	8362.1
813.6853	445.8371	9085.05	8322.95
813.8291	448.0091	9052.25	8291.05
813.973	450.1806	9046.95	8280.95
814.1168	452.3514	9032.5	8264.55
814.2607	454.5216	9048.7	8273.6
814.4046	456.6913	9015.5	8246.2
814.5485	458.8603	9032.3	8265.4
814.6924	461.0288	9023.45	8257.2
814.8363	463.1967	9044.75	8276.85
814.9802	465.3639	9027.95	8259.85
815.1241	467.5306	8982.75	8213.55
815.2681	469.6967	8939.6	8170.35
815.412	471.8622	8885.25	8116.6
815.556	474.0271	8882.5	8113
815.7	476.1914	8872.85	8099.1
815.844	478.3551	8837.95	8066.4
815.988	480.5182	8835.2	8063.05
816.132	482.6807	8837.75	8066.3
816.276	484.8426	8899.4	8125.05
816.4201	487.0039	9065.6	8290.3
816.5641	489.1647	9253.7	8477.25
816.7082	491.3248	9441.45	8666.15
816.8522	493.4843	9527.8	8752.65
816.9963	495.6432	9487.2	8711.25
817.1404	497.8015	9370.3	8589.4
817.2845	499.9592	9219.3	8440.35
817.4286	502.1163	8963.25	8181.85
817.5727	504.2728	8753.75	7973.85
817.7168	506.4287	8655.7	7875.45
817.861	508.5839	8578.65	7799.85
818.0051	510.7386	8560.15	7780.25
818.1493	512.8927	8544.1	7754.85
818.2935	515.0461	8573.85	7791.1
818.4377	517.199	8606.75	7822.55
818.5818	519.3512	8752.05	7967.85
818.726	521.5029	9023.95	8233.4
818.8703	523.6539	9290.25	8503.95
819.0145	525.8043	9369.15	8581.5
819.1587	527.9541	9153.25	8364.8
819.303	530.1033	8846.5	8058.85
819.4472	532.2519	8620.85	7831.1
819.5915	534.3999	8528.7	7736.55
819.7357	536.5472	8455.4	7664.4
819.88	538.694	8442.35	7651.3
820.0243	540.8401	8488.5	7697.55
820.1686	542.9856	8557.35	7765.85
820.3129	545.1305	8624.7	7829.15
820.4572	547.2748	8678.8	7887.2
820.6016	549.4185	8669.2	7874.85
820.7459	551.5615	8690.05	7896.25
820.8902	553.704	8745	7953.35
821.0346	555.8458	8766.5	7972.25
821.1789	557.987	8867.6	8075.45
821.3233	560.1276	8976.15	8180.6
821.4677	562.2675	9253.5	8461.05
821.6121	564.4069	9573.4	8779.05
821.7565	566.5456	9807.75	9013.25
821.9009	568.6837	9696.8	8901.35
822.0453	570.8212	9331.1	8534.85
822.1897	572.958	8885.75	8087.35
822.3342	575.0942	8597.4	7800.85
822.4786	577.2299	8426.05	7627
822.6231	579.3648	8324.55	7525.9
822.7675	581.4992	8274.7	7476.05
822.912	583.6329	8299.45	7500.15
823.0565	585.766	8382.55	7583.35
823.201	587.8985	8546.9	7746.8
823.3454	590.0304	8747.65	7932.85
823.4899	592.1616	8928.65	8123.95
823.6345	594.2922	8978.85	8175.9
823.779	596.4222	8849.6	8046.85
823.9235	598.5515	8633.85	7829.65
824.068	600.6802	8385.9	7580.7
824.2126	602.8083	8150	7344.45
824.3571	604.9358	8041.45	7236.55
824.5017	607.0626	8030.35	7225.9
824.6462	609.1888	8018.45	7212.7
824.7908	611.3144	8098.4	7292
824.9354	613.4393	8232.9	7426.5
825.08	615.5636	8434.9	7629.25
825.2246	617.6873	8660.45	7855.05
825.3692	619.8103	8813.3	8003.8
825.5138	621.9327	8830.35	8018.5
825.6584	624.0544	8733.75	7924.35
825.803	626.1756	8438.7	7628.15
825.9477	628.2961	8180.75	7370.3
826.0923	630.4159	8030.35	7220
826.237	632.5351	8004.3	7192.1
826.3816	634.6537	7964.7	7152.9
826.5263	636.7716	7942.4	7129.6
826.6709	638.8889	7934.1	7122.7
826.8156	641.0056	7956.15	7142.75
826.9603	643.1216	7994.3	7179.65
827.105	645.237	8035.35	7218.9
827.2497	647.3518	7958.6	7143.35
827.3944	649.4659	7851.1	7036.7
827.5391	651.5793	7716.35	6901.9
827.6838	653.6922	7664.8	6851.15
827.8285	655.8043	7589.65	6774.45
827.9733	657.9159	7539.75	6724.9
828.118	660.0268	7503.35	6684.95
828.2627	662.137	7471.85	6653.55
828.4075	664.2466	7483.45	6664.8
828.5522	666.3556	7479.5	6663
828.697	668.4639	7430.25	6608.55
828.8418	670.5716	7426	6606.9
828.9865	672.6786	7380.35	6560.75
829.1313	674.785	7331.4	6508.85
829.2761	676.8907	7302.95	6481.25
829.4209	678.9958	7296	6475.6
829.5657	681.1002	7280.15	6457.75
829.7105	683.204	7286	6461.85
829.8553	685.3072	7275.05	6451.25
830.0001	687.4097	7257.8	6435.25
830.1449	689.5115	7246.75	6422.45
830.2898	691.6127	7251.55	6429.15
830.4346	693.7132	7200.3	6377.95
830.5794	695.8131	7214.75	6376.6
830.7243	697.9123	7218.1	6392.85
830.8691	700.0109	7218.5	6393.65
831.014	702.1089	7261.2	6437.05
831.1588	704.2061	7289.65	6466.3
831.3037	706.3028	7378.15	6551.55
831.4486	708.3987	7514.25	6689.9
831.5935	710.4941	7567.15	6741.05
831.7383	712.5887	7582.9	6755.55
831.8832	714.6827	7561.3	6730.55
832.0281	716.7761	7488.85	6661.55
832.173	718.8688	7459.05	6630.6
832.3179	720.9608	7416.3	6585.4
832.4628	723.0522	7465.45	6634.3
832.6077	725.1429	7531.15	6701.65
832.7527	727.233	7628.75	6800.25
832.8976	729.3224	7873.3	7042.95
833.0425	731.4112	8131.1	7300.25
833.1874	733.4993	8234.65	7401.75
833.3324	735.5867	8093.05	7260.8
833.4773	737.6735	7759.95	6928.65
833.6222	739.7596	7445.25	6611.45
833.7672	741.845	7264.8	6433.2
833.9122	743.9298	7191.8	6357.85
834.0571	746.014	7161.75	6331.4
834.2021	748.0974	7145.55	6311.55
834.347	750.1802	7151.9	6317.7
834.492	752.2624	7130.25	6297.9
834.637	754.3439	7124.8	6290.4
834.782	756.4247	7133.8	6290.85
834.9269	758.5048	7152.9	6319.35
835.0719	760.5843	7223.1	6389.15
835.2169	762.6631	7336.6	6501.9
835.3619	764.7413	7537.65	6704.85
835.5069	766.8188	7893.35	7058.35
835.6519	768.8956	8238.55	7401.75
835.7969	770.9718	8536.55	7701.85
835.9419	773.0473	8476	7642.9
836.0869	775.1221	8300.35	7465.25
836.232	777.1962	8231.6	7397.5
836.377	779.2697	8435.75	7598.6
836.522	781.3426	8888.15	8034.9
836.667	783.4147	9238.6	8400.05
836.8121	785.4862	9280.45	8444.1
836.9571	787.557	8932.65	8097
837.1021	789.6271	8414.35	7576.5
837.2472	791.6966	7843.1	7003.7
837.3922	793.7654	7397.9	6559.4
837.5373	795.8335	7103.15	6264.5
837.6823	797.901	6938.35	6101.75
837.8274	799.9678	6877.95	6038.15
837.9724	802.0339	6863.4	6027.4
838.1175	804.0993	6917.3	6069.4
838.2626	806.1641	6896.3	6055.2
838.4076	808.2282	6832.15	5993
838.5527	810.2916	6744.95	5901.8
838.6978	812.3544	6665.6	5828.1
838.8428	814.4164	6632.95	5793.4
838.9879	816.4778	6662.1	5821.75
839.133	818.5385	6667.6	5829.3
839.2781	820.5986	6830.7	5990.85
839.4232	822.658	7033.45	6191.55
839.5682	824.7166	7303.45	6464.95
839.7133	826.7747	7643.05	6802.75
839.8584	828.832	7952.85	7112.65
840.0035	830.8886	8177.95	7334.6
840.1486	832.9446	8349.2	7508.25
840.2937	834.9999	8241.8	7401.6
840.4388	837.0545	8017.95	7170.55
840.5839	839.1085	7629.95	6786.25
840.729	841.1618	7294.3	6447.55
840.8741	843.2143	7016.05	6174.05
841.0192	845.2662	6869.55	6027.6
841.1643	847.3175	6783.95	5941.6
841.3095	849.368	6707.15	5864.05
841.4546	851.4179	6681.75	5838.55
841.5997	853.467	6657.7	5814.05
841.7448	855.5155	6723.4	5878.2
841.8899	857.5633	6730.75	5886.9
842.0351	859.6105	6708.8	5864.8
842.1802	861.6569	6654.35	5809.2
842.3253	863.7027	6575.9	5730.6
842.4704	865.7478	6523	5676.1
842.6156	867.7922	6485.9	5641.05
842.7607	869.8359	6429.4	5585.5
842.9058	871.8789	6385.75	5541.2
843.0509	873.9212	6393.65	5514.7
843.1961	875.9629	6375.7	5530.35
843.3412	878.0039	6433.9	5585.05
843.4863	880.0441	6483.8	5638.85
843.6315	882.0837	6556.9	5708.15
843.7766	884.1226	6628.7	5780.2
843.9218	886.1609	6799.45	5952.9
844.0669	888.1984	6994.3	6148.05
844.212	890.2352	7203.95	6356.9
844.3572	892.2714	7298.25	6447.8
844.5023	894.3069	7203.2	6354.5
844.6475	896.3416	6985.1	6135.2
844.7926	898.3757	6754.05	5904.55
844.9377	900.4091	6630.7	5781.35
845.0829	902.4418	6619.35	5766.9
845.228	904.4739	6711.45	5861.8
845.3732	906.5052	6806.75	5957.55
845.5183	908.5358	6836.4	5989.25
845.6635	910.5658	6768.1	5918.1
845.8086	912.595	6639.55	5789.6
845.9538	914.6236	6464.15	5614.4
846.0989	916.6515	6335.65	5486.75
846.2441	918.6786	6233.15	5379.55
846.3892	920.7051	6185.7	5333.35
846.5344	922.7309	6172.95	5322.4
846.6795	924.756	6183.3	5332.95
846.8246	926.7804	6213.25	5360.75
846.9698	928.8041	6236.75	5382.6
847.1149	930.8272	6322.65	5470.6
847.2601	932.8495	6348.3	5495.1
847.4052	934.8711	6388.25	5535.25
847.5504	936.892	6402.3	5550.55
847.6955	938.9123	6469.1	5615.6
847.8407	940.9318	6589.3	5735.7
847.9858	942.9506	6667.65	5814.45
848.131	944.9688	6634.8	5780.5
848.2761	946.9862	6561.7	5709.7
848.4213	949.003	6420.15	5566.2
848.5664	951.019	6300.75	5445.9
848.7115	953.0344	6198	5343.15
848.8567	955.0491	6149.5	5293.2
849.0018	957.063	6099.85	5246.45
849.147	959.0763	6086.7	5234.15
849.2921	961.0888	6069.1	5214.1
849.4373	963.1007	6060.5	5206.8
849.5824	965.1119	6036.8	5183.5
849.7275	967.1223	5977.4	5123.45
849.8727	969.1321	5943.05	5089.7
850.0178	971.1412	5945.8	5091.75
850.1629	973.1495	5917.15	5062.85
850.3081	975.1572	5922.2	5027.95
850.4532	977.1641	5920.95	5067.75
850.5983	979.1704	5906.85	5051.6
850.7435	981.1759	5926.15	5066
850.8886	983.1808	5881.85	5026.4
851.0337	985.1849	5842.15	4977.85
851.1788	987.1884	5798.2	4940.55
851.324	989.1911	5819.2	4959.75
851.4691	991.1932	5846.1	4989.9
851.6142	993.1945	5866.1	5010.9
851.7593	995.1951	5865.25	5008.2
851.9045	997.1951	5865.9	5004.8
852.0496	999.1943	5826.3	4970.1
852.1947	1001.1928	5808.5	4952.05
852.3398	1003.1906	5850	4992.55
852.4849	1005.1877	5951.15	5092.35
852.63	1007.1841	6058	5198.85
852.7751	1009.1798	6152.65	5297.7
852.9202	1011.1748	6095.8	5237.55
853.0653	1013.1691	6011.15	5153.05
853.2104	1015.1627	5866.3	5008.4
853.3555	1017.1556	5731.8	4873.15
853.5006	1019.1477	5651.75	4792.1
853.6457	1021.1392	5561.35	4702.8
853.7908	1023.1299	5510.7	4651.6
853.9359	1025.12	5501.45	4642.45
854.081	1027.1093	5534.2	4674.3
854.2261	1029.0979	5603.3	4747.6
854.3712	1031.0859	5677.3	4821.2
854.5163	1033.0731	5737.65	4878.4
854.6613	1035.0596	5780.75	4921.55
854.8064	1037.0454	5737.1	4875.75
854.9515	1039.0304	5676.1	4816.75
855.0965	1041.0148	5595.95	4735.1
855.2416	1042.9985	5495.85	4635.65
855.3867	1044.9814	5420.9	4562.3
855.5317	1046.9636	5390.4	4529.8
855.6768	1048.9452	5421.05	4561.5
855.8219	1050.926	5488.95	4630.45
855.9669	1052.9061	5573.7	4716.45
856.112	1054.8855	5597.95	4738.8
856.257	1056.8642	5621.75	4761.8
856.4021	1058.8421	5603.95	4739.1
856.5471	1060.8194	5574.55	4713.45
856.6921	1062.7959	5550.65	4690.75
856.8372	1064.7717	5542.8	4679.85
856.9822	1066.7469	5540.4	4679.7
857.1272	1068.7213	5550.2	4687.25
857.2723	1070.695	5592.3	4731.85
857.4173	1072.6679	5671.55	4809.3
857.5623	1074.6402	5805.1	4943.85
857.7073	1076.6117	5856.55	4989.2
857.8523	1078.5826	5821.9	4960.2
857.9973	1080.5527	5650.3	4786.75
858.1423	1082.5221	5494.45	4631.8
858.2873	1084.4908	5361.9	4500.35
858.4323	1086.4587	5270.55	4408.5
858.5773	1088.426	5245.05	4383.2
858.7223	1090.3925	5225.75	4357.35
858.8673	1092.3584	5232.8	4368.25
859.0123	1094.3235	5255.2	4395
859.1573	1096.2879	5325.4	4463
859.3022	1098.2515	5410.3	4548.1
859.4472	1100.2145	5516.85	4655.75
859.5922	1102.1767	5653.75	4788.55
859.7371	1104.1382	5799.4	4935.8
859.8821	1106.099	6027.85	5162.6
860.027	1108.0591	6241.7	5378.5
860.172	1110.0185	6433.75	5569.3
860.3169	1111.9771	6577.9	5715.95
860.4619	1113.9351	6755.2	5890.65
860.6068	1115.8923	7045.1	6181.2
860.7517	1117.8488	7267.1	6401.7
860.8967	1119.8045	7192.35	6330
861.0416	1121.7596	6811.3	5948.2
861.1865	1123.7139	6301.3	5440.25
861.3314	1125.6675	5991.6	5129.2
861.4763	1127.6204	5919.25	5055.1
861.6212	1129.5726	6003.8	5137.35
861.7661	1131.524	6045.1	5182.45
861.911	1133.4748	5924.3	5059.25
862.0559	1135.4248	5663.65	4797.6
862.2008	1137.3741	5425.65	4560.75
862.3457	1139.3226	5291.75	4427.9
862.4905	1141.2705	5245.7	4380.8
862.6354	1143.2176	5255.7	4386.35
862.7803	1145.164	5343.95	4476.75
862.9251	1147.1097	5359.15	4495.9
863.07	1149.0546	5310.95	4445.55
863.2148	1150.9989	5195.25	4331.6
863.3597	1152.9424	5104.8	4238.75
863.5045	1154.8852	5020.65	4154.6
863.6493	1156.8272	4990.25	4126.25
863.7942	1158.7686	4982.55	4113.4
863.939	1160.7092	4972.2	4105.25
864.0838	1162.6491	4985.2	4120
864.2286	1164.5883	5013.65	4150
864.3734	1166.5267	5073.45	4206.85
864.5182	1168.4644	5164.05	4298.35
864.663	1170.4014	5296.25	4428.4
864.8078	1172.3377	5460.25	4595.95
864.9526	1174.2732	5626.4	4761.4
865.0974	1176.2081	5971.05	5106.35
865.2421	1178.1421	6444.4	5574.75
865.3869	1180.0755	7012.35	6147.9
865.5317	1182.0082	7412.35	6547
865.6764	1183.9401	7500.75	6632.85
865.8212	1185.8713	7170.8	6304.75
865.9659	1187.8017	6624.55	5757.25
866.1106	1189.7315	6098.5	5231.05
866.2554	1191.6605	5720.4	4825.35
866.4001	1193.5888	5461.15	4594.55
866.5448	1195.5163	5322.45	4456.1
866.6895	1197.4432	5207.55	4338.3
866.8342	1199.3693	5117.6	4251.55
866.9789	1201.2947	5057.05	4183.85
867.1236	1203.2193	5018.2	4149.7
867.2683	1205.1432	4977.75	4109.2
867.413	1207.0664	4955.1	4088.95
867.5576	1208.9889	4947	4076.55
867.7023	1210.9106	4953.95	4085.85
867.847	1212.8316	4960.1	4094.9
867.9916	1214.7519	5013.85	4137.2
868.1363	1216.6715	5045.8	4179.25
868.2809	1218.5903	5077.65	4209.05
868.4255	1220.5084	5139.7	4272.2
868.5701	1222.4257	5205.75	4338.15
868.7148	1224.3424	5232.5	4366.15
868.8594	1226.2583	5289.6	4416.55
