Software Version:	3.9.2.0
Unit SN:	10000200
Spectrometer SN:	6960
Date:	3/8/2024 1:59:37 PM
Data Line Index:	25
Spectral Points:	2048
Integration time (ms):	125
Averages:	20
Delay (ms):	30000
Sequence Number:	1
Processing:	dark subtract
Laser Power (mW):	300
Laser Current (mA):	825
Laser Diode Temp (C):	25
Laser Case Temp (C):	26.2
System Temp (C):	26.2
Spectrometer Temp (C):	24.1
CCD Temp (C):	0.008
Secondary Temp (C):	20.001
Heatsink Temp (C):	20.383
CCDPCB Temp (C):	36.274
SecondaryPCB Temp (C):	30.716

Wavelength	RamanShift	Raw Counts	Dark Subtracted
787.061	30.1047	471.4	64.4
787.2016	32.3739	473.15	69.1
787.3422	34.6426	478.6	72.65
787.4828	36.9109	481.2	73.05
787.6235	39.1787	492.35	78.55
787.7642	41.4461	501.75	86.25
787.9049	43.7131	512.1	92.5
788.0456	45.9796	522.35	100.55
788.1863	48.2456	531.05	103.75
788.3271	50.5112	542.35	108.55
788.4679	52.7764	554.15	119
788.6087	55.0411	563.2	124.3
788.7496	57.3054	575.7	130.35
788.8904	59.5692	586.6	140.5
789.0313	61.8326	597.8	149.1
789.1722	64.0955	613	160.95
789.3132	66.3579	630.45	172.55
789.4541	68.6199	655.65	195.1
789.5951	70.8815	695.95	230.5
789.7361	73.1426	786.6	317.7
789.8771	75.4032	1006.6	534.35
790.0181	77.6634	1561.05	1084.05
790.1592	79.9231	2869.25	2383.95
790.3003	82.1824	5751.05	5248.75
790.4414	84.4412	10892.1	10356.75
790.5825	86.6995	18056.6	17479.6
790.7237	88.9574	25007.65	24395.6
790.8648	91.2148	29793.95	29159.85
791.006	93.4717	32043.25	31394.35
791.1472	95.7282	32533.55	31876.85
791.2885	97.9842	32560.5	31901.15
791.4297	100.2398	32020.7	31351.4
791.571	102.4949	31486.85	30820.35
791.7123	104.7495	30739.3	30067
791.8536	107.0036	29954.5	29285.8
791.9949	109.2573	29237.25	28568.35
792.1363	111.5105	28564.4	27889.6
792.2777	113.7632	27895.2	27221.75
792.4191	116.0154	27292.5	26604.75
792.5605	118.2672	26877.7	26197.65
792.7019	120.5185	26436.15	25755.8
792.8434	122.7693	26068.15	25384.3
792.9849	125.0197	25769.6	25082.3
793.1264	127.2696	25555.1	24866.55
793.2679	129.519	25414.45	24720.15
793.4094	131.7679	25260.95	24561.9
793.551	134.0163	25031.85	24332.1
793.6926	136.2642	24929.4	24221.2
793.8342	138.5117	24786.1	24074.75
793.9758	140.7587	24532.45	23822.4
794.1175	143.0052	24351.1	23640.35
794.2591	145.2512	24108.65	23395.7
794.4008	147.4967	23936.75	23222.75
794.5425	149.7417	23810.65	23096.7
794.6842	151.9863	23714	22996.05
794.826	154.2304	23631.2	22905.55
794.9677	156.4739	23524.65	22797.2
795.1095	158.717	23480.6	22750.85
795.2513	160.9596	23331.5	22596.6
795.3931	163.2017	23054.7	22320.8
795.535	165.4433	22806.7	22061.5
795.6768	167.6844	22502.7	21760.1
795.8187	169.925	22250.35	21508.75
795.9606	172.1651	21866.7	21121.8
796.1025	174.4047	21562.6	20814.6
796.2445	176.6439	21361.9	20613.55
796.3864	178.8825	21160.4	20408.6
796.5284	181.1206	21034.9	20279.05
796.6704	183.3582	20896.1	20132.9
796.8124	185.5954	20773.3	20013.9
796.9544	187.832	20670.1	19899.75
797.0965	190.0681	20640.05	19868.7
797.2386	192.3037	20687.2	19910.8
797.3806	194.5388	20757	19979.5
797.5228	196.7734	20729.7	19952.5
797.6649	199.0075	20879.2	20099.35
797.807	201.2411	21063.95	20279.35
797.9492	203.4742	21146.2	20363.45
798.0914	205.7068	21334.85	20548.85
798.2336	207.9389	21420.35	20631.55
798.3758	210.1704	21577.95	20796.1
798.518	212.4015	21739.85	20968.3
798.6603	214.632	21895.5	21133
798.8025	216.862	22146.2	21380.65
798.9448	219.0915	22273	21503.15
799.0871	221.3205	22506.05	21736.2
799.2294	223.549	22803.1	22039.15
799.3718	225.777	23167.55	22398.3
799.5141	228.0044	23564.8	22787.3
799.6565	230.2314	23984.3	23211.1
799.7989	232.4578	24398.3	23621
799.9413	234.6837	24805.8	24022.15
800.0837	236.909	25133.45	24344.95
800.2262	239.1339	24989.3	24173.7
800.3687	241.3582	24884.55	24083.75
800.5111	243.582	24582.75	23750.95
800.6536	245.8053	24259.15	23443.6
800.7961	248.0281	23926.3	23114.7
800.9387	250.2503	23769.85	22956.5
801.0812	252.472	23588.25	22774.1
801.2238	254.6932	23559.55	22749.05
801.3664	256.9139	23480.2	22663.15
801.509	259.134	23561.6	22736.35
801.6516	261.3536	23458.6	22636.1
801.7942	263.5727	23604.65	22780.45
801.9369	265.7912	23542.55	22719.9
802.0795	268.0092	23592.35	22772.25
802.2222	270.2267	23586.65	22767.3
802.3649	272.4436	23554	22732.45
802.5076	274.6601	23509.1	22676.15
802.6504	276.8759	23468.15	22641.4
802.7931	279.0913	23445.8	22619.3
802.9359	281.3061	23442.4	22617.2
803.0787	283.5204	23523.8	22690.3
803.2215	285.7341	23644	22804.15
803.3643	287.9473	23845.75	23000.2
803.5071	290.16	24047.25	23208.45
803.6499	292.3721	24376.25	23542.3
803.7928	294.5837	24774.7	23939.1
803.9357	296.7947	25070.8	24237.7
804.0786	299.0052	25353.45	24517.9
804.2215	301.2152	25234	24396
804.3644	303.4246	24921.35	24088.85
804.5074	305.6334	24447.35	23615.75
804.6503	307.8418	23890.7	23051.6
804.7933	310.0495	23535.9	22696.85
804.9363	312.2568	23243.75	22405.65
805.0793	314.4635	23014.35	22170
805.2223	316.6696	22933.7	22089.75
805.3653	318.8752	22881.2	22029.05
805.5084	321.0802	22905.4	22058.3
805.6514	323.2847	23012	22162.9
805.7945	325.4887	23069.45	22219.2
805.9376	327.692	23049.25	22199
806.0807	329.8949	22999.55	22147.4
806.2238	332.0972	22709.3	21853.95
806.367	334.2989	22498.1	21639.45
806.5101	336.5001	22266.9	21409.35
806.6533	338.7007	21994.05	21136.15
806.7965	340.9008	21925.65	21060.9
806.9397	343.1003	21800.05	20940.85
807.0829	345.2992	21856.7	20992.05
807.2261	347.4976	21791.65	20925.9
807.3693	349.6955	21763.9	20895.2
807.5126	351.8927	21885.25	21015.5
807.6559	354.0895	21907.4	21027.6
807.7991	356.2856	21925.9	21055.85
807.9424	358.4812	21984.45	21114.15
808.0857	360.6763	22016.9	21147.6
808.2291	362.8707	21985.4	21106.55
808.3724	365.0646	22018.25	21144.2
808.5158	367.258	22081.85	21204.45
808.6591	369.4508	22111.8	21233.2
808.8025	371.643	22244.55	21365.3
808.9459	373.8346	22194.05	21310.4
809.0893	376.0257	22175.45	21286.25
809.2327	378.2162	22119.55	21239.25
809.3762	380.4062	22016.35	21136.7
809.5196	382.5956	21866.35	20986.2
809.6631	384.7844	21840.25	20971.9
809.8066	386.9726	21714.05	20843.2
809.9501	389.1603	21662.35	20791.35
810.0936	391.3474	21642.8	20736.85
810.2371	393.5339	21684	20808.9
810.3806	395.7199	21594.2	20718.5
810.5241	397.9052	21602.8	20732.6
810.6677	400.09	21639.05	20764.25
810.8113	402.2743	21764.1	20889.6
810.9548	404.4579	21837.35	20959.2
811.0984	406.641	22021.3	21145.5
811.2421	408.8235	22272.75	21396.85
811.3857	411.0054	22586.5	21701.3
811.5293	413.1868	23031.9	22143.4
811.673	415.3675	23342.75	22449.9
811.8166	417.5477	23545.55	22654.15
811.9603	419.7273	23611.5	22724.05
812.104	421.9064	23498.15	22609.45
812.2477	424.0848	23385.3	22495.55
812.3914	426.2627	23251.05	22365.35
812.5351	428.4399	22891.75	22002.1
812.6788	430.6166	22536.45	21638.15
812.8226	432.7928	22254.55	21358.9
812.9663	434.9683	21918.2	21028.55
813.1101	437.1432	21714.4	20823.2
813.2539	439.3176	21535.4	20651.9
813.3977	441.4914	21344.85	20463.45
813.5415	443.6645	21388.65	20507.15
813.6853	445.8371	21317.7	20428.1
813.8291	448.0091	21251.05	20358.65
813.973	450.1806	21193.95	20305.55
814.1168	452.3514	21157.2	20273.75
814.2607	454.5216	21194.75	20295.8
814.4046	456.6913	21116.8	20225.3
814.5485	458.8603	21176.85	20288.3
814.6924	461.0288	21230.3	20346.8
814.8363	463.1967	21281.7	20403.75
814.9802	465.3639	21452	20567.5
815.1241	467.5306	21466.2	20581.35
815.2681	469.6967	21626.55	20744.4
815.412	471.8622	21833.7	20949.85
815.556	474.0271	21975.85	21093.1
815.7	476.1914	22095.35	21203.65
815.844	478.3551	22071.7	21183.3
815.988	480.5182	22112.7	21222.1
816.132	482.6807	22034.3	21158.75
816.276	484.8426	22178	21307.55
816.4201	487.0039	22532.25	21654.4
816.5641	489.1647	22917.9	22026.7
816.7082	491.3248	23345.8	22455.9
816.8522	493.4843	23608.5	22724.5
816.9963	495.6432	23582.5	22696.25
817.1404	497.8015	23505.45	22609.45
817.2845	499.9592	23567.05	22665.2
817.4286	502.1163	23484.45	22580.5
817.5727	504.2728	23267.8	22375.1
817.7168	506.4287	22956.35	22074.95
817.861	508.5839	22530.2	21647.85
818.0051	510.7386	22230.55	21340.75
818.1493	512.8927	22106.4	21206.25
818.2935	515.0461	21991.7	21094
818.4377	517.199	21976.45	21072.8
818.5818	519.3512	21954.1	21051.5
818.726	521.5029	22064.75	21160.4
818.8703	523.6539	22130.45	21233.8
819.0145	525.8043	22145.8	21241.6
819.1587	527.9541	22212.05	21309.55
819.303	530.1033	22188.8	21283.5
819.4472	532.2519	22217.75	21319.05
819.5915	534.3999	22373.15	21469.25
819.7357	536.5472	22649.8	21749.65
819.88	538.694	23052.1	22157.4
820.0243	540.8401	23730.75	22826.85
820.1686	542.9856	24213.35	23302.35
820.3129	545.1305	24445.25	23526.55
820.4572	547.2748	24327.55	23404.55
820.6016	549.4185	23949.75	23028.6
820.7459	551.5615	23646.45	22726.75
820.8902	553.704	23515.4	22595.6
821.0346	555.8458	23462.75	22548.95
821.1789	557.987	23506.2	22593.95
821.3233	560.1276	23467.75	22556
821.4677	562.2675	23535.15	22618.85
821.6121	564.4069	23549.15	22631.6
821.7565	566.5456	23597	22685.65
821.9009	568.6837	23482.3	22573.65
822.0453	570.8212	23255.45	22343.15
822.1897	572.958	22909.3	21997.4
822.3342	575.0942	22700.45	21789.9
822.4786	577.2299	22435.85	21530.8
822.6231	579.3648	22443.55	21553.15
822.7675	581.4992	22434	21554.8
822.912	583.6329	22647.6	21771.45
823.0565	585.766	22888	22000.95
823.201	587.8985	23046.05	22153.25
823.3454	590.0304	23042.8	22124.75
823.4899	592.1616	23025.75	22109.8
823.6345	594.2922	22906.7	21987.55
823.779	596.4222	22743.75	21825.15
823.9235	598.5515	22612.2	21692.55
824.068	600.6802	22453.45	21536.95
824.2126	602.8083	22260.15	21344.35
824.3571	604.9358	22236.2	21319.6
824.5017	607.0626	22157.4	21240.35
824.6462	609.1888	22120.1	21191.2
824.7908	611.3144	22124.05	21198.85
824.9354	613.4393	21994.65	21070.05
825.08	615.5636	21921.95	20995.25
825.2246	617.6873	21842.7	20917.45
825.3692	619.8103	21776.95	20846.85
825.5138	621.9327	21715.4	20793
825.6584	624.0544	21733.95	20814.7
825.803	626.1756	21677.5	20761.85
825.9477	628.2961	21622.15	20700.75
826.0923	630.4159	21562.2	20639.7
826.237	632.5351	21615.9	20693.6
826.3816	634.6537	21566.7	20643.1
826.5263	636.7716	21522.55	20591.25
826.6709	638.8889	21557.05	20622.9
826.8156	641.0056	21632.3	20701.7
826.9603	643.1216	21615.4	20684
827.105	645.237	21644.75	20718.35
827.2497	647.3518	21598.3	20679.6
827.3944	649.4659	21700.65	20787.8
827.5391	651.5793	21657.4	20740.1
827.6838	653.6922	21691.55	20771.8
827.8285	655.8043	21668.65	20750.3
827.9733	657.9159	21742.95	20822.2
828.118	660.0268	21592.4	20672.6
828.2627	662.137	21582.15	20654.9
828.4075	664.2466	21581.3	20646.85
828.5522	666.3556	21600.4	20669.2
828.697	668.4639	21563.4	20638.25
828.8418	670.5716	21593	20669.4
828.9865	672.6786	21675.8	20751.85
829.1313	674.785	21688.65	20756.35
829.2761	676.8907	21813.8	20887.05
829.4209	678.9958	21916.45	20994.1
829.5657	681.1002	21912.55	20987
829.7105	683.204	21862.85	20924.7
829.8553	685.3072	21824.7	20890.9
830.0001	687.4097	21777.15	20843.05
830.1449	689.5115	21757.1	20824.55
830.2898	691.6127	21748.35	20820.25
830.4346	693.7132	21689.05	20765.3
830.5794	695.8131	21696.7	20745.1
830.7243	697.9123	21658.55	20726.6
830.8691	700.0109	21663.25	20723.1
831.014	702.1089	21630.25	20697.85
831.1588	704.2061	21704.85	20770.9
831.3037	706.3028	21703.9	20767.15
831.4486	708.3987	21773.35	20835.55
831.5935	710.4941	21819.75	20885.45
831.7383	712.5887	22049.6	21113.95
831.8832	714.6827	22334.8	21398.6
832.0281	716.7761	22694.15	21764.45
832.173	718.8688	23056.75	22123.05
832.3179	720.9608	23242.5	22301.1
832.4628	723.0522	23365.05	22415.95
832.6077	725.1429	23181.15	22243.5
832.7527	727.233	22976.85	22040.3
832.8976	729.3224	22691.45	21754.2
833.0425	731.4112	22407.95	21471.25
833.1874	733.4993	22246.05	21308.65
833.3324	735.5867	22114.8	21179.5
833.4773	737.6735	22001.75	21062.75
833.6222	739.7596	21914.95	20973.05
833.7672	741.845	21907	20968.8
833.9122	743.9298	21895.05	20953.15
834.0571	746.014	21867.15	20931.5
834.2021	748.0974	21858	20912.4
834.347	750.1802	21900.5	20956.75
834.492	752.2624	21880.7	20937.7
834.637	754.3439	21907.4	20958.8
834.782	756.4247	22025.6	21073.35
834.9269	758.5048	22111.25	21167.7
835.0719	760.5843	22370.55	21425.15
835.2169	762.6631	22620.6	21676.15
835.3619	764.7413	23075.75	22133.35
835.5069	766.8188	23667.25	22722.7
835.6519	768.8956	24115.7	23170.2
835.7969	770.9718	24447.55	23505.35
835.9419	773.0473	24309.15	23368.3
836.0869	775.1221	23998.6	23054.45
836.232	777.1962	23689.7	22746.85
836.377	779.2697	23469.15	22523.4
836.522	781.3426	23507.05	22541.9
836.667	783.4147	23739.85	22794
836.8121	785.4862	24010.65	23068.8
836.9571	787.557	24125.85	23174.25
837.1021	789.6271	23781.85	22833.8
837.2472	791.6966	23244.85	22299.05
837.3922	793.7654	22711	21766.1
837.5373	795.8335	22414.9	21474.65
837.6823	797.901	22249.75	21302.45
837.8274	799.9678	22143.1	21192.55
837.9724	802.0339	22154.25	21205.05
838.1175	804.0993	22218.25	21257.35
838.2626	806.1641	22165.6	21215.55
838.4076	808.2282	22143.85	21196.8
838.5527	810.2916	22093.75	21144.8
838.6978	812.3544	21998.5	21054
838.8428	814.4164	21926.4	20980.35
838.9879	816.4778	21973.3	21018
839.133	818.5385	21962.9	21014.25
839.2781	820.5986	22045.85	21093.4
839.4232	822.658	22130.45	21177.3
839.5682	824.7166	22244.25	21297.15
839.7133	826.7747	22508.65	21553.7
839.8584	828.832	22693.15	21741.05
840.0035	830.8886	22823.35	21870.2
840.1486	832.9446	22990.35	22038.5
840.2937	834.9999	23026	22075.45
840.4388	837.0545	23062.5	22106.35
840.5839	839.1085	23048.4	22094.4
840.729	841.1618	23041.85	22086.4
840.8741	843.2143	23004.45	22056.3
841.0192	845.2662	22910.15	21961.95
841.1643	847.3175	22878.25	21922.9
841.3095	849.368	22748.35	21796.4
841.4546	851.4179	22649.9	21699
841.5997	853.467	22498.55	21548.9
841.7448	855.5155	22431.85	21479.3
841.8899	857.5633	22346.65	21396.6
842.0351	859.6105	22228.45	21277.85
842.1802	861.6569	22184.65	21228.8
842.3253	863.7027	22122.35	21167.8
842.4704	865.7478	22145.85	21190.3
842.6156	867.7922	22130	21175.5
842.7607	869.8359	22162.55	21204.3
842.9058	871.8789	22301.3	21344
843.0509	873.9212	22513.25	21524
843.1961	875.9629	22649.6	21697.55
843.3412	878.0039	22872.65	21917.8
843.4863	880.0441	22943.8	21990.65
843.6315	882.0837	23016.4	22062.5
843.7766	884.1226	22937.7	21981.35
843.9218	886.1609	22853.45	21902.1
844.0669	888.1984	22738.2	21783.65
844.212	890.2352	22812.65	21858.25
844.3572	892.2714	22737.5	21777.05
844.5023	894.3069	22744.15	21787.35
844.6475	896.3416	22689.45	21736.2
844.7926	898.3757	22627.4	21671
844.9377	900.4091	22669.55	21707.8
845.0829	902.4418	22668.1	21706.7
845.228	904.4739	22658.25	21696.8
845.3732	906.5052	22716.15	21755.5
845.5183	908.5358	22604.8	21643.65
845.6635	910.5658	22467.7	21503.5
845.8086	912.595	22321.5	21358.6
845.9538	914.6236	22189.2	21230.45
846.0989	916.6515	22166.8	21206.05
846.2441	918.6786	22129.5	21169.7
846.3892	920.7051	22199.75	21236.25
846.5344	922.7309	22316.85	21357.7
846.6795	924.756	22385.8	21431.9
846.8246	926.7804	22493.05	21535.5
846.9698	928.8041	22421.6	21460.95
847.1149	930.8272	22442.65	21485.25
847.2601	932.8495	22375.45	21417.55
847.4052	934.8711	22350.2	21389
847.5504	936.892	22144.25	21183.75
847.6955	938.9123	22029.15	21069.4
847.8407	940.9318	21953	20993.65
847.9858	942.9506	21825.65	20869.7
848.131	944.9688	21727.95	20768.35
848.2761	946.9862	21664.5	20705.45
848.4213	949.003	21593.75	20635.95
848.5664	951.019	21543.9	20584.05
848.7115	953.0344	21613.35	20653
848.8567	955.0491	21629.8	20670.3
849.0018	957.063	21721.8	20762.85
849.147	959.0763	21867.8	20912.85
849.2921	961.0888	21878.65	20920.85
849.4373	963.1007	22021.85	21065.9
849.5824	965.1119	22065.4	21117.85
849.7275	967.1223	22084.3	21141.45
849.8727	969.1321	22100.8	21161.65
850.0178	971.1412	22156.9	21211.05
850.1629	973.1495	22171.65	21218.8
850.3081	975.1572	22248.15	21246.25
850.4532	977.1641	22273.85	21312.35
850.5983	979.1704	22237.4	21277.3
850.7435	981.1759	22251.5	21287.05
850.8886	983.1808	22313.35	21351.7
851.0337	985.1849	22360.3	21394.45
851.1788	987.1884	22504.15	21547.45
851.324	989.1911	22686.35	21728.25
851.4691	991.1932	22794.85	21840.5
851.6142	993.1945	22838.2	21877.8
851.7593	995.1951	22773.35	21814.8
851.9045	997.1951	22775.6	21808
852.0496	999.1943	22662.4	21699.45
852.1947	1001.1928	22612.15	21651.2
852.3398	1003.1906	22580.1	21623.85
852.4849	1005.1877	22661.3	21705.05
852.63	1007.1841	22609.1	21653.35
852.7751	1009.1798	22539.25	21581
852.9202	1011.1748	22358.5	21404.55
853.0653	1013.1691	22166.2	21208.95
853.2104	1015.1627	21942.25	20982.7
853.3555	1017.1556	21668.5	20711.7
853.5006	1019.1477	21602.55	20647.5
853.6457	1021.1392	21520.65	20571.2
853.7908	1023.1299	21431.45	20487.5
853.9359	1025.12	21451.35	20514.5
854.081	1027.1093	21480	20556.7
854.2261	1029.0979	21565.1	20644.6
854.3712	1031.0859	21613.45	20683.05
854.5163	1033.0731	21585.4	20643.45
854.6613	1035.0596	21522.65	20579.85
854.8064	1037.0454	21342.6	20387.5
854.9515	1039.0304	21305.5	20352.4
855.0965	1041.0148	21105.45	20150.15
855.2416	1042.9985	21028.9	20076.7
855.3867	1044.9814	21041	20086.15
855.5317	1046.9636	20967.15	20011.15
855.6768	1048.9452	20905.75	19952.6
855.8219	1050.926	20944.1	19989.8
855.9669	1052.9061	20919.5	19965.2
856.112	1054.8855	20942.6	19986.15
856.257	1056.8642	20987	20033.1
856.4021	1058.8421	21016.2	20053.05
856.5471	1060.8194	21008.2	20047.9
856.6921	1062.7959	21074.45	20120.25
856.8372	1064.7717	21083.65	20126.95
856.9822	1066.7469	21072.75	20115.2
857.1272	1068.7213	21106.9	20150.75
857.2723	1070.695	21092.65	20142.4
857.4173	1072.6679	21032.25	20077.15
857.5623	1074.6402	21016.7	20059.5
857.7073	1076.6117	21014.1	20055.55
857.8523	1078.5826	21010.25	20053.2
857.9973	1080.5527	20981.65	20018.55
858.1423	1082.5221	21060.65	20102.2
858.2873	1084.4908	21226.1	20270.2
858.4323	1086.4587	21394.25	20437.2
858.5773	1088.426	21553.2	20595.65
858.7223	1090.3925	21520.7	20561.3
858.8673	1092.3584	21497.55	20542.15
859.0123	1094.3235	21378.1	20424.5
859.1573	1096.2879	21281.05	20327.2
859.3022	1098.2515	21275.25	20318.65
859.4472	1100.2145	21320.25	20365.2
859.5922	1102.1767	21405.8	20448.8
859.7371	1104.1382	21552.65	20599.8
859.8821	1106.099	21786	20831.5
860.027	1108.0591	21936.6	20983.65
860.172	1110.0185	22086.8	21135.65
860.3169	1111.9771	22164.4	21211.6
860.4619	1113.9351	21903.05	20947.8
860.6068	1115.8923	21648.55	20695.1
860.7517	1117.8488	21346.35	20389.1
860.8967	1119.8045	21037.05	20081.95
861.0416	1121.7596	20905.2	19951.05
861.1865	1123.7139	20825	19871.95
861.3314	1125.6675	20855.2	19903.95
861.4763	1127.6204	20917.3	19966.95
861.6212	1129.5726	20895.3	19941.9
861.7661	1131.524	20877.35	19925.95
861.911	1133.4748	20898.6	19944.1
862.0559	1135.4248	20803.9	19847.85
862.2008	1137.3741	20812.7	19858
862.3457	1139.3226	20759.05	19800.7
862.4905	1141.2705	20752.2	19798.2
862.6354	1143.2176	20660.95	19701.85
862.7803	1145.164	20634.5	19676.15
862.9251	1147.1097	20621.4	19663.85
863.07	1149.0546	20654.25	19699.6
863.2148	1150.9989	20562.65	19609.65
863.3597	1152.9424	20437.75	19482.85
863.5045	1154.8852	20270.1	19315.7
863.6493	1156.8272	20164.2	19210.85
863.7942	1158.7686	20134.05	19173.85
863.939	1160.7092	20104.95	19147.85
864.0838	1162.6491	20005.45	19046.85
864.2286	1164.5883	20123.95	19170.65
864.3734	1166.5267	20174.45	19219
864.5182	1168.4644	20347.55	19395.6
864.663	1170.4014	20512.1	19555.45
864.8078	1172.3377	20771.6	19823.35
864.9526	1174.2732	20972.15	20021.95
865.0974	1176.2081	21255.6	20304
865.2421	1178.1421	21485.65	20529.9
865.3869	1180.0755	21699.95	20749.7
865.5317	1182.0082	21779.75	20828.65
