Software Version:	3.9.2.0
Unit SN:	10000200
Spectrometer SN:	6960
Date:	3/8/2024 1:57:15 PM
Data Line Index:	25
Spectral Points:	2048
Integration time (ms):	125
Averages:	20
Delay (ms):	30000
Sequence Number:	1
Processing:	dark subtract
Laser Power (mW):	305
Laser Current (mA):	823
Laser Diode Temp (C):	25
Laser Case Temp (C):	26.3
System Temp (C):	26.3
Spectrometer Temp (C):	24.1
CCD Temp (C):	0.004
Secondary Temp (C):	20.011
Heatsink Temp (C):	20.381
CCDPCB Temp (C):	36.218
SecondaryPCB Temp (C):	30.716

Wavelength	RamanShift	Raw Counts	Dark Subtracted
787.061	30.1047	465.1	58.05
787.2016	32.3739	471.05	66.4
787.3422	34.6426	474.05	66.4
787.4828	36.9109	481.7	73.2
787.6235	39.1787	488.55	74.25
787.7642	41.4461	498.75	81.95
787.9049	43.7131	508.5	88.5
788.0456	45.9796	518.1	96.25
788.1863	48.2456	523.9	97.2
788.3271	50.5112	540.95	110.45
788.4679	52.7764	547.2	114.4
788.6087	55.0411	561	121.95
788.7496	57.3054	568.85	125.2
788.8904	59.5692	579.35	133.6
789.0313	61.8326	591.5	142.4
789.1722	64.0955	604.8	153.3
789.3132	66.3579	626.15	168.75
789.4541	68.6199	641.7	179.8
789.5951	70.8815	689.15	223.6
789.7361	73.1426	773.95	305.7
789.8771	75.4032	982.35	510.7
790.0181	77.6634	1523.75	1046.7
790.1592	79.9231	2795.2	2310.05
790.3003	82.1824	5544.95	5043.75
790.4414	84.4412	10506.55	9974
790.5825	86.6995	17364.05	16794.85
790.7237	88.9574	24059	23454.05
790.8648	91.2148	28678.8	28053.2
791.006	93.4717	30897.3	30259.5
791.1472	95.7282	31433.15	30788.45
791.2885	97.9842	31405	30757.4
791.4297	100.2398	30894.9	30244.8
791.571	102.4949	30331.15	29678.4
791.7123	104.7495	29627.55	28970.1
791.8536	107.0036	28855.7	28197.25
791.9949	109.2573	28086.65	27428.4
792.1363	111.5105	27402.55	26741.2
792.2777	113.7632	26710.1	26047.45
792.4191	116.0154	26111.45	25437.55
792.5605	118.2672	25704.25	25036.55
792.7019	120.5185	25252.3	24580.65
792.8434	122.7693	24880.95	24206.75
792.9849	125.0197	24693.35	24019.05
793.1264	127.2696	24388.7	23707.65
793.2679	129.519	24279.45	23595.6
793.4094	131.7679	24074	23386
793.551	134.0163	23950.4	23262.55
793.6926	136.2642	23780.35	23084.35
793.8342	138.5117	23568.6	22868.1
793.9758	140.7587	23327.25	22627.55
794.1175	143.0052	23195.4	22491.85
794.2591	145.2512	22920.7	22221.5
794.4008	147.4967	22735.5	22036
794.5425	149.7417	22600.2	21895.6
794.6842	151.9863	22527.95	21816.2
794.826	154.2304	22497.35	21778.05
794.9677	156.4739	22319.9	21599.45
795.1095	158.717	22251.8	21532.3
795.2513	160.9596	22149	21423.25
795.3931	163.2017	21925.15	21199.3
795.535	165.4433	21650.1	20923.7
795.6768	167.6844	21315.95	20584.4
795.8187	169.925	21020	20290.2
795.9606	172.1651	20684.85	19952.8
796.1025	174.4047	20409.75	19675.15
796.2445	176.6439	20149.65	19414.85
796.3864	178.8825	19946.05	19203.7
796.5284	181.1206	19839.4	19094.2
796.6704	183.3582	19671.35	18917.9
796.8124	185.5954	19539.25	18786.2
796.9544	187.832	19511.3	18752.7
797.0965	190.0681	19477.4	18717
797.2386	192.3037	19504.85	18743.8
797.3806	194.5388	19527.1	18760.5
797.5228	196.7734	19578.8	18814.25
797.6649	199.0075	19678.9	18912.7
797.807	201.2411	19850.3	19083.7
797.9492	203.4742	19917.5	19144.7
798.0914	205.7068	20116	19340.8
798.2336	207.9389	20251.65	19474.85
798.3758	210.1704	20401.15	19627.25
798.518	212.4015	20520.15	19760.55
798.6603	214.632	20713.95	19961.35
798.8025	216.862	20908.25	20152.65
798.9448	219.0915	21071.85	20312.75
799.0871	221.3205	21330.95	20571.75
799.2294	223.549	21635.6	20882.25
799.3718	225.777	21920.65	21170.6
799.5141	228.0044	22286.2	21526.9
799.6565	230.2314	22778.7	22018.05
799.7989	232.4578	23184.5	22420.15
799.9413	234.6837	23565.3	22792.35
800.0837	236.909	23793.8	23020.4
800.2262	239.1339	23775.65	22972.25
800.3687	241.3582	23625.4	22836.05
800.5111	243.582	23329.5	22505.7
800.6536	245.8053	22999.35	22194.95
800.7961	248.0281	22669.8	21871.3
800.9387	250.2503	22467.6	21667.15
801.0812	252.472	22332.55	21527.2
801.2238	254.6932	22303.45	21500.2
801.3664	256.9139	22229.35	21424.2
801.509	259.134	22237.95	21425.9
801.6516	261.3536	22297.6	21489.6
801.7942	263.5727	22354.6	21545.75
801.9369	265.7912	22285.5	21478.1
802.0795	268.0092	22356.95	21548.6
802.2222	270.2267	22349.45	21538.7
802.3649	272.4436	22355.9	21547.2
802.5076	274.6601	22285.7	21466.05
802.6504	276.8759	22220.9	21408.7
802.7931	279.0913	22220.55	21408
802.9359	281.3061	22178	21359.9
803.0787	283.5204	22323.35	21499.8
803.2215	285.7341	22381.25	21556.7
803.3643	287.9473	22549.55	21712.9
803.5071	290.16	22822.6	21998.55
803.6499	292.3721	23102	22288.3
803.7928	294.5837	23550.35	22728.3
803.9357	296.7947	23897.6	23075.7
804.0786	299.0052	24142.25	23318.7
804.2215	301.2152	23993.15	23164.4
804.3644	303.4246	23649.9	22831.9
804.5074	305.6334	23178.3	22354.4
804.6503	307.8418	22613.25	21786.8
804.7933	310.0495	22255.85	21430.65
804.9363	312.2568	21959.5	21133.45
805.0793	314.4635	21746.6	20911.7
805.2223	316.6696	21648.6	20812.25
805.3653	318.8752	21621.55	20779.2
805.5084	321.0802	21676.35	20837.6
805.6514	323.2847	21823.95	20983.7
805.7945	325.4887	21883.55	21047.75
805.9376	327.692	21810.7	20973.15
806.0807	329.8949	21764.6	20925.45
806.2238	332.0972	21521.4	20679.85
806.367	334.2989	21225.65	20378.85
806.5101	336.5001	20968.45	20120.7
806.6533	338.7007	20754.15	19908.65
806.7965	340.9008	20724.75	19877.35
806.9397	343.1003	20641.3	19792.4
807.0829	345.2992	20579.95	19732.4
807.2261	347.4976	20555.2	19705.95
807.3693	349.6955	20546.8	19694.95
807.5126	351.8927	20668.75	19817
807.6559	354.0895	20652.55	19786.8
807.7991	356.2856	20732.4	19873
807.9424	358.4812	20700.55	19840.2
808.0857	360.6763	20762.9	19904.45
808.2291	362.8707	20727.6	19866.2
808.3724	365.0646	20858.4	19995.7
808.5158	367.258	20875.9	20010.65
808.6591	369.4508	20898.8	20032.5
808.8025	371.643	20994.65	20124.2
808.9459	373.8346	20983.35	20111.5
809.0893	376.0257	20976.75	20108.8
809.2327	378.2162	20897.15	20028.5
809.3762	380.4062	20825.35	19959.5
809.5196	382.5956	20669.25	19804.4
809.6631	384.7844	20584.35	19721.85
809.8066	386.9726	20521.35	19660.95
809.9501	389.1603	20471.7	19611
810.0936	391.3474	20431.4	19540.55
810.2371	393.5339	20451.9	19585.35
810.3806	395.7199	20385.85	19523.85
810.5241	397.9052	20419.55	19558.95
810.6677	400.09	20486.65	19626.2
810.8113	402.2743	20569.55	19708.95
810.9548	404.4579	20630.9	19764.6
811.0984	406.641	20803.15	19936.75
811.2421	408.8235	21049.85	20182.7
811.3857	411.0054	21388.7	20519.1
811.5293	413.1868	21869.35	20994.15
811.673	415.3675	22191	21313.5
811.8166	417.5477	22369.55	21495.1
811.9603	419.7273	22430.2	21551.55
812.104	421.9064	22322.6	21437.9
812.2477	424.0848	22228.7	21354
812.3914	426.2627	22014.4	21139.2
812.5351	428.4399	21734.65	20851.7
812.6788	430.6166	21434.1	20550.35
812.8226	432.7928	21034.7	20150.25
812.9663	434.9683	20763.75	19883.7
813.1101	437.1432	20526.9	19651.75
813.2539	439.3176	20335.65	19460.75
813.3977	441.4914	20218.85	19346.25
813.5415	443.6645	20232.9	19355.8
813.6853	445.8371	20183.4	19303.05
813.8291	448.0091	20110.6	19233.05
813.973	450.1806	20099.5	19219.4
814.1168	452.3514	20012.9	19135.25
814.2607	454.5216	20070.05	19182.65
814.4046	456.6913	19990.9	19109.75
814.5485	458.8603	20069.6	19189.3
814.6924	461.0288	20164.6	19293.5
814.8363	463.1967	20152.7	19285.3
814.9802	465.3639	20327.65	19450.1
815.1241	467.5306	20394.55	19514.9
815.2681	469.6967	20509.45	19635.6
815.412	471.8622	20664.35	19791.6
815.556	474.0271	20865.25	19986.95
815.7	476.1914	20980.3	20100
815.844	478.3551	20938.1	20059.6
815.988	480.5182	20941.45	20065.1
816.132	482.6807	20945.95	20079.15
816.276	484.8426	21094.65	20228.5
816.4201	487.0039	21378.05	20507.35
816.5641	489.1647	21822	20940.4
816.7082	491.3248	22301.5	21418.95
816.8522	493.4843	22457.35	21583.1
816.9963	495.6432	22490.45	21614.3
817.1404	497.8015	22396.8	21510.2
817.2845	499.9592	22395.25	21503.3
817.4286	502.1163	22382.95	21488.95
817.5727	504.2728	22114.55	21232.05
817.7168	506.4287	21854.3	20978.95
817.861	508.5839	21419.1	20547.9
818.0051	510.7386	21126.7	20246.45
818.1493	512.8927	21010.6	20122.8
818.2935	515.0461	20932.95	20043
818.4377	517.199	20869.85	19979.65
818.5818	519.3512	20887.8	19997.4
818.726	521.5029	20996.5	20100.15
818.8703	523.6539	21061.8	20170.6
819.0145	525.8043	21129.1	20237
819.1587	527.9541	21181	20283.15
819.303	530.1033	21141.95	20250.45
819.4472	532.2519	21188.2	20294.1
819.5915	534.3999	21338.35	20444.75
819.7357	536.5472	21610.35	20720.6
819.88	538.694	22027.45	21141.8
820.0243	540.8401	22667.65	21774
820.1686	542.9856	23174.5	22270.15
820.3129	545.1305	23352.05	22444.35
820.4572	547.2748	23257.6	22347.3
820.6016	549.4185	22892.95	21979.45
820.7459	551.5615	22564.35	21654.3
820.8902	553.704	22474.35	21565.25
821.0346	555.8458	22429.65	21526.45
821.1789	557.987	22461.9	21562.15
821.3233	560.1276	22440.6	21540.1
821.4677	562.2675	22494.35	21592
821.6121	564.4069	22546.1	21637.65
821.7565	566.5456	22566.4	21665.8
821.9009	568.6837	22525.15	21623.95
822.0453	570.8212	22246.45	21348.75
822.1897	572.958	21865.05	20967.25
822.3342	575.0942	21610	20714.45
822.4786	577.2299	21398.35	20507.7
822.6231	579.3648	21373.75	20492.8
822.7675	581.4992	21436.6	20565.7
822.912	583.6329	21651.75	20780.3
823.0565	585.766	21900.85	21020.7
823.201	587.8985	22023.75	21137.8
823.3454	590.0304	22030.7	21118.55
823.4899	592.1616	21993.35	21087.8
823.6345	594.2922	21905.4	20995.9
823.779	596.4222	21776.3	20865.1
823.9235	598.5515	21599.85	20692.75
824.068	600.6802	21453.7	20546.5
824.2126	602.8083	21263.7	20360.75
824.3571	604.9358	21242.05	20339.5
824.5017	607.0626	21196.35	20288.1
824.6462	609.1888	21130.4	20213
824.7908	611.3144	21131.55	20216.55
824.9354	613.4393	21065.95	20151.65
825.08	615.5636	20989.1	20075.35
825.2246	617.6873	20912.25	20000.05
825.3692	619.8103	20852.35	19936.75
825.5138	621.9327	20751.1	19842.2
825.6584	624.0544	20731.5	19828.75
825.803	626.1756	20743.7	19835.15
825.9477	628.2961	20709.55	19798.65
826.0923	630.4159	20670.8	19757.15
826.237	632.5351	20642.45	19726.25
826.3816	634.6537	20609.55	19692.45
826.5263	636.7716	20595.35	19674.35
826.6709	638.8889	20636.45	19711.1
826.8156	641.0056	20733.2	19811
826.9603	643.1216	20711.55	19789.85
827.105	645.237	20731.75	19814.85
827.2497	647.3518	20715.3	19804.05
827.3944	649.4659	20797.05	19892.05
827.5391	651.5793	20774.15	19870.6
827.6838	653.6922	20785.5	19877.1
827.8285	655.8043	20751.6	19844.2
827.9733	657.9159	20760.2	19846.15
828.118	660.0268	20732.45	19822.25
828.2627	662.137	20664.15	19749.1
828.4075	664.2466	20662.45	19739.2
828.5522	666.3556	20691.95	19771.95
828.697	668.4639	20677.3	19762.1
828.8418	670.5716	20747.15	19839.5
828.9865	672.6786	20816.85	19903
829.1313	674.785	20864.3	19941.25
829.2761	676.8907	20924.25	20006.3
829.4209	678.9958	21034.25	20125.35
829.5657	681.1002	20990.95	20072.7
829.7105	683.204	20997.25	20068.75
829.8553	685.3072	20965.25	20038.6
830.0001	687.4097	20899.6	19982.85
830.1449	689.5115	20893.7	19968.5
830.2898	691.6127	20886.95	19965.9
830.4346	693.7132	20777.15	19862.1
830.5794	695.8131	20811.25	19872.9
830.7243	697.9123	20826.65	19904
830.8691	700.0109	20788.8	19864.55
831.014	702.1089	20778.1	19854.85
831.1588	704.2061	20797.75	19872.25
831.3037	706.3028	20837.45	19911.65
831.4486	708.3987	20931.2	20007.65
831.5935	710.4941	21036.6	20115.3
831.7383	712.5887	21207.5	20286.55
831.8832	714.6827	21508.85	20584.6
832.0281	716.7761	21879.75	20957.15
832.173	718.8688	22220.2	21298.7
832.3179	720.9608	22424.9	21497.15
832.4628	723.0522	22499.55	21562.8
832.6077	725.1429	22360.8	21429.55
832.7527	727.233	22139.3	21213.5
832.8976	729.3224	21909.65	20982.9
833.0425	731.4112	21638.55	20710.2
833.1874	733.4993	21439.15	20512.65
833.3324	735.5867	21256.5	20331
833.4773	737.6735	21213.75	20286
833.6222	739.7596	21110.9	20179.35
833.7672	741.845	21092.5	20165.55
833.9122	743.9298	21074.75	20149.9
834.0571	746.014	21088.3	20161.2
834.2021	748.0974	21120.1	20188.35
834.347	750.1802	21113.8	20179.35
834.492	752.2624	21079.1	20147.2
834.637	754.3439	21151.8	20215.95
834.782	756.4247	21206.3	20267.9
834.9269	758.5048	21283.65	20351.65
835.0719	760.5843	21567	20631
835.2169	762.6631	21872.05	20938.9
835.3619	764.7413	22310	21382.7
835.5069	766.8188	22939.5	22003
835.6519	768.8956	23411.85	22479.8
835.7969	770.9718	23707.15	22775.8
835.9419	773.0473	23536.85	22604.2
836.0869	775.1221	23257.15	22322.75
836.232	777.1962	22834	21898.25
836.377	779.2697	22720.15	21786.3
836.522	781.3426	22748.85	21795.55
836.667	783.4147	22992.05	22056.2
836.8121	785.4862	23335.2	22404.1
836.9571	787.557	23372.9	22439.6
837.1021	789.6271	23030.15	22095.75
837.2472	791.6966	22470.45	21537.1
837.3922	793.7654	21951.8	21015.75
837.5373	795.8335	21693	20755
837.6823	797.901	21521.15	20586.15
837.8274	799.9678	21431.3	20491.45
837.9724	802.0339	21448.4	20511.45
838.1175	804.0993	21494.55	20547.15
838.2626	806.1641	21503.65	20567.9
838.4076	808.2282	21447.6	20512.15
838.5527	810.2916	21369.1	20429.3
838.6978	812.3544	21283.3	20352.55
838.8428	814.4164	21182.25	20249.85
838.9879	816.4778	21294.05	20352.6
839.133	818.5385	21248.95	20311.3
839.2781	820.5986	21335.1	20394.45
839.4232	822.658	21458.6	20517.45
839.5682	824.7166	21579.05	20642.4
839.7133	826.7747	21879.8	20943.8
839.8584	828.832	22058.9	21120.1
840.0035	830.8886	22201.85	21260.3
840.1486	832.9446	22367.35	21425.5
840.2937	834.9999	22374.15	21438.2
840.4388	837.0545	22423.55	21481
840.5839	839.1085	22387.85	21449.75
840.729	841.1618	22326.05	21385
840.8741	843.2143	22285.8	21342.4
841.0192	845.2662	22227.4	21287.85
841.1643	847.3175	22198.8	21260.55
841.3095	849.368	22092.35	21151.85
841.4546	851.4179	22012.75	21074.05
841.5997	853.467	21849.55	20909.1
841.7448	855.5155	21753.7	20812.05
841.8899	857.5633	21649.05	20705.3
842.0351	859.6105	21566.2	20623.5
842.1802	861.6569	21534.55	20591.8
842.3253	863.7027	21511.1	20567.4
842.4704	865.7478	21505.25	20559.5
842.6156	867.7922	21528.55	20587.35
842.7607	869.8359	21574.7	20633.55
842.9058	871.8789	21675.1	20734.4
843.0509	873.9212	21884.65	20911.55
843.1961	875.9629	22035.15	21092.35
843.3412	878.0039	22197.95	21256.45
843.4863	880.0441	22332.65	21395.6
843.6315	882.0837	22382.4	21442.5
843.7766	884.1226	22305.85	21358.85
843.9218	886.1609	22225.4	21284.3
844.0669	888.1984	22136.4	21197.1
844.212	890.2352	22186.05	21244.3
844.3572	892.2714	22155.6	21207.65
844.5023	894.3069	22165.1	21223.15
844.6475	896.3416	22047.3	21106.4
844.7926	898.3757	22073.75	21132.05
844.9377	900.4091	22090.75	21143.8
845.0829	902.4418	22113.45	21160.2
845.228	904.4739	22063.55	21115.8
845.3732	906.5052	22109.2	21159.85
845.5183	908.5358	22008.9	21060.95
845.6635	910.5658	21860.15	20915.4
845.8086	912.595	21689.3	20746.2
845.9538	914.6236	21577.9	20631.25
846.0989	916.6515	21548.2	20601
846.2441	918.6786	21503.55	20554.35
846.3892	920.7051	21636.4	20686.9
846.5344	922.7309	21814.65	20869.6
846.6795	924.756	21786.1	20839.65
846.8246	926.7804	21905.7	20960.45
846.9698	928.8041	21795.35	20847.85
847.1149	930.8272	21875.9	20926.8
847.2601	932.8495	21801.2	20853.65
847.4052	934.8711	21793.6	20839.9
847.5504	936.892	21646.4	20699.05
847.6955	938.9123	21498.25	20548.85
847.8407	940.9318	21410.7	20463.65
847.9858	942.9506	21309.75	20361.3
848.131	944.9688	21177.35	20234.05
848.2761	946.9862	21117.55	20170.5
848.4213	949.003	21033.15	20085.5
848.5664	951.019	21062.05	20114.4
848.7115	953.0344	21060.8	20111.4
848.8567	955.0491	21124.05	20176.3
849.0018	957.063	21181.45	20233.8
849.147	959.0763	21348.75	20403.3
849.2921	961.0888	21394.15	20447.95
849.4373	963.1007	21475.85	20534.95
849.5824	965.1119	21531	20594.85
849.7275	967.1223	21556.5	20624.7
849.8727	969.1321	21570.65	20638.55
850.0178	971.1412	21647.45	20709.7
850.1629	973.1495	21646.5	20705.65
850.3081	975.1572	21754.05	20765
850.4532	977.1641	21730.85	20783.1
850.5983	979.1704	21709.6	20762.5
850.7435	981.1759	21715.75	20762.45
850.8886	983.1808	21816.35	20867.75
851.0337	985.1849	21877.9	20923
851.1788	987.1884	22010.5	21061.9
851.324	989.1911	22179.45	21231.05
851.4691	991.1932	22345.05	21400.05
851.6142	993.1945	22329.25	21382.85
851.7593	995.1951	22299	21348.8
851.9045	997.1951	22283.65	21331.3
852.0496	999.1943	22157.3	21211.15
852.1947	1001.1928	22125.65	21179.5
852.3398	1003.1906	22088.45	21142.15
852.4849	1005.1877	22180.7	21233.7
852.63	1007.1841	22132.05	21187.05
852.7751	1009.1798	22076.1	21133.55
852.9202	1011.1748	21886.8	20940
853.0653	1013.1691	21684.4	20737.85
853.2104	1015.1627	21448.3	20505.95
853.3555	1017.1556	21251.45	20305.9
853.5006	1019.1477	21123.45	20182.1
853.6457	1021.1392	21024.9	20088.45
853.7908	1023.1299	20989.7	20056.35
853.9359	1025.12	21010.6	20082.55
854.081	1027.1093	21023.6	20107.85
854.2261	1029.0979	21135.7	20221.4
854.3712	1031.0859	21167.55	20247.65
854.5163	1033.0731	21211.05	20280.1
854.6613	1035.0596	21100.65	20164.75
854.8064	1037.0454	20918.15	19979.15
854.9515	1039.0304	20824.85	19878.15
855.0965	1041.0148	20661.1	19720.25
855.2416	1042.9985	20608.3	19661.05
855.3867	1044.9814	20594	19655.2
855.5317	1046.9636	20509.95	19565.05
855.6768	1048.9452	20481.5	19538.95
855.8219	1050.926	20511	19569.95
855.9669	1052.9061	20524.6	19579.6
856.112	1054.8855	20477.3	19532.7
856.257	1056.8642	20553.3	19608.35
856.4021	1058.8421	20591.95	19640.9
856.5471	1060.8194	20625.8	19681.25
856.6921	1062.7959	20645.8	19700.35
856.8372	1064.7717	20703.9	19757.35
856.9822	1066.7469	20720.1	19773.6
857.1272	1068.7213	20702.55	19757.25
857.2723	1070.695	20731.55	19785.6
857.4173	1072.6679	20609.25	19667.8
857.5623	1074.6402	20596.35	19651.85
857.7073	1076.6117	20583.9	19635.2
857.8523	1078.5826	20603.25	19655.05
857.9973	1080.5527	20602.85	19654.2
858.1423	1082.5221	20654.25	19709.7
858.2873	1084.4908	20854.85	19909.05
858.4323	1086.4587	21004.7	20057.5
858.5773	1088.426	21189.3	20244.75
858.7223	1090.3925	21172.65	20223.55
858.8673	1092.3584	21135.8	20190.05
859.0123	1094.3235	20971.9	20027.9
859.1573	1096.2879	20892.1	19951.15
859.3022	1098.2515	20892.3	19948.2
859.4472	1100.2145	21002.35	20056.95
859.5922	1102.1767	21067.4	20121.6
859.7371	1104.1382	21221.95	20279.65
859.8821	1106.099	21455.25	20507.65
860.027	1108.0591	21652.25	20708.45
860.172	1110.0185	21731.85	20788.5
860.3169	1111.9771	21786.4	20846.55
860.4619	1113.9351	21556.95	20613.85
860.6068	1115.8923	21283.65	20336.7
860.7517	1117.8488	20982.55	20039.05
860.8967	1119.8045	20701.9	19759.45
861.0416	1121.7596	20606.6	19667.9
861.1865	1123.7139	20514.35	19571.95
861.3314	1125.6675	20496.8	19554.65
861.4763	1127.6204	20577.1	19635.1
861.6212	1129.5726	20554.25	19610.25
861.7661	1131.524	20532.7	19593.5
861.911	1133.4748	20544.7	19601.65
862.0559	1135.4248	20521.6	19574.25
862.2008	1137.3741	20486.1	19543.55
862.3457	1139.3226	20438.3	19494.15
862.4905	1141.2705	20455.85	19513.85
862.6354	1143.2176	20306.4	19357.2
862.7803	1145.164	20332.85	19389.05
862.9251	1147.1097	20313.45	19370.15
863.07	1149.0546	20319.6	19376.15
863.2148	1150.9989	20235.65	19293.45
863.3597	1152.9424	20118.8	19173.85
863.5045	1154.8852	19958.05	19015.85
863.6493	1156.8272	19867.55	18926.45
863.7942	1158.7686	19815.2	18866.05
863.939	1160.7092	19745.6	18799.75
864.0838	1162.6491	19745.55	18800.8
864.2286	1164.5883	19826.25	18883.3
864.3734	1166.5267	19902.4	18962.5
864.5182	1168.4644	20031.9	19089.3
864.663	1170.4014	20226.15	19282.95
864.8078	1172.3377	20479.6	19541.65
864.9526	1174.2732	20662.35	19721.9
865.0974	1176.2081	20950.45	20006.1
865.2421	1178.1421	21185.55	20240.4
865.3869	1180.0755	21437.35	20498.1
865.5317	1182.0082	21498.9	20558.85
