Software Version:	3.9.2.0
Unit SN:	10000200
Spectrometer SN:	6960
Date:	3/8/2024 1:58:02 PM
Data Line Index:	25
Spectral Points:	2048
Integration time (ms):	125
Averages:	20
Delay (ms):	30000
Sequence Number:	1
Processing:	dark subtract
Laser Power (mW):	300
Laser Current (mA):	823
Laser Diode Temp (C):	25
Laser Case Temp (C):	26.3
System Temp (C):	26.3
Spectrometer Temp (C):	24.2
CCD Temp (C):	0.01
Secondary Temp (C):	20.008
Heatsink Temp (C):	20.457
CCDPCB Temp (C):	35.951
SecondaryPCB Temp (C):	30.538

Wavelength	RamanShift	Raw Counts	Dark Subtracted
787.061	30.1047	466.65	58.6
787.2016	32.3739	467.15	61.35
787.3422	34.6426	471.75	64.1
787.4828	36.9109	480.55	72.1
787.6235	39.1787	491.25	79.65
787.7642	41.4461	498.65	81.35
787.9049	43.7131	507	86.55
788.0456	45.9796	517.1	94.5
788.1863	48.2456	527.35	99.9
788.3271	50.5112	536.4	103.85
788.4679	52.7764	546.7	111.35
788.6087	55.0411	558.2	118.7
788.7496	57.3054	573.7	129.1
788.8904	59.5692	582.25	136.55
789.0313	61.8326	591.95	144.55
789.1722	64.0955	602.75	151.4
789.3132	66.3579	623.85	166.1
789.4541	68.6199	647.75	186.55
789.5951	70.8815	680.7	214.3
789.7361	73.1426	762.15	293.2
789.8771	75.4032	982.3	510.1
790.0181	77.6634	1523.15	1043.75
790.1592	79.9231	2773.45	2287.45
790.3003	82.1824	5543.6	5040.15
790.4414	84.4412	10481.85	9948.85
790.5825	86.6995	17280.2	16710.35
790.7237	88.9574	23948.8	23344.05
790.8648	91.2148	28553.7	27927.2
791.006	93.4717	30726.05	30082.2
791.1472	95.7282	31258.65	30614.65
791.2885	97.9842	31261.45	30610.95
791.4297	100.2398	30774.75	30123.1
791.571	102.4949	30192.45	29538.55
791.7123	104.7495	29417	28757.6
791.8536	107.0036	28671.05	28009.9
791.9949	109.2573	27921.1	27261.8
792.1363	111.5105	27237.75	26574.2
792.2777	113.7632	26523.3	25860.25
792.4191	116.0154	25951.3	25281.35
792.5605	118.2672	25511.25	24839.55
792.7019	120.5185	25074.7	24401.7
792.8434	122.7693	24767.9	24096.95
792.9849	125.0197	24472.4	23796.2
793.1264	127.2696	24200.7	23521.25
793.2679	129.519	24074.6	23389.55
793.4094	131.7679	23902.1	23212.3
793.551	134.0163	23762.05	23071.3
793.6926	136.2642	23577.05	22881.9
793.8342	138.5117	23384.65	22685.6
793.9758	140.7587	23190.25	22492.8
794.1175	143.0052	22992.2	22292.1
794.2591	145.2512	22750.2	22047.55
794.4008	147.4967	22544.55	21842.8
794.5425	149.7417	22390.65	21684.35
794.6842	151.9863	22300.35	21588.7
794.826	154.2304	22259.95	21544.4
794.9677	156.4739	22100.45	21379.05
795.1095	158.717	22108.45	21389
795.2513	160.9596	21978.85	21250.95
795.3931	163.2017	21741.5	21016.35
795.535	165.4433	21464.65	20736.6
795.6768	167.6844	21140.8	20410.75
795.8187	169.925	20841.2	20107.5
795.9606	172.1651	20458.35	19721.75
796.1025	174.4047	20197.05	19456.9
796.2445	176.6439	19961.65	19227.55
796.3864	178.8825	19767.95	19028.25
796.5284	181.1206	19646.7	18897.6
796.6704	183.3582	19487.3	18733.75
796.8124	185.5954	19370.9	18613.2
796.9544	187.832	19295.35	18536.9
797.0965	190.0681	19293.7	18532.1
797.2386	192.3037	19299.6	18536.5
797.3806	194.5388	19316.15	18550.5
797.5228	196.7734	19363.45	18595.8
797.6649	199.0075	19471.15	18703.2
797.807	201.2411	19610.2	18835
797.9492	203.4742	19718.3	18945.7
798.0914	205.7068	19908.4	19128.2
798.2336	207.9389	20020.05	19244.45
798.3758	210.1704	20186.1	19415.15
798.518	212.4015	20322.4	19568.1
798.6603	214.632	20481.6	19728.65
798.8025	216.862	20688.6	19932.15
798.9448	219.0915	20854.9	20096.95
799.0871	221.3205	21147.15	20389.95
799.2294	223.549	21392.4	20635.55
799.3718	225.777	21715.4	20961.95
799.5141	228.0044	22062.5	21297.15
799.6565	230.2314	22550.2	21780.2
799.7989	232.4578	22971.75	22209.3
799.9413	234.6837	23376.65	22602.65
800.0837	236.909	23582.5	22804.85
800.2262	239.1339	23584.05	22781.9
800.3687	241.3582	23421.65	22635.25
800.5111	243.582	23110.05	22292
800.6536	245.8053	22793.7	21985.6
800.7961	248.0281	22449.2	21648.3
800.9387	250.2503	22236.2	21431.4
801.0812	252.472	22123.95	21323.95
801.2238	254.6932	22083.3	21278.6
801.3664	256.9139	22021	21216.45
801.509	259.134	22030.2	21220.15
801.6516	261.3536	22041.9	21234.25
801.7942	263.5727	22125.9	21317.45
801.9369	265.7912	22054.05	21245
802.0795	268.0092	22105.65	21297.65
802.2222	270.2267	22123.4	21312.55
802.3649	272.4436	22098.6	21285.3
802.5076	274.6601	22102.85	21277.9
802.6504	276.8759	22030.8	21218.05
802.7931	279.0913	21974	21158.5
802.9359	281.3061	21946.85	21125
803.0787	283.5204	22027.3	21205.55
803.2215	285.7341	22163.55	21338.25
803.3643	287.9473	22340.45	21504.2
803.5071	290.16	22573.85	21746.95
803.6499	292.3721	22859.9	22035.5
803.7928	294.5837	23300.35	22474.6
803.9357	296.7947	23648.8	22823.55
804.0786	299.0052	23881.65	23057.45
804.2215	301.2152	23722.15	22893.4
804.3644	303.4246	23444.35	22619.3
804.5074	305.6334	22875.1	22048.15
804.6503	307.8418	22396.85	21567.3
804.7933	310.0495	22058.5	21232.95
804.9363	312.2568	21721.9	20893.45
805.0793	314.4635	21510.1	20670.65
805.2223	316.6696	21442	20610.4
805.3653	318.8752	21379.8	20537.35
805.5084	321.0802	21419.95	20582.55
805.6514	323.2847	21592.3	20752.6
805.7945	325.4887	21650.25	20811.4
805.9376	327.692	21604.9	20762.85
806.0807	329.8949	21487.95	20647.35
806.2238	332.0972	21246.7	20407.4
806.367	334.2989	20983.4	20136.4
806.5101	336.5001	20737.8	19893.1
806.6533	338.7007	20551.1	19703.15
806.7965	340.9008	20443.6	19597.6
806.9397	343.1003	20349.3	19504.35
807.0829	345.2992	20316.3	19467.65
807.2261	347.4976	20331.6	19479.1
807.3693	349.6955	20291.15	19434.75
807.5126	351.8927	20401.7	19547.9
807.6559	354.0895	20384.15	19518.35
807.7991	356.2856	20443.45	19587.45
807.9424	358.4812	20443.3	19588.65
808.0857	360.6763	20477.9	19617.5
808.2291	362.8707	20492.95	19636.75
808.3724	365.0646	20541.9	19673.95
808.5158	367.258	20579.65	19714.35
808.6591	369.4508	20642.6	19774.6
808.8025	371.643	20722.65	19853.25
808.9459	373.8346	20719.2	19847.95
809.0893	376.0257	20691.1	19819.55
809.2327	378.2162	20629.5	19760.25
809.3762	380.4062	20577.55	19704.75
809.5196	382.5956	20404.8	19539.75
809.6631	384.7844	20340.4	19480.4
809.8066	386.9726	20230.6	19373.5
809.9501	389.1603	20182.6	19323.6
810.0936	391.3474	20175.55	19281.35
810.2371	393.5339	20195.25	19329.2
810.3806	395.7199	20112.2	19252.5
810.5241	397.9052	20160.35	19300.8
810.6677	400.09	20178.1	19315.35
810.8113	402.2743	20285.25	19422.65
810.9548	404.4579	20354.1	19488.25
811.0984	406.641	20534.55	19669.85
811.2421	408.8235	20811.1	19947.1
811.3857	411.0054	21099.8	20229
811.5293	413.1868	21543.1	20667.35
811.673	415.3675	21885.35	21007.3
811.8166	417.5477	22138	21258.1
811.9603	419.7273	22157.2	21277.4
812.104	421.9064	22045.15	21161.4
812.2477	424.0848	21944.3	21067.7
812.3914	426.2627	21714.2	20834.05
812.5351	428.4399	21432.9	20554.4
812.6788	430.6166	21099.25	20213.75
812.8226	432.7928	20779.3	19892.95
812.9663	434.9683	20463.3	19585.9
813.1101	437.1432	20254.95	19375
813.2539	439.3176	20083.6	19208.2
813.3977	441.4914	19953.25	19082.2
813.5415	443.6645	19956	19081.6
813.6853	445.8371	19909.25	19030.9
813.8291	448.0091	19849.95	18968.7
813.973	450.1806	19794.15	18918.15
814.1168	452.3514	19764.65	18888.75
814.2607	454.5216	19811.75	18924.75
814.4046	456.6913	19739.65	18860.05
814.5485	458.8603	19803.85	18925.45
814.6924	461.0288	19861.4	18990
814.8363	463.1967	19881.65	19009.85
814.9802	465.3639	20034.05	19157.95
815.1241	467.5306	20111.25	19235.25
815.2681	469.6967	20278.95	19405.05
815.412	471.8622	20424.45	19550.55
815.556	474.0271	20595.6	19723
815.7	476.1914	20660.6	19776.5
815.844	478.3551	20696.8	19815.6
815.988	480.5182	20675.65	19798.5
816.132	482.6807	20682.9	19812
816.276	484.8426	20807.55	19943.7
816.4201	487.0039	21062.6	20188.8
816.5641	489.1647	21492.6	20615.5
816.7082	491.3248	21966.65	21087.2
816.8522	493.4843	22143.55	21269.3
816.9963	495.6432	22136.2	21257.85
817.1404	497.8015	22099.75	21212.6
817.2845	499.9592	22142.75	21247.25
817.4286	502.1163	22090.05	21196.3
817.5727	504.2728	21826.3	20943.65
817.7168	506.4287	21584.1	20709.1
817.861	508.5839	21123.75	20249.1
818.0051	510.7386	20840.55	19960.2
818.1493	512.8927	20655	19769.75
818.2935	515.0461	20600.55	19713.15
818.4377	517.199	20578.95	19684.9
818.5818	519.3512	20590.35	19698.65
818.726	521.5029	20635.75	19743.4
818.8703	523.6539	20732.3	19842.3
819.0145	525.8043	20800.15	19907.65
819.1587	527.9541	20850.05	19954.1
819.303	530.1033	20821.9	19926.05
819.4472	532.2519	20889.4	19996.6
819.5915	534.3999	21022	20131.05
819.7357	536.5472	21289.3	20399.7
819.88	538.694	21778.55	20889.7
820.0243	540.8401	22387.5	21494.6
820.1686	542.9856	22917.9	22017.45
820.3129	545.1305	23067.5	22161.4
820.4572	547.2748	22983.65	22071.1
820.6016	549.4185	22626.75	21713.15
820.7459	551.5615	22259.85	21349.6
820.8902	553.704	22132.45	21226.5
821.0346	555.8458	22111.3	21211.55
821.1789	557.987	22157.35	21259.55
821.3233	560.1276	22128.55	21227.45
821.4677	562.2675	22179.25	21278.3
821.6121	564.4069	22247.25	21342.8
821.7565	566.5456	22279.05	21378.15
821.9009	568.6837	22186.8	21287.1
822.0453	570.8212	21914.65	21014.15
822.1897	572.958	21592.1	20693.4
822.3342	575.0942	21302.95	20405.95
822.4786	577.2299	21111.45	20217.75
822.6231	579.3648	21074.8	20189.35
822.7675	581.4992	21104.8	20229.9
822.912	583.6329	21346.35	20471.95
823.0565	585.766	21587.95	20709.6
823.201	587.8985	21730.35	20841.45
823.3454	590.0304	21747.5	20837.65
823.4899	592.1616	21664.05	20762.15
823.6345	594.2922	21577.6	20672.65
823.779	596.4222	21454.65	20544.75
823.9235	598.5515	21291.7	20383.5
824.068	600.6802	21149.9	20239.65
824.2126	602.8083	20973.75	20072.4
824.3571	604.9358	20957.25	20054.55
824.5017	607.0626	20855.2	19947.25
824.6462	609.1888	20853	19937.8
824.7908	611.3144	20837.6	19918.35
824.9354	613.4393	20746.9	19831.15
825.08	615.5636	20658.8	19745.35
825.2246	617.6873	20575.35	19661.2
825.3692	619.8103	20543.05	19627.2
825.5138	621.9327	20452.5	19543.75
825.6584	624.0544	20430.25	19522.3
825.803	626.1756	20431.45	19526.3
825.9477	628.2961	20407.75	19494.25
826.0923	630.4159	20302.55	19389.9
826.237	632.5351	20304.75	19389.4
826.3816	634.6537	20249.65	19331.55
826.5263	636.7716	20276.35	19354.55
826.6709	638.8889	20342.65	19421.9
826.8156	641.0056	20390.75	19471.3
826.9603	643.1216	20369.4	19448.3
827.105	645.237	20450.6	19533.15
827.2497	647.3518	20414.85	19504.25
827.3944	649.4659	20464.95	19559.8
827.5391	651.5793	20449.5	19546.4
827.6838	653.6922	20433.3	19523.8
827.8285	655.8043	20464.1	19551.75
827.9733	657.9159	20474.1	19560.7
828.118	660.0268	20385.3	19471.65
828.2627	662.137	20365.8	19452.3
828.4075	664.2466	20404.6	19487.4
828.5522	666.3556	20367.95	19447.5
828.697	668.4639	20337.95	19419.85
828.8418	670.5716	20416.15	19505.8
828.9865	672.6786	20513.8	19596.75
829.1313	674.785	20503.05	19583.4
829.2761	676.8907	20587.75	19671.5
829.4209	678.9958	20688	19773.85
829.5657	681.1002	20651.5	19733.9
829.7105	683.204	20688.65	19764.05
829.8553	685.3072	20643.6	19719.9
830.0001	687.4097	20592.3	19672.55
830.1449	689.5115	20573.2	19649
830.2898	691.6127	20532.7	19612.35
830.4346	693.7132	20500.95	19583.25
830.5794	695.8131	20484	19544.95
830.7243	697.9123	20496.75	19570.35
830.8691	700.0109	20449.85	19522.4
831.014	702.1089	20448.9	19526.85
831.1588	704.2061	20487.25	19565.2
831.3037	706.3028	20524.8	19599.6
831.4486	708.3987	20592.95	19668
831.5935	710.4941	20707.45	19781.25
831.7383	712.5887	20900.7	19976.7
831.8832	714.6827	21187.7	20265.5
832.0281	716.7761	21523.4	20601.3
832.173	718.8688	21878.25	20954.75
832.3179	720.9608	22080.75	21148.1
832.4628	723.0522	22205.55	21267.3
832.6077	725.1429	22007.1	21074.15
832.7527	727.233	21758.8	20834
832.8976	729.3224	21549.25	20620.4
833.0425	731.4112	21267.45	20342.2
833.1874	733.4993	21069.3	20140
833.3324	735.5867	20907.35	19982.3
833.4773	737.6735	20860.55	19932.6
833.6222	739.7596	20799.25	19868.85
833.7672	741.845	20745.55	19816.65
833.9122	743.9298	20723.45	19791.65
834.0571	746.014	20758	19834.8
834.2021	748.0974	20731.4	19796
834.347	750.1802	20761.25	19824.8
834.492	752.2624	20772.75	19839.6
834.637	754.3439	20818.35	19884.9
834.782	756.4247	20897.1	19952.95
834.9269	758.5048	21014.25	20081.7
835.0719	760.5843	21237.2	20302.75
835.2169	762.6631	21537.1	20602.6
835.3619	764.7413	21956.25	21019.3
835.5069	766.8188	22571.45	21638.15
835.6519	768.8956	23002.2	22068.15
835.7969	770.9718	23377.85	22446.85
835.9419	773.0473	23222	22288.7
836.0869	775.1221	22908.35	21976.1
836.232	777.1962	22543.9	21612.85
836.377	779.2697	22363.25	21429.9
836.522	781.3426	22414.2	21460.95
836.667	783.4147	22614.1	21680.8
836.8121	785.4862	22971.8	22034.75
836.9571	787.557	23023.75	22087.2
837.1021	789.6271	22688.65	21752.2
837.2472	791.6966	22126.65	21190.05
837.3922	793.7654	21588.75	20654.25
837.5373	795.8335	21304.15	20368.3
837.6823	797.901	21107.65	20170.4
837.8274	799.9678	21052.55	20116.9
837.9724	802.0339	21084.25	20145.75
838.1175	804.0993	21166.4	20220.25
838.2626	806.1641	21165.85	20225
838.4076	808.2282	21124.6	20186.6
838.5527	810.2916	21057.8	20119.25
838.6978	812.3544	20963.25	20028
838.8428	814.4164	20880.3	19946.75
838.9879	816.4778	20922.7	19981.3
839.133	818.5385	20901.9	19962.7
839.2781	820.5986	20986.1	20046.85
839.4232	822.658	21121.55	20179.95
839.5682	824.7166	21215.35	20275.65
839.7133	826.7747	21490.35	20553.25
839.8584	828.832	21752.4	20810.7
840.0035	830.8886	21824	20883.05
840.1486	832.9446	21968.55	21023.95
840.2937	834.9999	22040.15	21101.2
840.4388	837.0545	22060.85	21116.85
840.5839	839.1085	22031.55	21089.4
840.729	841.1618	22023.05	21080.25
840.8741	843.2143	21964.8	21022.85
841.0192	845.2662	21885.75	20946.3
841.1643	847.3175	21858.7	20915.6
841.3095	849.368	21752.6	20810.7
841.4546	851.4179	21635.75	20696.85
841.5997	853.467	21514.05	20571.8
841.7448	855.5155	21465.75	20527.4
841.8899	857.5633	21333.55	20390
842.0351	859.6105	21215	20274.75
842.1802	861.6569	21167.1	20222.9
842.3253	863.7027	21120.25	20173.9
842.4704	865.7478	21144.45	20198.6
842.6156	867.7922	21147.65	20202.95
842.7607	869.8359	21210.7	20268.35
842.9058	871.8789	21355.2	20410.6
843.0509	873.9212	21553.2	20577.25
843.1961	875.9629	21664.55	20721.45
843.3412	878.0039	21854.65	20910.75
843.4863	880.0441	21982.2	21039.9
843.6315	882.0837	22041.25	21100.95
843.7766	884.1226	21944.4	21001
843.9218	886.1609	21827.9	20884.75
844.0669	888.1984	21809.3	20865.95
844.212	890.2352	21822	20878.6
844.3572	892.2714	21811.15	20863.55
844.5023	894.3069	21796.6	20850.35
844.6475	896.3416	21697.9	20756.05
844.7926	898.3757	21684.4	20740.6
844.9377	900.4091	21696	20749
845.0829	902.4418	21708.2	20757.9
845.228	904.4739	21718.35	20769.8
845.3732	906.5052	21722.95	20773.6
845.5183	908.5358	21648.5	20702.1
845.6635	910.5658	21473.55	20525.15
845.8086	912.595	21361	20416.95
845.9538	914.6236	21239.5	20293
846.0989	916.6515	21170.6	20225.7
846.2441	918.6786	21177.65	20227.6
846.3892	920.7051	21246.45	20294.25
846.5344	922.7309	21397.4	20452.05
846.6795	924.756	21458.55	20511.05
846.8246	926.7804	21564.55	20615.55
846.9698	928.8041	21466.05	20516.4
847.1149	930.8272	21550.7	20602.15
847.2601	932.8495	21470.85	20522.5
847.4052	934.8711	21430	20478.35
847.5504	936.892	21278.05	20331.75
847.6955	938.9123	21139.65	20191.2
847.8407	940.9318	21004.1	20058.95
847.9858	942.9506	20910.2	19964.35
848.131	944.9688	20852.1	19908.65
848.2761	946.9862	20776.25	19827.05
848.4213	949.003	20698.25	19751
848.5664	951.019	20693.1	19748.95
848.7115	953.0344	20719.6	19770.4
848.8567	955.0491	20720.85	19775.05
849.0018	957.063	20869.1	19918.4
849.147	959.0763	20990.45	20045.7
849.2921	961.0888	21034.2	20087.45
849.4373	963.1007	21116.3	20173.1
849.5824	965.1119	21154.95	20218.25
849.7275	967.1223	21220.65	20292.75
849.8727	969.1321	21244.35	20311.7
850.0178	971.1412	21284.5	20348.4
850.1629	973.1495	21284.8	20345.85
850.3081	975.1572	21363.15	20369.75
850.4532	977.1641	21399.15	20449.4
850.5983	979.1704	21347.25	20394.6
850.7435	981.1759	21371.3	20421.9
850.8886	983.1808	21470.7	20520.7
851.0337	985.1849	21548.6	20592.35
851.1788	987.1884	21674.7	20722.95
851.324	989.1911	21837.2	20888.55
851.4691	991.1932	21963.4	21019.2
851.6142	993.1945	21979.9	21034.6
851.7593	995.1951	21913	20965.8
851.9045	997.1951	21925.85	20973.35
852.0496	999.1943	21792.05	20844.75
852.1947	1001.1928	21762.4	20810
852.3398	1003.1906	21751.95	20805.9
852.4849	1005.1877	21814.5	20867.85
852.63	1007.1841	21769.6	20826.65
852.7751	1009.1798	21681.3	20738.2
852.9202	1011.1748	21522.2	20576.15
853.0653	1013.1691	21350.75	20403.55
853.2104	1015.1627	21064.65	20121.8
853.3555	1017.1556	20838.1	19894
853.5006	1019.1477	20784	19840.55
853.6457	1021.1392	20674.95	19735.55
853.7908	1023.1299	20644.55	19709.1
853.9359	1025.12	20649.1	19721.65
854.081	1027.1093	20694.8	19777.9
854.2261	1029.0979	20787.05	19873.85
854.3712	1031.0859	20848.55	19928.35
854.5163	1033.0731	20774.6	19840.05
854.6613	1035.0596	20755.35	19818.35
854.8064	1037.0454	20598.25	19658.1
854.9515	1039.0304	20482.05	19540.1
855.0965	1041.0148	20351.1	19410.45
855.2416	1042.9985	20242.05	19295.85
855.3867	1044.9814	20256.2	19312.6
855.5317	1046.9636	20178.9	19236.65
855.6768	1048.9452	20145.55	19204.35
855.8219	1050.926	20160.45	19218.9
855.9669	1052.9061	20186.1	19239.95
856.112	1054.8855	20140.7	19197.3
856.257	1056.8642	20218.6	19274.15
856.4021	1058.8421	20271	19319.4
856.5471	1060.8194	20279.15	19335.05
856.6921	1062.7959	20295.25	19348.7
856.8372	1064.7717	20344.85	19397.85
856.9822	1066.7469	20386.55	19441.75
857.1272	1068.7213	20390.1	19443.05
857.2723	1070.695	20363.4	19419.35
857.4173	1072.6679	20289.7	19344.85
857.5623	1074.6402	20235.3	19291.15
857.7073	1076.6117	20272.85	19322.4
857.8523	1078.5826	20254.95	19306.2
857.9973	1080.5527	20246.25	19295.6
858.1423	1082.5221	20342.7	19396.4
858.2873	1084.4908	20539.1	19593.85
858.4323	1086.4587	20693.65	19751.7
858.5773	1088.426	20845.3	19899.65
858.7223	1090.3925	20801.3	19849.25
858.8673	1092.3584	20783.8	19837.25
859.0123	1094.3235	20633.15	19689.55
859.1573	1096.2879	20575.15	19633.65
859.3022	1098.2515	20556.9	19613.55
859.4472	1100.2145	20621.9	19679.8
859.5922	1102.1767	20695.2	19749.95
859.7371	1104.1382	20866.85	19922.6
859.8821	1106.099	21095.65	20151.3
860.027	1108.0591	21275.75	20333.25
860.172	1110.0185	21407.45	20462.05
860.3169	1111.9771	21421.55	20476.5
860.4619	1113.9351	21194.95	20251.75
860.6068	1115.8923	20937.95	19995.95
860.7517	1117.8488	20642.8	19697.5
860.8967	1119.8045	20362.4	19422.5
861.0416	1121.7596	20251.8	19309.7
861.1865	1123.7139	20160.85	19221.25
861.3314	1125.6675	20166.8	19225.55
861.4763	1127.6204	20239.45	19296.6
861.6212	1129.5726	20216.35	19270.75
861.7661	1131.524	20250.6	19304.9
861.911	1133.4748	20207.7	19265.65
862.0559	1135.4248	20183.65	19240.85
862.2008	1137.3741	20140.7	19196.2
862.3457	1139.3226	20103.85	19160.1
862.4905	1141.2705	20110.25	19166.5
862.6354	1143.2176	19988.65	19039.7
862.7803	1145.164	19970.05	19025.4
862.9251	1147.1097	19943.1	18998.35
863.07	1149.0546	19965.7	19022.8
863.2148	1150.9989	19876.95	18933.15
863.3597	1152.9424	19771.45	18825.8
863.5045	1154.8852	19614.5	18671.15
863.6493	1156.8272	19494.2	18552.2
863.7942	1158.7686	19478.55	18528.3
863.939	1160.7092	19422.95	18477.5
864.0838	1162.6491	19388.15	18443.25
864.2286	1164.5883	19494.35	18553.6
864.3734	1166.5267	19567.1	18623.15
864.5182	1168.4644	19727.15	18785.6
864.663	1170.4014	19904.3	18961.2
864.8078	1172.3377	20133.8	19194.55
864.9526	1174.2732	20397.5	19455.55
865.0974	1176.2081	20640.95	19699.5
865.2421	1178.1421	20848.9	19902.3
865.3869	1180.0755	21088.8	20146.35
865.5317	1182.0082	21172	20231.55
