Software Version:	3.9.2.0
Unit SN:	10000200
Spectrometer SN:	6960
Date:	3/26/2024 2:02:35 PM
Data Line Index:	25
Spectral Points:	2048
Integration time (ms):	125
Averages:	20
Delay (ms):	30000
Sequence Number:	1
Processing:	dark subtract
Laser Power (mW):	300
Laser Current (mA):	819
Laser Diode Temp (C):	25
Laser Case Temp (C):	27.4
System Temp (C):	27.4
Spectrometer Temp (C):	25.3
CCD Temp (C):	0.002
Secondary Temp (C):	20.008
Heatsink Temp (C):	22.853
CCDPCB Temp (C):	36.874
SecondaryPCB Temp (C):	34.417

Wavelength	RamanShift	Raw Counts	Dark Subtracted
787.061	30.1047	622.15	210.7
787.2016	32.3739	627.2	218.35
787.3422	34.6426	645.2	233.7
787.4828	36.9109	663	253.65
787.6235	39.1787	681.9	266.3
787.7642	41.4461	696.7	275.15
787.9049	43.7131	721.8	295.95
788.0456	45.9796	746.4	319.25
788.1863	48.2456	768.85	336.25
788.3271	50.5112	787.05	351.35
788.4679	52.7764	809.9	371.8
788.6087	55.0411	839.75	398.8
788.7496	57.3054	867	421.1
788.8904	59.5692	897.6	450.2
789.0313	61.8326	935.55	482.85
789.1722	64.0955	962.75	506.25
789.3132	66.3579	1005.05	543.65
789.4541	68.6199	1056.65	593.5
789.5951	70.8815	1143.65	678.4
789.7361	73.1426	1330.85	860.4
789.8771	75.4032	1780.1	1303.3
790.0181	77.6634	2916.55	2433.4
790.1592	79.9231	5750.45	5259.25
790.3003	82.1824	12218.4	11709.4
790.4414	84.4412	26128.15	25587.6
790.5825	86.6995	50248.4	49667.85
790.7237	88.9574	61485	60863.1
790.8648	91.2148	64699.8	64049.75
791.006	93.4717	65012.55	64347.25
791.1472	95.7282	65134.8	64458.55
791.2885	97.9842	65201.6	64517.35
791.4297	100.2398	65171.7	64489.35
791.571	102.4949	65167.4	64478.55
791.7123	104.7495	65141.05	64447.15
791.8536	107.0036	65085.9	64395.7
791.9949	109.2573	65118.9	64427.5
792.1363	111.5105	65057.6	64358.05
792.2777	113.7632	65046.95	64350.95
792.4191	116.0154	65067.4	64361.75
792.5605	118.2672	65085.6	64384.9
792.7019	120.5185	65069.5	64368.95
792.8434	122.7693	65075.15	64372.25
792.9849	125.0197	64966.55	64261.5
793.1264	127.2696	65123.6	64414.7
793.2679	129.519	65072.6	64357.45
793.4094	131.7679	65146.55	64433.65
793.551	134.0163	64983.25	64260.95
793.6926	136.2642	65045.95	64318.8
793.8342	138.5117	65138.15	64412.1
793.9758	140.7587	65088.9	64357
794.1175	143.0052	65072.2	64338.1
794.2591	145.2512	64990.15	64261.2
794.4008	147.4967	65091.8	64360.3
794.5425	149.7417	65050.5	64315.7
794.6842	151.9863	65040.7	64304
794.826	154.2304	64989.65	64247.25
794.9677	156.4739	65020.9	64277.75
795.1095	158.717	65092.2	64347.5
795.2513	160.9596	65037.1	64283.25
795.3931	163.2017	64945.4	64194.95
795.535	165.4433	65019.65	64266.1
795.6768	167.6844	64957.45	64202.3
795.8187	169.925	64990.7	64232.9
795.9606	172.1651	64923.4	64161.45
796.1025	174.4047	64956.6	64195.65
796.2445	176.6439	64931.65	64169.25
796.3864	178.8825	64883.8	64121.6
796.5284	181.1206	64962.7	64192.65
796.6704	183.3582	64938.5	64161.95
796.8124	185.5954	64907.9	64128.45
796.9544	187.832	64907	64126.65
797.0965	190.0681	64832.85	64050.9
797.2386	192.3037	64940.8	64154.8
797.3806	194.5388	65054.1	64266.65
797.5228	196.7734	64788.55	63994.35
797.6649	199.0075	65037.05	64242.5
797.807	201.2411	64918.55	64120.95
797.9492	203.4742	65067.2	64268.6
798.0914	205.7068	65020.9	64219.95
798.2336	207.9389	65009.9	64209
798.3758	210.1704	64997.6	64196.45
798.518	212.4015	65096.2	64292.4
798.6603	214.632	64990.7	64186
798.8025	216.862	65119.15	64324.7
798.9448	219.0915	65046.6	64258.2
799.0871	221.3205	65058.05	64269.45
799.2294	223.549	65164.55	64383.25
799.3718	225.777	65155.1	64372.15
799.5141	228.0044	65234.7	64447.25
799.6565	230.2314	65182.3	64398.65
799.7989	232.4578	65196.1	64418.15
799.9413	234.6837	65234.65	64440.8
800.0837	236.909	65422.95	64630.6
800.2262	239.1339	65143.3	64326.95
800.3687	241.3582	65252.9	64450.35
800.5111	243.582	65248.75	64416
800.6536	245.8053	65216.2	64395.75
800.7961	248.0281	65236.25	64419.3
800.9387	250.2503	65250.35	64432.7
801.0812	252.472	65140.6	64315.7
801.2238	254.6932	65215.65	64393.35
801.3664	256.9139	65162.7	64335.75
801.509	259.134	65349.1	64514.6
801.6516	261.3536	65156.35	64326.25
801.7942	263.5727	65242.7	64408.6
801.9369	265.7912	65186.35	64354.45
802.0795	268.0092	65196.55	64366.4
802.2222	270.2267	65231.05	64400.15
802.3649	272.4436	65130.55	64299.4
802.5076	274.6601	65212.95	64372.1
802.6504	276.8759	65257.15	64421.2
802.7931	279.0913	65176.95	64342.6
802.9359	281.3061	65227.9	64390.15
803.0787	283.5204	65214.65	64372.8
803.2215	285.7341	65206.7	64360
803.3643	287.9473	65289.25	64429.65
803.5071	290.16	65242.4	64390.1
803.6499	292.3721	65265.35	64421.35
803.7928	294.5837	65248.4	64398.4
803.9357	296.7947	65200.05	64353.25
804.0786	299.0052	65350.5	64498.55
804.2215	301.2152	65282.45	64431.9
804.3644	303.4246	65299.3	64455.75
804.5074	305.6334	65282.35	64440
804.6503	307.8418	65164.55	64315.85
804.7933	310.0495	65139.25	64288.9
804.9363	312.2568	65142.3	64292.1
805.0793	314.4635	65155.75	64300.8
805.2223	316.6696	65197.1	64342.55
805.3653	318.8752	65242.85	64382.85
805.5084	321.0802	65045.35	64189.75
805.6514	323.2847	65143.1	64285.05
805.7945	325.4887	65130.9	64273.3
805.9376	327.692	65096.6	64236.05
806.0807	329.8949	65144.45	64282.15
806.2238	332.0972	65081.7	64220.45
806.367	334.2989	65102.2	64239.2
806.5101	336.5001	65156.1	64291.3
806.6533	338.7007	65000.25	64133.6
806.7965	340.9008	65071.2	64203.4
806.9397	343.1003	65076.1	64209.35
807.0829	345.2992	65124.7	64253.5
807.2261	347.4976	65037	64170.7
807.3693	349.6955	65078.05	64202.9
807.5126	351.8927	65024.85	64151.85
807.6559	354.0895	65097.25	64212.05
807.7991	356.2856	65086.25	64215.15
807.9424	358.4812	65136.95	64263
808.0857	360.6763	65017.25	64144.45
808.2291	362.8707	65148.85	64273.8
808.3724	365.0646	65062.25	64184.3
808.5158	367.258	65064.8	64185.15
808.6591	369.4508	64995.55	64109.1
808.8025	371.643	65123.9	64239.35
808.9459	373.8346	65057.35	64170.9
809.0893	376.0257	65051.8	64160.5
809.2327	378.2162	65017.8	64131.7
809.3762	380.4062	64939	64051.5
809.5196	382.5956	65022	64135.95
809.6631	384.7844	65016.35	64128.35
809.8066	386.9726	65059.95	64171.2
809.9501	389.1603	65043	64155.1
810.0936	391.3474	64947.65	64025.25
810.2371	393.5339	65019.45	64128
810.3806	395.7199	64908.15	64027.9
810.5241	397.9052	64935.1	64053.85
810.6677	400.09	64965.25	64083.85
810.8113	402.2743	65027.35	64148.2
810.9548	404.4579	64936.25	64059.65
811.0984	406.641	64946.35	64064.2
811.2421	408.8235	64993.2	64112.25
811.3857	411.0054	65008.85	64124.5
811.5293	413.1868	65048.95	64163.25
811.673	415.3675	65018.5	64128.15
811.8166	417.5477	65022.8	64135.65
811.9603	419.7273	65026.8	64139.5
812.104	421.9064	65025.2	64133.55
812.2477	424.0848	65040.95	64148.85
812.3914	426.2627	65109.8	64219.55
812.5351	428.4399	64953.55	64061.55
812.6788	430.6166	64862.6	63961.4
812.8226	432.7928	64962.4	64062.45
812.9663	434.9683	64861.9	63969.55
813.1101	437.1432	64862.4	63968.85
813.2539	439.3176	64931.15	64034.6
813.3977	441.4914	64805.95	63916.85
813.5415	443.6645	64821.55	63926.9
813.6853	445.8371	64836.6	63938.5
813.8291	448.0091	64788.25	63892.25
813.973	450.1806	64760.4	63863.95
814.1168	452.3514	64771	63875.9
814.2607	454.5216	64701	63794.7
814.4046	456.6913	64773.95	63879.05
814.5485	458.8603	64795.25	63904.15
814.6924	461.0288	64710.3	63818.95
814.8363	463.1967	64796.6	63905.7
814.9802	465.3639	64790.3	63893.85
815.1241	467.5306	64619.15	63722.05
815.2681	469.6967	64725.3	63828.55
815.412	471.8622	64781.95	63890.2
815.556	474.0271	64728.5	63832.55
815.7	476.1914	64758.4	63857.05
815.844	478.3551	64768.8	63870.45
815.988	480.5182	64837.35	63942.25
816.132	482.6807	64697.35	63808.7
816.276	484.8426	64726.25	63840.05
816.4201	487.0039	64839.55	63944.95
816.5641	489.1647	64848.35	63954.2
816.7082	491.3248	64740.45	63841.1
816.8522	493.4843	64881.55	63982.3
816.9963	495.6432	64881.85	63989.15
817.1404	497.8015	64757.65	63856.25
817.2845	499.9592	64842.6	63937.3
817.4286	502.1163	64826.35	63919.55
817.5727	504.2728	64814.3	63914.1
817.7168	506.4287	64783	63892.85
817.861	508.5839	64689.1	63797.7
818.0051	510.7386	64728.55	63829.35
818.1493	512.8927	64746.65	63836.65
818.2935	515.0461	64704.7	63803.25
818.4377	517.199	64770	63865.4
818.5818	519.3512	64704.5	63795.5
818.726	521.5029	64685.75	63775.85
818.8703	523.6539	64717.05	63808.55
819.0145	525.8043	64588.35	63680.75
819.1587	527.9541	64715.85	63805.4
819.303	530.1033	64700.3	63791.2
819.4472	532.2519	64644.2	63737.45
819.5915	534.3999	64731.35	63825.5
819.7357	536.5472	64788.1	63880.9
819.88	538.694	64673.8	63767.65
820.0243	540.8401	64771	63859.15
820.1686	542.9856	64801.6	63883.35
820.3129	545.1305	64832.15	63910.25
820.4572	547.2748	64749.95	63828.7
820.6016	549.4185	64745.95	63821.95
820.7459	551.5615	64790.55	63869.25
820.8902	553.704	64748.75	63828.5
821.0346	555.8458	64688.15	63771.05
821.1789	557.987	64702.75	63789
821.3233	560.1276	64743.65	63824.55
821.4677	562.2675	64695.6	63773.5
821.6121	564.4069	64717.15	63794.65
821.7565	566.5456	64770.9	63860.25
821.9009	568.6837	64652.55	63735.85
822.0453	570.8212	64682.6	63767.1
822.1897	572.958	64483	63568.95
822.3342	575.0942	64643.25	63732.35
822.4786	577.2299	64538.8	63633.2
822.6231	579.3648	64503.2	63602.85
822.7675	581.4992	64480.7	63587.4
822.912	583.6329	64485.6	63592.55
823.0565	585.766	64495.6	63597.45
823.201	587.8985	64574.5	63673
823.3454	590.0304	64372.9	63452.85
823.4899	592.1616	64540.05	63622.65
823.6345	594.2922	64454.05	63535.95
823.779	596.4222	64268.1	63343.75
823.9235	598.5515	64327.6	63413.95
824.068	600.6802	64422.45	63503.45
824.2126	602.8083	64195.8	63279.1
824.3571	604.9358	64171.1	63253.5
824.5017	607.0626	64374.1	63452.65
824.6462	609.1888	64017.85	63091.2
824.7908	611.3144	64209.45	63285.55
824.9354	613.4393	64116.4	63190.95
825.08	615.5636	63911.75	62987.05
825.2246	617.6873	64099.9	63176.65
825.3692	619.8103	63823.1	62899.75
825.5138	621.9327	64130.4	63207.35
825.6584	624.0544	64121.2	63204.15
825.803	626.1756	63985.95	63065.55
825.9477	628.2961	63990.45	63068.25
826.0923	630.4159	63876.5	62954.3
826.237	632.5351	63763.7	62836.05
826.3816	634.6537	64178.65	63257.6
826.5263	636.7716	63719.7	62790.55
826.6709	638.8889	63872	62943.4
826.8156	641.0056	63829.6	62897.15
826.9603	643.1216	63907.85	62978.75
827.105	645.237	63986.8	63060.3
827.2497	647.3518	63712.9	62792.15
827.3944	649.4659	63838.5	62921.8
827.5391	651.5793	63849.75	62928.05
827.6838	653.6922	63911.75	62995.6
827.8285	655.8043	63544.1	62624.2
827.9733	657.9159	63998.3	63077.6
828.118	660.0268	63163.1	62237.8
828.2627	662.137	63676.9	62752.75
828.4075	664.2466	63732.6	62803.4
828.5522	666.3556	63535.65	62607.2
828.697	668.4639	63705.8	62779.45
828.8418	670.5716	63468	62548.65
828.9865	672.6786	63656.1	62729.2
829.1313	674.785	63377	62444.7
829.2761	676.8907	63416.9	62491.5
829.4209	678.9958	63569.8	62647.65
829.5657	681.1002	63609.2	62682.05
829.7105	683.204	63310.7	62376.9
829.8553	685.3072	63157	62229.15
830.0001	687.4097	63265.35	62334.95
830.1449	689.5115	63137.6	62202.3
830.2898	691.6127	63430.8	62504.95
830.4346	693.7132	63110.7	62182.45
830.5794	695.8131	63161.5	62213.9
830.7243	697.9123	63225.9	62291.3
830.8691	700.0109	63284.1	62352.25
831.014	702.1089	62913	61979.5
831.1588	704.2061	63027.35	62098.25
831.3037	706.3028	63043.95	62113.65
831.4486	708.3987	63100.5	62168.55
831.5935	710.4941	62939.35	62008.35
831.7383	712.5887	63191.15	62262.8
831.8832	714.6827	63046.85	62114.7
832.0281	716.7761	63257.25	62326.15
832.173	718.8688	63331.65	62402.75
832.3179	720.9608	63111.95	62173.65
832.4628	723.0522	63189.8	62250.3
832.6077	725.1429	62936.4	62002.25
832.7527	727.233	63498.2	62565.25
832.8976	729.3224	62547.2	61615.7
833.0425	731.4112	62801.45	61875.05
833.1874	733.4993	62791.5	61859.7
833.3324	735.5867	62763.55	61829.95
833.4773	737.6735	62562.65	61630.15
833.6222	739.7596	62374	61441.55
833.7672	741.845	62381.15	61447.15
833.9122	743.9298	62593.45	61656.65
834.0571	746.014	62329.35	61398.5
834.2021	748.0974	62156.15	61217.1
834.347	750.1802	62533.75	61595.6
834.492	752.2624	62052.6	61114.55
834.637	754.3439	62104.15	61169.3
834.782	756.4247	62229.15	61283.9
834.9269	758.5048	62036.6	61100.45
835.0719	760.5843	62116.35	61175.75
835.2169	762.6631	62216.5	61278.25
835.3619	764.7413	62157.5	61219.6
835.5069	766.8188	62244.15	61305.15
835.6519	768.8956	62415.95	61475.8
835.7969	770.9718	62423.25	61485.95
835.9419	773.0473	62321	61387.2
836.0869	775.1221	62089.85	61150.5
836.232	777.1962	61999.3	61062.8
836.377	779.2697	61727.8	60791.3
836.522	781.3426	61865.75	60905.9
836.667	783.4147	61879.15	60940.9
836.8121	785.4862	61902.45	60966.7
836.9571	787.557	61771.45	60831.5
837.1021	789.6271	61873.25	60931.85
837.2472	791.6966	61614.9	60677.05
837.3922	793.7654	61320.1	60381
837.5373	795.8335	61274.9	60339.95
837.6823	797.901	61320	60385.75
837.8274	799.9678	61165	60222.85
837.9724	802.0339	61120.2	60181.05
838.1175	804.0993	61112.4	60164.9
838.2626	806.1641	60996.45	60056.95
838.4076	808.2282	60899.9	59961.8
838.5527	810.2916	60850	59909.05
838.6978	812.3544	60959.15	60021
838.8428	814.4164	60631.5	59693.3
838.9879	816.4778	60675.75	59733.1
839.133	818.5385	60643.45	59704.6
839.2781	820.5986	60610.9	59672.25
839.4232	822.658	60663.9	59720.05
839.5682	824.7166	60705.6	59767.7
839.7133	826.7747	60479.95	59543.45
839.8584	828.832	60619.55	59681.45
840.0035	830.8886	60771.65	59829.25
840.1486	832.9446	60762.15	59816.85
840.2937	834.9999	60252.5	59311.1
840.4388	837.0545	60511.95	59569.3
840.5839	839.1085	60625.35	59682.2
840.729	841.1618	60498.9	59554.6
840.8741	843.2143	60128.4	59186.55
841.0192	845.2662	60092.15	59152.9
841.1643	847.3175	60218.45	59277.65
841.3095	849.368	59728.3	58784.95
841.4546	851.4179	60014.05	59072.5
841.5997	853.467	59671.65	58733.25
841.7448	855.5155	59786.95	58846.15
841.8899	857.5633	59485	58544.45
842.0351	859.6105	59307.7	58366.05
842.1802	861.6569	59427	58488.05
842.3253	863.7027	59037.4	58091.65
842.4704	865.7478	59178.4	58234.25
842.6156	867.7922	59056.8	58116.45
842.7607	869.8359	59232.6	58291.55
842.9058	871.8789	58794.55	57851.2
843.0509	873.9212	59114.55	58141.25
843.1961	875.9629	59103.2	58160
843.3412	878.0039	59048.75	58107.95
843.4863	880.0441	58922.9	57983.05
843.6315	882.0837	58930.85	57989.4
843.7766	884.1226	58914.9	57972.1
843.9218	886.1609	58788.5	57847.45
844.0669	888.1984	58561.05	57618.8
844.212	890.2352	58922.9	57978.95
844.3572	892.2714	58405.55	57455.55
844.5023	894.3069	58601.95	57658.2
844.6475	896.3416	58297.55	57352.15
844.7926	898.3757	58241.55	57298.85
844.9377	900.4091	57736.85	56790.2
845.0829	902.4418	58305.85	57358.4
845.228	904.4739	57917.7	56972.1
845.3732	906.5052	57931.2	56989.4
845.5183	908.5358	57696.4	56756.65
845.6635	910.5658	57499.7	56554.05
845.8086	912.595	57426.5	56484.05
845.9538	914.6236	56941.65	55995.5
846.0989	916.6515	57621.65	56682.55
846.2441	918.6786	56811.95	55865.4
846.3892	920.7051	56974.25	56025.95
846.5344	922.7309	56911.05	55965.15
846.6795	924.756	56956.8	56010.75
846.8246	926.7804	56770	55823.45
846.9698	928.8041	56232.85	55289.9
847.1149	930.8272	56521.1	55575.05
847.2601	932.8495	56469.9	55525.7
847.4052	934.8711	56129.1	55182.75
847.5504	936.892	55849.35	54905.85
847.6955	938.9123	55906.8	54963.3
847.8407	940.9318	55660.95	54718.55
847.9858	942.9506	55528.9	54584.7
848.131	944.9688	55479.4	54534.1
848.2761	946.9862	54910.5	53964.4
848.4213	949.003	55017.2	54074.15
848.5664	951.019	54470.75	53524.6
848.7115	953.0344	54542.85	53596.2
848.8567	955.0491	54420.2	53474.25
849.0018	957.063	54646.1	53704.45
849.147	959.0763	54710.75	53762.5
849.2921	961.0888	54279.15	53334.95
849.4373	963.1007	54570.9	53628.75
849.5824	965.1119	54518.05	53584
849.7275	967.1223	54171.75	53240.4
849.8727	969.1321	54510.5	53577.55
850.0178	971.1412	54019.15	53083.75
850.1629	973.1495	53794.35	52855.4
850.3081	975.1572	53979.1	52982.4
850.4532	977.1641	53750.6	52806
850.5983	979.1704	53604	52662.2
850.7435	981.1759	53626.4	52679.7
850.8886	983.1808	53368.65	52421.35
851.0337	985.1849	53345	52388.05
851.1788	987.1884	53418.2	52470.2
851.324	989.1911	53675.15	52730.2
851.4691	991.1932	53032.6	52090.65
851.6142	993.1945	53105.05	52164.05
851.7593	995.1951	53209.85	52267.35
851.9045	997.1951	52808.5	51855.9
852.0496	999.1943	52610.45	51666.8
852.1947	1001.1928	52394.45	51451.25
852.3398	1003.1906	52412.7	51470.85
852.4849	1005.1877	51950.75	51006.05
852.63	1007.1841	51711.8	50766.95
852.7751	1009.1798	51710.15	50767.4
852.9202	1011.1748	51491.65	50550.6
853.0653	1013.1691	51279.85	50337.75
853.2104	1015.1627	50410.1	49467.75
853.3555	1017.1556	50349	49409.75
853.5006	1019.1477	50399.9	49460
853.6457	1021.1392	49861.7	48926.25
853.7908	1023.1299	49394.45	48461.1
853.9359	1025.12	49553.35	48624.4
854.081	1027.1093	49218.65	48296.2
854.2261	1029.0979	49142.95	48226.2
854.3712	1031.0859	49118	48194.7
854.5163	1033.0731	48668.4	47738.2
854.6613	1035.0596	48636.2	47703
854.8064	1037.0454	48394.5	47458.95
854.9515	1039.0304	48112.95	47171.45
855.0965	1041.0148	47657.55	46718.7
855.2416	1042.9985	47532.05	46591.35
855.3867	1044.9814	47645.25	46708.95
855.5317	1046.9636	47209.1	46269.75
855.6768	1048.9452	47094.6	46157.2
855.8219	1050.926	47023.2	46083.15
855.9669	1052.9061	46907.45	45971.05
856.112	1054.8855	46849.15	45912
856.257	1056.8642	46652.95	45710.4
856.4021	1058.8421	46541.35	45596.05
856.5471	1060.8194	46519.95	45581.05
856.6921	1062.7959	46372.7	45436.55
856.8372	1064.7717	46388.15	45446.8
856.9822	1066.7469	46269.25	45329.3
857.1272	1068.7213	46177.95	45235.4
857.2723	1070.695	46045.2	45103.75
857.4173	1072.6679	45691.05	44751
857.5623	1074.6402	45676.4	44735.25
857.7073	1076.6117	45498.7	44552.9
857.8523	1078.5826	45524.4	44582.05
857.9973	1080.5527	45316.25	44376.05
858.1423	1082.5221	45230.65	44289.15
858.2873	1084.4908	45299.4	44361.65
858.4323	1086.4587	45346.45	44403.4
858.5773	1088.426	45382.1	44442.5
858.7223	1090.3925	45182.3	44236.65
858.8673	1092.3584	45107.8	44167
859.0123	1094.3235	44738.85	43801.9
859.1573	1096.2879	44600.1	43661.8
859.3022	1098.2515	44478.35	43537.7
859.4472	1100.2145	44489.95	43552.6
859.5922	1102.1767	44383.45	43444.45
859.7371	1104.1382	44438.3	43502.25
859.8821	1106.099	44428.45	43486.15
860.027	1108.0591	44498.25	43561.75
860.172	1110.0185	44405.25	43466.35
860.3169	1111.9771	44509.4	43570.7
860.4619	1113.9351	44134.75	43196.1
860.6068	1115.8923	43757.1	42819.1
860.7517	1117.8488	43427.15	42485.9
860.8967	1119.8045	42989.8	42054.45
861.0416	1121.7596	42847.3	41907.75
861.1865	1123.7139	42661.7	41722.25
861.3314	1125.6675	42553.7	41617.6
861.4763	1127.6204	42591.55	41653.7
861.6212	1129.5726	42381.2	41442.8
861.7661	1131.524	42313.5	41375.3
861.911	1133.4748	42218.35	41280.55
862.0559	1135.4248	42015.85	41076.05
862.2008	1137.3741	42013.1	41079
862.3457	1139.3226	41821.35	40883.35
862.4905	1141.2705	41837.2	40901.85
862.6354	1143.2176	41440.7	40493.75
862.7803	1145.164	41355.45	40413.15
862.9251	1147.1097	41312.15	40374.65
863.07	1149.0546	41262.65	40323
863.2148	1150.9989	41116.95	40181.1
863.3597	1152.9424	41017.25	40078.65
863.5045	1154.8852	40732.4	39796.05
863.6493	1156.8272	40551.2	39614
863.7942	1158.7686	40565.15	39619.65
863.939	1160.7092	40266.6	39326.6
864.0838	1162.6491	40111.75	39173.5
864.2286	1164.5883	40192.1	39253.8
864.3734	1166.5267	40097.1	39157.3
864.5182	1168.4644	40146.6	39211.7
864.663	1170.4014	40152.95	39213.75
864.8078	1172.3377	40406.85	39470.05
864.9526	1174.2732	40476.9	39542.65
865.0974	1176.2081	40579.35	39638.95
865.2421	1178.1421	40700.85	39761.15
865.3869	1180.0755	40908.55	39973.35
