Software Version:	3.9.2.0
Unit SN:	10000200
Spectrometer SN:	6960
Date:	3/26/2024 1:46:37 PM
Data Line Index:	25
Spectral Points:	2048
Integration time (ms):	125
Averages:	20
Delay (ms):	30000
Sequence Number:	1
Processing:	dark subtract
Laser Power (mW):	305
Laser Current (mA):	820
Laser Diode Temp (C):	25.1
Laser Case Temp (C):	27.2
System Temp (C):	27.2
Spectrometer Temp (C):	25.1
CCD Temp (C):	-0.005
Secondary Temp (C):	20.007
Heatsink Temp (C):	22.525
CCDPCB Temp (C):	36.785
SecondaryPCB Temp (C):	34.35

Wavelength	RamanShift	Raw Counts	Dark Subtracted
787.061	30.1047	599.5	187.95
787.2016	32.3739	601.9	191.8
787.3422	34.6426	615.1	205
787.4828	36.9109	634.05	222
787.6235	39.1787	651.55	235.45
787.7642	41.4461	670.75	250.9
787.9049	43.7131	687.5	264.45
788.0456	45.9796	710.35	281.85
788.1863	48.2456	732.15	301.95
788.3271	50.5112	745.45	309.05
788.4679	52.7764	769.6	331.9
788.6087	55.0411	791.5	350.75
788.7496	57.3054	823.7	376.9
788.8904	59.5692	850.65	402.15
789.0313	61.8326	874.55	423.5
789.1722	64.0955	904.7	447.65
789.3132	66.3579	941.75	480.85
789.4541	68.6199	995	532.15
789.5951	70.8815	1075.4	608.15
789.7361	73.1426	1248.6	778.75
789.8771	75.4032	1685.55	1210.05
790.0181	77.6634	2729.8	2244.7
790.1592	79.9231	5375.45	4882.85
790.3003	82.1824	11406.9	10899.8
790.4414	84.4412	23578.35	23041.85
790.5825	86.6995	44580.75	44004.05
790.7237	88.9574	57001.45	56391.55
790.8648	91.2148	61829.35	61193.85
791.006	93.4717	62765.85	62117.55
791.1472	95.7282	63136	62477.35
791.2885	97.9842	63312.35	62652.45
791.4297	100.2398	63225.35	62556.35
791.571	102.4949	63177.05	62508.25
791.7123	104.7495	63127.55	62454.45
791.8536	107.0036	62928.75	62255.55
791.9949	109.2573	63074.2	62407.2
792.1363	111.5105	62857.1	62181.75
792.2777	113.7632	62870	62193.6
792.4191	116.0154	62928.2	62240.05
792.5605	118.2672	63030.65	62349.3
792.7019	120.5185	63007	62327.1
792.8434	122.7693	62951.1	62272.55
792.9849	125.0197	62672.9	61985.1
793.1264	127.2696	63177.75	62490.45
793.2679	129.519	63034.2	62337.35
793.4094	131.7679	63209.55	62513.35
793.551	134.0163	62697.65	61996.1
793.6926	136.2642	62869	62165.35
793.8342	138.5117	63141.1	62424
793.9758	140.7587	62992.85	62283.05
794.1175	143.0052	62963.1	62249.4
794.2591	145.2512	62644.8	61934.35
794.4008	147.4967	62965.85	62254.05
794.5425	149.7417	62838.7	62122.05
794.6842	151.9863	62837.9	62121.2
794.826	154.2304	62638.65	61923.4
794.9677	156.4739	62757.75	62030.75
795.1095	158.717	62973	62247.2
795.2513	160.9596	62801.95	62075.25
795.3931	163.2017	62490.9	61763.25
795.535	165.4433	62766.25	62034.15
795.6768	167.6844	62539.75	61804.45
795.8187	169.925	62685.8	61951.8
795.9606	172.1651	62458.3	61721.05
796.1025	174.4047	62561.9	61820.75
796.2445	176.6439	62480.65	61735.6
796.3864	178.8825	62370.95	61624.05
796.5284	181.1206	62632.15	61879.15
796.6704	183.3582	62576.5	61824
796.8124	185.5954	62411.35	61652.65
796.9544	187.832	62416.8	61661.15
797.0965	190.0681	62195.15	61431.1
797.2386	192.3037	62566.95	61805
797.3806	194.5388	62890.35	62121.2
797.5228	196.7734	62023.4	61252.4
797.6649	199.0075	62784.35	62013.2
797.807	201.2411	62496.45	61721.95
797.9492	203.4742	62935	62158.5
798.0914	205.7068	62800.6	62022.4
798.2336	207.9389	62784.05	62006.4
798.3758	210.1704	62749.15	61970.25
798.518	212.4015	63031.6	62244.4
798.6603	214.632	62686.1	61901.5
798.8025	216.862	63060.1	62281.5
798.9448	219.0915	62888.6	62117.9
799.0871	221.3205	62816.65	62047.1
799.2294	223.549	63103.15	62344.1
799.3718	225.777	63073.6	62310.3
799.5141	228.0044	63190.65	62429.8
799.6565	230.2314	63086.6	62327.55
799.7989	232.4578	63091.2	62328.55
799.9413	234.6837	63134.7	62362.1
800.0837	236.909	63684.4	62918.45
800.2262	239.1339	62934.7	62138.75
800.3687	241.3582	63230.75	62449.75
800.5111	243.582	63223.5	62411.65
800.6536	245.8053	63195.5	62391.3
800.7961	248.0281	63209.45	62416.8
800.9387	250.2503	63308.1	62507.75
801.0812	252.472	63085.65	62280.2
801.2238	254.6932	63216.65	62409.1
801.3664	256.9139	63154.9	62349.4
801.509	259.134	63630.65	62817.2
801.6516	261.3536	63089.75	62281.2
801.7942	263.5727	63416.25	62607
801.9369	265.7912	63267.05	62456.75
802.0795	268.0092	63340.45	62527.7
802.2222	270.2267	63388.6	62578.7
802.3649	272.4436	63158.95	62343.2
802.5076	274.6601	63410.3	62596.65
802.6504	276.8759	63495.3	62680.2
802.7931	279.0913	63326.75	62509.2
802.9359	281.3061	63357.55	62541.15
803.0787	283.5204	63359.5	62537.45
803.2215	285.7341	63345.7	62521.3
803.3643	287.9473	63579.75	62741.5
803.5071	290.16	63396.1	62563.85
803.6499	292.3721	63526.25	62699.05
803.7928	294.5837	63332.2	62505.65
803.9357	296.7947	63191.2	62364.5
804.0786	299.0052	63556	62730.5
804.2215	301.2152	63416.7	62590.95
804.3644	303.4246	63543.2	62718.6
804.5074	305.6334	63504.35	62681.6
804.6503	307.8418	63190.4	62360.65
804.7933	310.0495	63197.7	62367.45
804.9363	312.2568	63113.05	62281.05
805.0793	314.4635	63108.1	62276.45
805.2223	316.6696	63206.7	62377.15
805.3653	318.8752	63306.3	62467
805.5084	321.0802	62817.5	61989.15
805.6514	323.2847	63005.25	62174.7
805.7945	325.4887	63010.75	62175.2
805.9376	327.692	62863.95	62026.35
806.0807	329.8949	62986.65	62153
806.2238	332.0972	62853.6	62013.95
806.367	334.2989	62925.65	62082.7
806.5101	336.5001	63093.65	62251
806.6533	338.7007	62685.6	61846.8
806.7965	340.9008	62854.4	62010.55
806.9397	343.1003	62869.65	62021.2
807.0829	345.2992	62974.35	62129.55
807.2261	347.4976	62790.55	61943.95
807.3693	349.6955	62886	62033.15
807.5126	351.8927	62724.75	61874.9
807.6559	354.0895	62883.55	62019.6
807.7991	356.2856	62837.05	61983.45
807.9424	358.4812	62998.4	62149.7
808.0857	360.6763	62704	61853.8
808.2291	362.8707	62903.05	62049.95
808.3724	365.0646	62753.2	61895.55
808.5158	367.258	62795.65	61941.6
808.6591	369.4508	62639.55	61775.1
808.8025	371.643	62892.5	62030
808.9459	373.8346	62778.75	61915.3
809.0893	376.0257	62750.75	61884.15
809.2327	378.2162	62697.2	61831.45
809.3762	380.4062	62485.7	61620.55
809.5196	382.5956	62651.15	61784.5
809.6631	384.7844	62640.2	61774.65
809.8066	386.9726	62689.95	61823.8
809.9501	389.1603	62682.3	61815.35
810.0936	391.3474	62466.5	61561.45
810.2371	393.5339	62675.05	61807.2
810.3806	395.7199	62377.6	61518.85
810.5241	397.9052	62412.7	61551.3
810.6677	400.09	62500.1	61644.2
810.8113	402.2743	62665.05	61807.75
810.9548	404.4579	62469.95	61615.45
811.0984	406.641	62456.2	61598.6
811.2421	408.8235	62616.95	61761
811.3857	411.0054	62639.7	61780.4
811.5293	413.1868	62653.85	61792.95
811.673	415.3675	62599.85	61733.15
811.8166	417.5477	62613.5	61750.05
811.9603	419.7273	62596.9	61727.5
812.104	421.9064	62549.9	61673.65
812.2477	424.0848	62599.25	61729.85
812.3914	426.2627	62692.5	61819.85
812.5351	428.4399	62388.1	61515.35
812.6788	430.6166	62145.1	61267.1
812.8226	432.7928	62403.95	61526.65
812.9663	434.9683	62104.2	61228.1
813.1101	437.1432	62077.1	61201.5
813.2539	439.3176	62265.65	61393.55
813.3977	441.4914	61882.45	61008.7
813.5415	443.6645	61924.65	61050.4
813.6853	445.8371	61955.15	61079.55
813.8291	448.0091	61792.4	60914.9
813.973	450.1806	61681.8	60807.3
814.1168	452.3514	61727.2	60849.15
814.2607	454.5216	61566.7	60682.65
814.4046	456.6913	61687.55	60810.65
814.5485	458.8603	61780.25	60905.4
814.6924	461.0288	61521.4	60645.4
814.8363	463.1967	61739.15	60865.7
814.9802	465.3639	61738.95	60856.55
815.1241	467.5306	61341.7	60462.8
815.2681	469.6967	61550.15	60674.75
815.412	471.8622	61662.7	60786.3
815.556	474.0271	61529.2	60654.2
815.7	476.1914	61577.05	60695.95
815.844	478.3551	61600.95	60719.15
815.988	480.5182	61830.25	60952.65
816.132	482.6807	61487.75	60615.45
816.276	484.8426	61570.15	60695.45
816.4201	487.0039	61929.5	61050.4
816.5641	489.1647	61940.4	61058
816.7082	491.3248	61623.65	60740.3
816.8522	493.4843	62000.55	61120.7
816.9963	495.6432	61998.35	61118.3
817.1404	497.8015	61565.85	60678.2
817.2845	499.9592	61791.1	60902.15
817.4286	502.1163	61744.7	60856.3
817.5727	504.2728	61669.6	60788.4
817.7168	506.4287	61637.6	60762
817.861	508.5839	61420.2	60538.95
818.0051	510.7386	61514.7	60636.2
818.1493	512.8927	61530.25	60641.35
818.2935	515.0461	61425.25	60540.05
818.4377	517.199	61590.1	60707.05
818.5818	519.3512	61457.2	60571.2
818.726	521.5029	61408.85	60517.85
818.8703	523.6539	61517.95	60629.3
819.0145	525.8043	61288.1	60397.9
819.1587	527.9541	61512.2	60620.25
819.303	530.1033	61456.95	60565.45
819.4472	532.2519	61290.65	60401.8
819.5915	534.3999	61481.6	60592.45
819.7357	536.5472	61595	60706.45
819.88	538.694	61291.45	60406.15
820.0243	540.8401	61549.05	60657.3
820.1686	542.9856	61564.65	60669.55
820.3129	545.1305	61681.45	60781.9
820.4572	547.2748	61472.45	60568
820.6016	549.4185	61446.6	60542.35
820.7459	551.5615	61561.5	60659.2
820.8902	553.704	61474.4	60574
821.0346	555.8458	61348.2	60454.2
821.1789	557.987	61408	60512.9
821.3233	560.1276	61510.2	60610
821.4677	562.2675	61475.05	60572.85
821.6121	564.4069	61579.45	60682.55
821.7565	566.5456	61752.6	60857.15
821.9009	568.6837	61436.85	60541.75
822.0453	570.8212	61468.75	60574.9
822.1897	572.958	61094.95	60196.9
822.3342	575.0942	61304.35	60411.1
822.4786	577.2299	61054.45	60165.3
822.6231	579.3648	61001.35	60112.4
822.7675	581.4992	60877.9	59997.6
822.912	583.6329	60898.3	60014.5
823.0565	585.766	60923.95	60038.3
823.201	587.8985	61011.25	60126.15
823.3454	590.0304	60685.2	59766.7
823.4899	592.1616	60892.25	59994.75
823.6345	594.2922	60748.35	59847
823.779	596.4222	60574.4	59676.55
823.9235	598.5515	60579.95	59680.45
824.068	600.6802	60617.8	59719.3
824.2126	602.8083	60336.7	59440.25
824.3571	604.9358	60323.65	59425.35
824.5017	607.0626	60514.6	59611.6
824.6462	609.1888	60220.3	59310.5
824.7908	611.3144	60411.55	59505.2
824.9354	613.4393	60319.75	59415.3
825.08	615.5636	60165.7	59260.65
825.2246	617.6873	60319.65	59420.6
825.3692	619.8103	60110.05	59206.45
825.5138	621.9327	60259.85	59356.25
825.6584	624.0544	60284	59387.6
825.803	626.1756	60126.75	59228.95
825.9477	628.2961	60053.8	59148.85
826.0923	630.4159	59939	59035.85
826.237	632.5351	59899.6	58994.25
826.3816	634.6537	60190	59284.6
826.5263	636.7716	59845.3	58939.7
826.6709	638.8889	59956.85	59050
826.8156	641.0056	59927.2	59022.05
826.9603	643.1216	59947.25	59041.1
827.105	645.237	60024.95	59119.95
827.2497	647.3518	59755.5	58848.85
827.3944	649.4659	59846.25	58944.55
827.5391	651.5793	59829.8	58927.5
827.6838	653.6922	59848.9	58947.95
827.8285	655.8043	59534.9	58632.6
827.9733	657.9159	59952.3	59049.45
828.118	660.0268	59209.45	58303.05
828.2627	662.137	59637.35	58729.6
828.4075	664.2466	59692.7	58780.3
828.5522	666.3556	59528.4	58618.45
828.697	668.4639	59615.6	58707.2
828.8418	670.5716	59424.35	58520.65
828.9865	672.6786	59574	58669.1
829.1313	674.785	59281.35	58369.75
829.2761	676.8907	59291.95	58382.6
829.4209	678.9958	59387.05	58485.25
829.5657	681.1002	59448.7	58539.3
829.7105	683.204	59155.15	58239.7
829.8553	685.3072	59006.25	58095.7
830.0001	687.4097	59100.1	58190.35
830.1449	689.5115	58996.55	58082.6
830.2898	691.6127	59275.3	58369.2
830.4346	693.7132	59050.15	58143.25
830.5794	695.8131	59054.85	58126.75
830.7243	697.9123	59126.15	58213.05
830.8691	700.0109	59131.7	58220.35
831.014	702.1089	58793.35	57881.95
831.1588	704.2061	58896.25	57985.45
831.3037	706.3028	58950.7	58038.1
831.4486	708.3987	58936.6	58027
831.5935	710.4941	58780.7	57870.6
831.7383	712.5887	59003.25	58092.05
831.8832	714.6827	58855.25	57942.25
832.0281	716.7761	59052.55	58145.9
832.173	718.8688	59145	58231.45
832.3179	720.9608	58957.4	58040
832.4628	723.0522	58989.1	58071.65
832.6077	725.1429	58771.95	57857.2
832.7527	727.233	59247.25	58336.15
832.8976	729.3224	58377.35	57463.6
833.0425	731.4112	58681	57765.9
833.1874	733.4993	58658.35	57740.9
833.3324	735.5867	58593.8	57681.8
833.4773	737.6735	58257.35	57344.15
833.6222	739.7596	57949.35	57033.45
833.7672	741.845	57939.05	57023.85
833.9122	743.9298	58276.95	57362.75
834.0571	746.014	57842.9	56933.6
834.2021	748.0974	57567.7	56646.65
834.347	750.1802	58061.65	57142.25
834.492	752.2624	57366.7	56449.4
834.637	754.3439	57454.85	56537.9
834.782	756.4247	57610.7	56687.1
834.9269	758.5048	57343.75	56427.4
835.0719	760.5843	57520	56605.05
835.2169	762.6631	57685.8	56768.45
835.3619	764.7413	57707.2	56791.3
835.5069	766.8188	57961.95	57043.95
835.6519	768.8956	58265.4	57348.3
835.7969	770.9718	58295.15	57379.65
835.9419	773.0473	58137.6	57220.4
836.0869	775.1221	57743.35	56827.35
836.232	777.1962	57591.15	56677.25
836.377	779.2697	57185.95	56268.6
836.522	781.3426	57411.15	56482.75
836.667	783.4147	57495.55	56579.45
836.8121	785.4862	57465.35	56549.3
836.9571	787.557	57075.45	56158.75
837.1021	789.6271	57255.75	56340.35
837.2472	791.6966	56725.3	55805.2
837.3922	793.7654	56205.15	55285.9
837.5373	795.8335	56086.45	55168.1
837.6823	797.901	56043.7	55126.9
837.8274	799.9678	55816.15	54895.55
837.9724	802.0339	55696.6	54775.9
838.1175	804.0993	55676.55	54747.3
838.2626	806.1641	55508.5	54592.4
838.4076	808.2282	55411.1	54493.35
838.5527	810.2916	55334.1	54416.25
838.6978	812.3544	55417	54498.85
838.8428	814.4164	55055.4	54139.25
838.9879	816.4778	55169.75	54246.35
839.133	818.5385	55075.3	54157.65
839.2781	820.5986	55092.35	54172.75
839.4232	822.658	55191.25	54269.65
839.5682	824.7166	55255.1	54340.7
839.7133	826.7747	55154.6	54237.8
839.8584	828.832	55440.95	54523.35
840.0035	830.8886	55669.5	54749.15
840.1486	832.9446	55667.3	54745.2
840.2937	834.9999	55053	54136.4
840.4388	837.0545	55243.35	54320.8
840.5839	839.1085	55200.55	54280.4
840.729	841.1618	54990.2	54066.15
840.8741	843.2143	54527.75	53610.7
841.0192	845.2662	54404.9	53487.7
841.1643	847.3175	54496.35	53577.9
841.3095	849.368	53981.8	53060.6
841.4546	851.4179	54252.45	53332.55
841.5997	853.467	53811.5	52894.1
841.7448	855.5155	53927.3	53007
841.8899	857.5633	53604.35	52683.3
842.0351	859.6105	53371.4	52453.1
842.1802	861.6569	53576.6	52657.5
842.3253	863.7027	53065.75	52142.05
842.4704	865.7478	53277.55	52354.3
842.6156	867.7922	53113.95	52195.85
842.7607	869.8359	53200	52278.8
842.9058	871.8789	52779.45	51857.05
843.0509	873.9212	53007.9	52053.35
843.1961	875.9629	52981.75	52058
843.3412	878.0039	52993.7	52072
843.4863	880.0441	52839.1	51920.5
843.6315	882.0837	52824.6	51906.05
843.7766	884.1226	52783.3	51862.35
843.9218	886.1609	52758.7	51838.25
844.0669	888.1984	52626.45	51708.05
844.212	890.2352	53012.65	52090.25
844.3572	892.2714	52530.95	51603.4
844.5023	894.3069	52642.25	51718.3
844.6475	896.3416	52326.8	51402.4
844.7926	898.3757	52173.1	51249.7
844.9377	900.4091	51746.75	50822.9
845.0829	902.4418	52221.95	51293.55
845.228	904.4739	51809.95	50885
845.3732	906.5052	51882.2	50959.9
845.5183	908.5358	51651.65	50732.35
845.6635	910.5658	51412.85	50489.65
845.8086	912.595	51265.15	50343.4
845.9538	914.6236	50676.3	49754.95
846.0989	916.6515	51250.95	50327.65
846.2441	918.6786	50474.45	49547.95
846.3892	920.7051	50622.1	49697.4
846.5344	922.7309	50522.05	49600.35
846.6795	924.756	50551.05	49629.25
846.8246	926.7804	50369.05	49442.5
846.9698	928.8041	49851.75	48926.85
847.1149	930.8272	50129.05	49204.2
847.2601	932.8495	50003.95	49082
847.4052	934.8711	49654.75	48734.05
847.5504	936.892	49440.2	48516.15
847.6955	938.9123	49530.65	48607
847.8407	940.9318	49268.25	48348.9
847.9858	942.9506	49161.75	48237.55
848.131	944.9688	49122.4	48198.75
848.2761	946.9862	48547.15	47623.55
848.4213	949.003	48561.85	47639.4
848.5664	951.019	48109.4	47184.75
848.7115	953.0344	48111.85	47191.35
848.8567	955.0491	47979.75	47059.55
849.0018	957.063	48154.65	47231.3
849.147	959.0763	48248.8	47321.9
849.2921	961.0888	47889.5	46963.65
849.4373	963.1007	48069.15	47148.45
849.5824	965.1119	47909.55	46993.35
849.7275	967.1223	47776.1	46861.25
849.8727	969.1321	47870.2	46953.15
850.0178	971.1412	47531.7	46615.4
850.1629	973.1495	47364.3	46442.85
850.3081	975.1572	47438.65	46478.4
850.4532	977.1641	47348.8	46425.95
850.5983	979.1704	47099.3	46176.25
850.7435	981.1759	47057.5	46130.9
850.8886	983.1808	46875	45949.15
851.0337	985.1849	46846.8	45913.6
851.1788	987.1884	46817.75	45892.95
851.324	989.1911	46894.9	45972.1
851.4691	991.1932	46558.55	45637.1
851.6142	993.1945	46518.4	45599.3
851.7593	995.1951	46413.05	45494.2
851.9045	997.1951	46261.2	45333.4
852.0496	999.1943	46017.9	45097.85
852.1947	1001.1928	45836.15	44915.2
852.3398	1003.1906	45766.7	44846.15
852.4849	1005.1877	45645	44724.6
852.63	1007.1841	45457.95	44539.2
852.7751	1009.1798	45389.85	44467.9
852.9202	1011.1748	45166.2	44243.05
853.0653	1013.1691	45036.2	44115
853.2104	1015.1627	44511.55	43589.9
853.3555	1017.1556	44223.45	43305.75
853.5006	1019.1477	44102.05	43184.25
853.6457	1021.1392	43761.25	42843.45
853.7908	1023.1299	43500.5	42584.5
853.9359	1025.12	43387.35	42470.4
854.081	1027.1093	43218.1	42307.75
854.2261	1029.0979	43233	42325.75
854.3712	1031.0859	43127.8	42219.1
854.5163	1033.0731	42956.55	42043.65
854.6613	1035.0596	42816.65	41899.75
854.8064	1037.0454	42543.8	41625.1
854.9515	1039.0304	42372.95	41456.95
855.0965	1041.0148	42059.45	41141.2
855.2416	1042.9985	41947.9	41030.6
855.3867	1044.9814	41933.85	41016.3
855.5317	1046.9636	41593.8	40675.3
855.6768	1048.9452	41435.8	40520.1
855.8219	1050.926	41425.1	40510.4
855.9669	1052.9061	41373	40451.55
856.112	1054.8855	41322.95	40403.25
856.257	1056.8642	41148.3	40227.3
856.4021	1058.8421	41162.4	40238.45
856.5471	1060.8194	41046.05	40128.4
856.6921	1062.7959	40944.25	40027.85
856.8372	1064.7717	40937.55	40015.9
856.9822	1066.7469	40743.55	39822.5
857.1272	1068.7213	40818.4	39895.75
857.2723	1070.695	40768.1	39849.05
857.4173	1072.6679	40556.4	39637.6
857.5623	1074.6402	40536.6	39617.5
857.7073	1076.6117	40410.05	39486.55
857.8523	1078.5826	40329.7	39410.2
857.9973	1080.5527	40100.5	39179.15
858.1423	1082.5221	39959.85	39042.45
858.2873	1084.4908	39910.7	38992.3
858.4323	1086.4587	39814.6	38894.6
858.5773	1088.426	39812.75	38893.3
858.7223	1090.3925	39657.75	38733.2
858.8673	1092.3584	39639	38721.3
859.0123	1094.3235	39379.75	38462.65
859.1573	1096.2879	39318.05	38400.25
859.3022	1098.2515	39311	38393
859.4472	1100.2145	39372.35	38455.45
859.5922	1102.1767	39345.25	38426.45
859.7371	1104.1382	39361.35	38442.7
859.8821	1106.099	39483.65	38562.75
860.027	1108.0591	39525.55	38609.1
860.172	1110.0185	39455.95	38537.75
860.3169	1111.9771	39509.45	38593.2
860.4619	1113.9351	39326.9	38407.95
860.6068	1115.8923	39051.45	38134.1
860.7517	1117.8488	38797.9	37879.7
860.8967	1119.8045	38461.6	37541.8
861.0416	1121.7596	38365.65	37444.4
861.1865	1123.7139	38049.2	37132.65
861.3314	1125.6675	37975.2	37060.2
861.4763	1127.6204	37984.25	37067
861.6212	1129.5726	37858.75	36939.5
861.7661	1131.524	37767.3	36852.25
861.911	1133.4748	37604.8	36687.4
862.0559	1135.4248	37379.7	36460.5
862.2008	1137.3741	37244.55	36324.3
862.3457	1139.3226	37082.6	36162.15
862.4905	1141.2705	37055.05	36133.3
862.6354	1143.2176	36756.25	35829.35
862.7803	1145.164	36721.1	35801.2
862.9251	1147.1097	36574.9	35655.35
863.07	1149.0546	36471.75	35553.65
863.2148	1150.9989	36345.15	35428.1
863.3597	1152.9424	36253.65	35337.1
863.5045	1154.8852	36079.15	35161.2
863.6493	1156.8272	35962.5	35045.35
863.7942	1158.7686	35952.2	35027.2
863.939	1160.7092	35830.55	34911.3
864.0838	1162.6491	35721.25	34803.1
864.2286	1164.5883	35774.5	34859.3
864.3734	1166.5267	35735.15	34817.15
864.5182	1168.4644	35763.8	34845.8
864.663	1170.4014	35833.95	34915.3
864.8078	1172.3377	35971.05	35057.6
864.9526	1174.2732	36107.3	35189
865.0974	1176.2081	36317.25	35400.7
865.2421	1178.1421	36562.5	35641.2
865.3869	1180.0755	36871.35	35956.9
865.5317	1182.0082	36905.75	35990.65
