Software Version:	3.9.2.0
Unit SN:	10000200
Spectrometer SN:	6960
Date:	3/26/2024 2:08:05 PM
Data Line Index:	25
Spectral Points:	2048
Integration time (ms):	125
Averages:	20
Delay (ms):	30000
Sequence Number:	1
Processing:	dark subtract
Laser Power (mW):	300
Laser Current (mA):	820
Laser Diode Temp (C):	25.1
Laser Case Temp (C):	27.5
System Temp (C):	27.5
Spectrometer Temp (C):	25.4
CCD Temp (C):	0.008
Secondary Temp (C):	20.006
Heatsink Temp (C):	23.05
CCDPCB Temp (C):	36.651
SecondaryPCB Temp (C):	34.617

Wavelength	RamanShift	Raw Counts	Dark Subtracted
787.061	30.1047	660.9	250
787.2016	32.3739	675	266.8
787.3422	34.6426	696.15	285.5
787.4828	36.9109	710.25	298.8
787.6235	39.1787	739.25	324.75
787.7642	41.4461	763.25	341.8
787.9049	43.7131	786.7	362.75
788.0456	45.9796	809.9	381.5
788.1863	48.2456	838.1	405.1
788.3271	50.5112	871.2	436.85
788.4679	52.7764	901.85	464.4
788.6087	55.0411	930.8	491.65
788.7496	57.3054	965	517.4
788.8904	59.5692	1003.4	554.1
789.0313	61.8326	1039.45	587
789.1722	64.0955	1088.85	630.65
789.3132	66.3579	1132.4	671.65
789.4541	68.6199	1193.7	728.25
789.5951	70.8815	1304.15	835.6
789.7361	73.1426	1513.15	1042.05
789.8771	75.4032	2057.7	1578.5
790.0181	77.6634	3423.2	2939.05
790.1592	79.9231	6826.45	6332.9
790.3003	82.1824	14667.65	14153.1
790.4414	84.4412	34351	33801.1
790.5825	86.6995	61547	60943.65
790.7237	88.9574	65467.1	64816.85
790.8648	91.2148	65535	64853.4
791.006	93.4717	65535	64829.5
791.1472	95.7282	65535	64822
791.2885	97.9842	65535	64810.75
791.4297	100.2398	65535	64812
791.571	102.4949	65535	64809.2
791.7123	104.7495	65535	64805.85
791.8536	107.0036	65535	64807.1
791.9949	109.2573	65535	64808.45
792.1363	111.5105	65535	64805.1
792.2777	113.7632	65535	64800.4
792.4191	116.0154	65535	64790.4
792.5605	118.2672	65535	64793.8
792.7019	120.5185	65535	64797.5
792.8434	122.7693	65535	64798.2
792.9849	125.0197	65535	64791.5
793.1264	127.2696	65535	64787.9
793.2679	129.519	65535	64783.75
793.4094	131.7679	65535	64776.75
793.551	134.0163	65535	64771.9
793.6926	136.2642	65535	64774.5
793.8342	138.5117	65535	64766.65
793.9758	140.7587	65535	64768.3
794.1175	143.0052	65535	64766.05
794.2591	145.2512	65535	64769.35
794.4008	147.4967	65535	64769.15
794.5425	149.7417	65535	64766.25
794.6842	151.9863	65535	64760.3
794.826	154.2304	65535	64756.6
794.9677	156.4739	65535	64746
795.1095	158.717	65535	64752.3
795.2513	160.9596	65535	64746.85
795.3931	163.2017	65535	64741
795.535	165.4433	65535	64741.8
795.6768	167.6844	65535	64743.65
795.8187	169.925	65535	64740.3
795.9606	172.1651	65535	64737.7
796.1025	174.4047	65535	64740.35
796.2445	176.6439	65535	64738.65
796.3864	178.8825	65535	64732.25
796.5284	181.1206	65535	64725.7
796.6704	183.3582	65535	64717.35
796.8124	185.5954	65535	64715.7
796.9544	187.832	65535	64718.1
797.0965	190.0681	65535	64714.8
797.2386	192.3037	65535	64708.6
797.3806	194.5388	65535	64707.1
797.5228	196.7734	65535	64708.15
797.6649	199.0075	65535	64700.05
797.807	201.2411	65535	64695
797.9492	203.4742	65535	64694.95
798.0914	205.7068	65535	64698.25
798.2336	207.9389	65535	64692.25
798.3758	210.1704	65535	64693.6
798.518	212.4015	65535	64693.95
798.6603	214.632	65535	64696.05
798.8025	216.862	65535	64698.85
798.9448	219.0915	65535	64707.45
799.0871	221.3205	65535	64706.35
799.2294	223.549	65535	64712.5
799.3718	225.777	65535	64715.6
799.5141	228.0044	65535	64707.8
799.6565	230.2314	65535	64714.15
799.7989	232.4578	65535	64718.35
799.9413	234.6837	65535	64709.95
800.0837	236.909	65535	64709.65
800.2262	239.1339	65535	64675.4
800.3687	241.3582	65535	64690.8
800.5111	243.582	65535	64667.05
800.6536	245.8053	65535	64676
800.7961	248.0281	65535	64682.95
800.9387	250.2503	65535	64674.25
801.0812	252.472	65535	64669.2
801.2238	254.6932	65535	64668.95
801.3664	256.9139	65535	64670.15
801.509	259.134	65535	64660.1
801.6516	261.3536	65535	64663.1
801.7942	263.5727	65535	64658.95
801.9369	265.7912	65535	64663.4
802.0795	268.0092	65535	64661.4
802.2222	270.2267	65535	64662.65
802.3649	272.4436	65535	64663.15
802.5076	274.6601	65535	64654.7
802.6504	276.8759	65535	64662.5
802.7931	279.0913	65535	64657.45
802.9359	281.3061	65535	64654.75
803.0787	283.5204	65535	64654.55
803.2215	285.7341	65535	64650.6
803.3643	287.9473	65535	64639.25
803.5071	290.16	65535	64644.35
803.6499	292.3721	65535	64645.35
803.7928	294.5837	65535	64648.8
803.9357	296.7947	65535	64644.25
804.0786	299.0052	65535	64643.35
804.2215	301.2152	65535	64647.6
804.3644	303.4246	65535	64653.8
804.5074	305.6334	65535	64650.3
804.6503	307.8418	65535	64648.9
804.7933	310.0495	65535	64648.25
804.9363	312.2568	65535	64644.3
805.0793	314.4635	65535	64639.2
805.2223	316.6696	65535	64639.9
805.3653	318.8752	65535	64631.95
805.5084	321.0802	65535	64637.4
805.6514	323.2847	65535	64641.1
805.7945	325.4887	65535	64636.25
805.9376	327.692	65535	64637.55
806.0807	329.8949	65535	64638.65
806.2238	332.0972	65535	64636.4
806.367	334.2989	65535	64630.55
806.5101	336.5001	65535	64632.25
806.6533	338.7007	65535	64628.95
806.7965	340.9008	65535	64631.1
806.9397	343.1003	65535	64626.95
807.0829	345.2992	65535	64625.2
807.2261	347.4976	65535	64627.3
807.3693	349.6955	65535	64624.3
807.5126	351.8927	65535	64619.15
807.6559	354.0895	65535	64612.75
807.7991	356.2856	65535	64621.85
807.9424	358.4812	65535	64618.95
808.0857	360.6763	65535	64618.75
808.2291	362.8707	65535	64617.85
808.3724	365.0646	65535	64622.8
808.5158	367.258	65535	64615.1
808.6591	369.4508	65535	64616.4
808.8025	371.643	65535	64611.1
808.9459	373.8346	65535	64608.15
809.0893	376.0257	65535	64610.9
809.2327	378.2162	65535	64609.9
809.3762	380.4062	65535	64608.65
809.5196	382.5956	65535	64607.05
809.6631	384.7844	65535	64611.5
809.8066	386.9726	65535	64608.35
809.9501	389.1603	65535	64607.2
810.0936	391.3474	65535	64582.6
810.2371	393.5339	65535	64613.55
810.3806	395.7199	65535	64613.8
810.5241	397.9052	65535	64617.75
810.6677	400.09	65535	64618.6
810.8113	402.2743	65535	64618.2
810.9548	404.4579	65535	64618.75
811.0984	406.641	65535	64615.65
811.2421	408.8235	65535	64620.5
811.3857	411.0054	65535	64619.9
811.5293	413.1868	65535	64609.8
811.673	415.3675	65535	64616.05
811.8166	417.5477	65535	64611.7
811.9603	419.7273	65535	64608.4
812.104	421.9064	65535	64604.45
812.2477	424.0848	65535	64606.65
812.3914	426.2627	65535	64604.85
812.5351	428.4399	65535	64603.85
812.6788	430.6166	65535	64600.1
812.8226	432.7928	65535	64599.7
812.9663	434.9683	65535	64608.15
813.1101	437.1432	65535	64608.95
813.2539	439.3176	65535	64610.5
813.3977	441.4914	65535	64611.1
813.5415	443.6645	65535	64608.35
813.6853	445.8371	65535	64597.4
813.8291	448.0091	65535	64610.3
813.973	450.1806	65535	64604.5
814.1168	452.3514	65535	64606.15
814.2607	454.5216	65535	64599.15
814.4046	456.6913	65535	64602.85
814.5485	458.8603	65535	64605.8
814.6924	461.0288	65535	64608.1
814.8363	463.1967	65535	64615.9
814.9802	465.3639	65535	64610.7
815.1241	467.5306	65535	64608.05
815.2681	469.6967	65535	64612.9
815.412	471.8622	65535	64614.65
815.556	474.0271	65535	64609.75
815.7	476.1914	65535	64604.45
815.844	478.3551	65535	64601.9
815.988	480.5182	65535	64609.75
816.132	482.6807	65535	64616
816.276	484.8426	65535	64622.3
816.4201	487.0039	65535	64617.15
816.5641	489.1647	65535	64607.75
816.7082	491.3248	65535	64601.45
816.8522	493.4843	65535	64612.85
816.9963	495.6432	65535	64609.85
817.1404	497.8015	65535	64600.2
817.2845	499.9592	65535	64593.65
817.4286	502.1163	65535	64595.8
817.5727	504.2728	65535	64603.45
817.7168	506.4287	65535	64618.25
817.861	508.5839	65535	64615.95
818.0051	510.7386	65535	64608.1
818.1493	512.8927	65535	64590.55
818.2935	515.0461	65535	64598.85
818.4377	517.199	65535	64599
818.5818	519.3512	65535	64594.5
818.726	521.5029	65535	64595.45
818.8703	523.6539	65535	64602.1
819.0145	525.8043	65535	64597.2
819.1587	527.9541	65535	64593.6
819.303	530.1033	65535	64598.9
819.4472	532.2519	65535	64597.6
819.5915	534.3999	65535	64597.4
819.7357	536.5472	65535	64600.4
819.88	538.694	65535	64599.5
820.0243	540.8401	65535	64596.05
820.1686	542.9856	65535	64588.35
820.3129	545.1305	65535	64579.85
820.4572	547.2748	65535	64570
820.6016	549.4185	65535	64574
820.7459	551.5615	65535	64578.9
820.8902	553.704	65535	64581.8
821.0346	555.8458	65535	64582.9
821.1789	557.987	65535	64587.45
821.3233	560.1276	65535	64579.5
821.4677	562.2675	65535	64577.85
821.6121	564.4069	65535	64583.4
821.7565	566.5456	65535	64584.4
821.9009	568.6837	65535	64590.15
822.0453	570.8212	65535	64591.5
822.1897	572.958	65535	64585.2
822.3342	575.0942	65535	64591.05
822.4786	577.2299	65535	64594.6
822.6231	579.3648	65535	64612
822.7675	581.4992	65535	64620.95
822.912	583.6329	65535	64618.8
823.0565	585.766	65535	64613.85
823.201	587.8985	65535	64603.5
823.3454	590.0304	65535	64584.35
823.4899	592.1616	65535	64590.15
823.6345	594.2922	65535	64585.4
823.779	596.4222	65535	64582.65
823.9235	598.5515	65535	64581.2
824.068	600.6802	65535	64580.4
824.2126	602.8083	65535	64587.95
824.3571	604.9358	65535	64581.6
824.5017	607.0626	65535	64582.55
824.6462	609.1888	65535	64574.3
824.7908	611.3144	65535	64570.7
824.9354	613.4393	65535	64574.95
825.08	615.5636	65535	64575.25
825.2246	617.6873	65535	64576
825.3692	619.8103	65535	64579.15
825.5138	621.9327	65535	64584
825.6584	624.0544	65535	64587.25
825.803	626.1756	65535	64590.2
825.9477	628.2961	65535	64580.85
826.0923	630.4159	65535	64579.75
826.237	632.5351	65535	64578.15
826.3816	634.6537	65535	64574.3
826.5263	636.7716	65535	64573.95
826.6709	638.8889	65535	64574.15
826.8156	641.0056	65535	64572
826.9603	643.1216	65535	64574.2
827.105	645.237	65535	64576.65
827.2497	647.3518	65535	64581.2
827.3944	649.4659	65535	64586.5
827.5391	651.5793	65535	64589.35
827.6838	653.6922	65535	64581.7
827.8285	655.8043	65535	64582.2
827.9733	657.9159	65535	64579.85
828.118	660.0268	65535	64582.5
828.2627	662.137	65535	64575.55
828.4075	664.2466	65535	64570.6
828.5522	666.3556	65535	64567.9
828.697	668.4639	65535	64576.55
828.8418	670.5716	65535	64584.3
828.9865	672.6786	65535	64575.7
829.1313	674.785	65535	64572.35
829.2761	676.8907	65535	64576.4
829.4209	678.9958	65535	64581.75
829.5657	681.1002	65535	64580.7
829.7105	683.204	65535	64569.65
829.8553	685.3072	65535	64570.2
830.0001	687.4097	65535	64570.7
830.1449	689.5115	65535	64569.6
830.2898	691.6127	65535	64577
830.4346	693.7132	65535	64577.85
830.5794	695.8131	65535	64553.2
830.7243	697.9123	65535	64568.8
830.8691	700.0109	65535	64570.55
831.014	702.1089	65535	64570.3
831.1588	704.2061	65535	64575.1
831.3037	706.3028	65535	64568.65
831.4486	708.3987	65535	64570.4
831.5935	710.4941	65535	64575.6
831.7383	712.5887	65535	64574.05
831.8832	714.6827	65535	64568
832.0281	716.7761	65535	64581.5
832.173	718.8688	65535	64571.5
832.3179	720.9608	65535	64564.55
832.4628	723.0522	65535	64558.75
832.6077	725.1429	65535	64569.25
832.7527	727.233	65535	64570.05
832.8976	729.3224	65535	64564.5
833.0425	731.4112	65535	64571.7
833.1874	733.4993	65535	64567.3
833.3324	735.5867	65535	64571.6
833.4773	737.6735	65535	64569.85
833.6222	739.7596	65535	64570.5
833.7672	741.845	65535	64575.35
833.9122	743.9298	65535	64568.65
834.0571	746.014	65535	64571.2
834.2021	748.0974	65535	64560.05
834.347	750.1802	65535	64559.65
834.492	752.2624	65535	64563
834.637	754.3439	65535	64559.4
834.782	756.4247	65535	64556.95
834.9269	758.5048	65535	64564.55
835.0719	760.5843	65535	64563.4
835.2169	762.6631	65535	64564
835.3619	764.7413	65535	64563.6
835.5069	766.8188	65535	64565.8
835.6519	768.8956	65535	64566.6
835.7969	770.9718	65535	64562.15
835.9419	773.0473	65535	64565
836.0869	775.1221	65535	64569.25
836.232	777.1962	65535	64566.7
836.377	779.2697	65525.8	64554.6
836.522	781.3426	65535	64544
836.667	783.4147	65535	64559.45
836.8121	785.4862	65535	64568
836.9571	787.557	65524.65	64552.1
837.1021	789.6271	65535	64562.45
837.2472	791.6966	65527.6	64551.6
837.3922	793.7654	65501.45	64528.2
837.5373	795.8335	65506.35	64534.5
837.6823	797.901	65520.4	64548.2
837.8274	799.9678	65515	64541
837.9724	802.0339	65504.5	64532.65
838.1175	804.0993	65508.7	64524.6
838.2626	806.1641	65485.6	64513
838.4076	808.2282	65475.85	64504.9
838.5527	810.2916	65458.2	64487.9
838.6978	812.3544	65504.5	64535.55
838.8428	814.4164	65439.6	64473.05
838.9879	816.4778	65435.55	64460.1
839.133	818.5385	65450	64473.1
839.2781	820.5986	65439	64467.75
839.4232	822.658	65449.2	64470.3
839.5682	824.7166	65462.75	64490.45
839.7133	826.7747	65401.1	64426.4
839.8584	828.832	65420.05	64445.5
840.0035	830.8886	65467.6	64488.25
840.1486	832.9446	65465.6	64491.25
840.2937	834.9999	65334.45	64358.3
840.4388	837.0545	65406.7	64427.75
840.5839	839.1085	65449.4	64479.1
840.729	841.1618	65420.6	64446.5
840.8741	843.2143	65328.35	64353.75
841.0192	845.2662	65335.5	64361.2
841.1643	847.3175	65379.85	64406.2
841.3095	849.368	65225.2	64248.45
841.4546	851.4179	65349.05	64376.45
841.5997	853.467	65258.9	64281.7
841.7448	855.5155	65322.75	64348.05
841.8899	857.5633	65207.75	64234.65
842.0351	859.6105	65185.65	64211
842.1802	861.6569	65228.85	64254.4
842.3253	863.7027	65089.05	64111.45
842.4704	865.7478	65160.2	64185.25
842.6156	867.7922	65134.2	64158.65
842.7607	869.8359	65195.45	64219.15
842.9058	871.8789	65041.2	64061.55
843.0509	873.9212	65151.35	64137.7
843.1961	875.9629	65169.85	64194.8
843.3412	878.0039	65136.35	64158.85
843.4863	880.0441	65081.9	64108.1
843.6315	882.0837	65083.4	64110.35
843.7766	884.1226	65071.6	64092.9
843.9218	886.1609	65046.5	64074.45
844.0669	888.1984	64962.6	63988.55
844.212	890.2352	65086.9	64112.4
844.3572	892.2714	64928.35	63944.05
844.5023	894.3069	64992.9	64015.95
844.6475	896.3416	64916.5	63941.7
844.7926	898.3757	64897.45	63919.05
844.9377	900.4091	64667.6	63690.2
845.0829	902.4418	64955.7	63973.55
845.228	904.4739	64809.8	63828.05
845.3732	906.5052	64839.1	63860.9
845.5183	908.5358	64733.4	63754.15
845.6635	910.5658	64660.7	63680.45
845.8086	912.595	64665.3	63689.35
845.9538	914.6236	64420.75	63443.85
846.0989	916.6515	64783.65	63804.65
846.2441	918.6786	64421.2	63440.55
846.3892	920.7051	64492.4	63512.25
846.5344	922.7309	64453.75	63479.05
846.6795	924.756	64522	63546.65
846.8246	926.7804	64403.25	63426.75
846.9698	928.8041	64119.75	63139.1
847.1149	930.8272	64323.05	63347.3
847.2601	932.8495	64333.45	63354.4
847.4052	934.8711	64129.45	63150.5
847.5504	936.892	63960.2	62983.1
847.6955	938.9123	64057.55	63078.25
847.8407	940.9318	63874.7	62894.2
847.9858	942.9506	63840.15	62862.65
848.131	944.9688	63873.25	62893.7
848.2761	946.9862	63469.55	62494.9
848.4213	949.003	63659.05	62681.15
848.5664	951.019	63281.95	62300.65
848.7115	953.0344	63370.35	62396.3
848.8567	955.0491	63306.3	62328.15
849.0018	957.063	63431.8	62454.8
849.147	959.0763	63480.45	62494.95
849.2921	961.0888	63206.65	62231.3
849.4373	963.1007	63436.05	62462.15
849.5824	965.1119	63408.15	62440
849.7275	967.1223	63213.35	62253.5
849.8727	969.1321	63471.25	62512.5
850.0178	971.1412	63115.6	62152.25
850.1629	973.1495	62972.75	62003.05
850.3081	975.1572	63132.65	62103.9
850.4532	977.1641	63001.85	62023.05
850.5983	979.1704	62965.15	61988.6
850.7435	981.1759	62968.15	61992.2
850.8886	983.1808	62780.4	61799.15
851.0337	985.1849	62791.65	61804.7
851.1788	987.1884	62868.9	61889.6
851.324	989.1911	63023.75	62047
851.4691	991.1932	62485.3	61508.35
851.6142	993.1945	62660.5	61686.7
851.7593	995.1951	62794.75	61820.45
851.9045	997.1951	62448.65	61461.9
852.0496	999.1943	62322.75	61348.15
852.1947	1001.1928	62204.2	61225.25
852.3398	1003.1906	62312.85	61336.4
852.4849	1005.1877	61842.3	60866.65
852.63	1007.1841	61693.35	60724.1
852.7751	1009.1798	61673.95	60704.5
852.9202	1011.1748	61607.1	60636.75
853.0653	1013.1691	61477.65	60506.85
853.2104	1015.1627	60102.75	59127.65
853.3555	1017.1556	60723.8	59751.65
853.5006	1019.1477	60864.6	59891.1
853.6457	1021.1392	60238.35	59277.2
853.7908	1023.1299	59319.45	58358.7
853.9359	1025.12	59926.45	58972
854.081	1027.1093	59465.1	58523.25
854.2261	1029.0979	59447.6	58508
854.3712	1031.0859	59348.6	58403.05
854.5163	1033.0731	58650.35	57694.25
854.6613	1035.0596	58946.2	57985.7
854.8064	1037.0454	58685	57723.05
854.9515	1039.0304	58277.75	57310.75
855.0965	1041.0148	57279	56308.9
855.2416	1042.9985	57477.65	56506.95
855.3867	1044.9814	58010.9	57041.5
855.5317	1046.9636	57030.05	56056.35
855.6768	1048.9452	57095.4	56127.2
855.8219	1050.926	56952.9	55983.5
855.9669	1052.9061	56864.7	55896.45
856.112	1054.8855	56879	55907
856.257	1056.8642	56468	55495.7
856.4021	1058.8421	56145.9	55170.45
856.5471	1060.8194	56231.75	55261.6
856.6921	1062.7959	55822.65	54849.8
856.8372	1064.7717	56227.5	55255.55
856.9822	1066.7469	55872.4	54902.15
857.1272	1068.7213	55786.45	54816.1
857.2723	1070.695	55438	54468.5
857.4173	1072.6679	54956.15	53988.1
857.5623	1074.6402	55254.85	54285.75
857.7073	1076.6117	54807.4	53828.7
857.8523	1078.5826	54816.65	53847.4
857.9973	1080.5527	54780	53804.9
858.1423	1082.5221	54535.25	53563.55
858.2873	1084.4908	54703	53733.75
858.4323	1086.4587	54626.95	53657.35
858.5773	1088.426	54686.45	53716.7
858.7223	1090.3925	54531.5	53555.65
858.8673	1092.3584	54395.35	53426.9
859.0123	1094.3235	53784.75	52815.8
859.1573	1096.2879	53696.3	52729.45
859.3022	1098.2515	53723.1	52753.75
859.4472	1100.2145	53499.75	52531.05
859.5922	1102.1767	53399.45	52427.95
859.7371	1104.1382	53571.4	52607.05
859.8821	1106.099	53444.5	52473.95
860.027	1108.0591	53378	52410.7
860.172	1110.0185	52922.65	51956.1
860.3169	1111.9771	53405.55	52441.05
860.4619	1113.9351	52888.55	51918.8
860.6068	1115.8923	52415.75	51448.25
860.7517	1117.8488	51873.4	50904.75
860.8967	1119.8045	51342.7	50377.2
861.0416	1121.7596	51336.15	50370.3
861.1865	1123.7139	51047.85	50085.95
861.3314	1125.6675	50972.3	50005.55
861.4763	1127.6204	50922.3	49957
861.6212	1129.5726	50584.65	49614.1
861.7661	1131.524	50687.45	49719.75
861.911	1133.4748	50646.55	49679.35
862.0559	1135.4248	50400.8	49432.8
862.2008	1137.3741	50293.75	49327.25
862.3457	1139.3226	50106.15	49138.9
862.4905	1141.2705	50118.3	49151.25
862.6354	1143.2176	49788.4	48815.6
862.7803	1145.164	49633.2	48667.65
862.9251	1147.1097	49588.35	48622.45
863.07	1149.0546	49484.8	48515.7
863.2148	1150.9989	49392.35	48425.75
863.3597	1152.9424	49085.15	48118.6
863.5045	1154.8852	48889.8	47918.7
863.6493	1156.8272	48612.15	47642.05
863.7942	1158.7686	48632.6	47659.8
863.939	1160.7092	48204.8	47232.95
864.0838	1162.6491	48052.4	47081.2
864.2286	1164.5883	48121.8	47157.4
864.3734	1166.5267	47959.2	46993.7
864.5182	1168.4644	48051.6	47086.7
864.663	1170.4014	48130.35	47155.55
864.8078	1172.3377	48331.35	47369.15
864.9526	1174.2732	48494.8	47530.2
865.0974	1176.2081	48464.65	47500.7
865.2421	1178.1421	48454.45	47486.25
865.3869	1180.0755	48650.5	47687.75
865.5317	1182.0082	48456.2	47494.8
865.6764	1183.9401	48343.1	47383.3
865.8212	1185.8713	47930.9	46970.6
865.9659	1187.8017	47687.25	46739.7
866.1106	1189.7315	47474.6	46533.3
866.2554	1191.6605	46968	46026.4
866.4001	1193.5888	46590.65	45644.7
866.5448	1195.5163	46386	45431.05
866.6895	1197.4432	46146.2	45186.45
866.8342	1199.3693	46000.3	45040.7
866.9789	1201.2947	45721.85	44753.05
867.1236	1203.2193	45634.3	44672.3
867.2683	1205.1432	45468.75	44504.6
867.413	1207.0664	45372.65	44410.9
867.5576	1208.9889	45293.5	44332.75
867.7023	1210.9106	45099.15	44137.5
867.847	1212.8316	45054.55	44096.3
867.9916	1214.7519	44992	44020.55
868.1363	1216.6715	44780.55	43817.05
868.2809	1218.5903	44725.7	43765.6
868.4255	1220.5084	44529.1	43568.6
868.5701	1222.4257	44476.5	43517.1
868.7148	1224.3424	44136.95	43180.8
