Software Version:	3.9.2.0
Unit SN:	10000200
Spectrometer SN:	6960
Date:	3/26/2024 1:37:54 PM
Data Line Index:	25
Spectral Points:	2048
Integration time (ms):	125
Averages:	20
Delay (ms):	30000
Sequence Number:	1
Processing:	dark subtract
Laser Power (mW):	300
Laser Current (mA):	818
Laser Diode Temp (C):	25.1
Laser Case Temp (C):	27.1
System Temp (C):	27
Spectrometer Temp (C):	24.7
CCD Temp (C):	0.007
Secondary Temp (C):	20.011
Heatsink Temp (C):	22.705
CCDPCB Temp (C):	36.485
SecondaryPCB Temp (C):	34.195

Wavelength	RamanShift	Raw Counts	Dark Subtracted
787.061	30.1047	597.85	187.35
787.2016	32.3739	603.8	194.65
787.3422	34.6426	614.95	204.15
787.4828	36.9109	632	218.9
787.6235	39.1787	649.7	234.3
787.7642	41.4461	671.3	250.55
787.9049	43.7131	691.15	267.4
788.0456	45.9796	712.3	284.55
788.1863	48.2456	731.5	298.5
788.3271	50.5112	756.1	318.65
788.4679	52.7764	776.85	337.8
788.6087	55.0411	803.85	362.2
788.7496	57.3054	831.85	384.7
788.8904	59.5692	853.45	403.9
789.0313	61.8326	881.45	427.95
789.1722	64.0955	919.75	461.5
789.3132	66.3579	966.55	503.8
789.4541	68.6199	1005.55	541.05
789.5951	70.8815	1088.4	622.5
789.7361	73.1426	1272.45	801.65
789.8771	75.4032	1713.85	1238
790.0181	77.6634	2834.35	2350.2
790.1592	79.9231	5598.15	5103.7
790.3003	82.1824	11896.55	11389.35
790.4414	84.4412	24736.65	24199.6
790.5825	86.6995	46320.9	45744.65
790.7237	88.9574	58327.8	57717.45
790.8648	91.2148	63269.35	62631.85
791.006	93.4717	64053.45	63404.25
791.1472	95.7282	64430.45	63773.95
791.2885	97.9842	64557.15	63892.7
791.4297	100.2398	64440.25	63771.4
791.571	102.4949	64413.9	63746.65
791.7123	104.7495	64302.75	63628.85
791.8536	107.0036	64132.15	63457.8
791.9949	109.2573	64296.55	63624.3
792.1363	111.5105	64076.5	63402.75
792.2777	113.7632	63995.3	63321.9
792.4191	116.0154	64094.7	63408.35
792.5605	118.2672	64230.5	63548.6
792.7019	120.5185	64204.15	63521.05
792.8434	122.7693	64161	63475.65
792.9849	125.0197	63824.45	63139.35
793.1264	127.2696	64394.55	63699.95
793.2679	129.519	64200	63506.55
793.4094	131.7679	64413.95	63717.05
793.551	134.0163	63864.05	63159.6
793.6926	136.2642	64070	63366.05
793.8342	138.5117	64344.2	63630
793.9758	140.7587	64196.6	63485.35
794.1175	143.0052	64099.1	63383.7
794.2591	145.2512	63785.7	63070.75
794.4008	147.4967	64134.1	63421.75
794.5425	149.7417	64039	63325.55
794.6842	151.9863	64000.5	63281.45
794.826	154.2304	63812.55	63093.7
794.9677	156.4739	63875	63148.2
795.1095	158.717	64140.3	63413.6
795.2513	160.9596	63898.05	63164.2
795.3931	163.2017	63600.7	62866.8
795.535	165.4433	63887.35	63151.4
795.6768	167.6844	63654.35	62916.5
795.8187	169.925	63801.2	63062.2
795.9606	172.1651	63541.85	62800.9
796.1025	174.4047	63700.65	62958.6
796.2445	176.6439	63554.3	62808.9
796.3864	178.8825	63371.95	62622.05
796.5284	181.1206	63755.75	63006
796.6704	183.3582	63670.8	62908.65
796.8124	185.5954	63514.75	62760.05
796.9544	187.832	63530.55	62767.15
797.0965	190.0681	63226.8	62462.35
797.2386	192.3037	63647.9	62881
797.3806	194.5388	64102.7	63332.95
797.5228	196.7734	63019.85	62243.9
797.6649	199.0075	64038.8	63257.1
797.807	201.2411	63620.6	62837.55
797.9492	203.4742	64147.55	63366.25
798.0914	205.7068	64006.05	63220.05
798.2336	207.9389	63971.05	63189.4
798.3758	210.1704	63915.55	63126.4
798.518	212.4015	64265.15	63474.1
798.6603	214.632	63893.4	63105.6
798.8025	216.862	64327.4	63546.35
798.9448	219.0915	64043.2	63271.8
799.0871	221.3205	64052.6	63283.25
799.2294	223.549	64377.65	63613.25
799.3718	225.777	64325	63555.95
799.5141	228.0044	64516.85	63745.55
799.6565	230.2314	64353.7	63587.3
799.7989	232.4578	64334.85	63566.45
799.9413	234.6837	64430.35	63654.25
800.0837	236.909	64894.85	64114.05
800.2262	239.1339	64146.2	63344
800.3687	241.3582	64496.4	63703.1
800.5111	243.582	64518.85	63700
800.6536	245.8053	64470.45	63664.9
800.7961	248.0281	64517.05	63715.8
800.9387	250.2503	64603	63795.1
801.0812	252.472	64348.2	63531.35
801.2238	254.6932	64559.15	63748.3
801.3664	256.9139	64457.95	63643.95
801.509	259.134	64877.4	64058.55
801.6516	261.3536	64443.05	63627.2
801.7942	263.5727	64689.8	63872.4
801.9369	265.7912	64577.85	63760.3
802.0795	268.0092	64653.35	63833.85
802.2222	270.2267	64735.9	63916.85
802.3649	272.4436	64480.8	63658.55
802.5076	274.6601	64696	63864.1
802.6504	276.8759	64779.1	63953.8
802.7931	279.0913	64603.8	63778.65
802.9359	281.3061	64704.1	63875.7
803.0787	283.5204	64670.2	63838.85
803.2215	285.7341	64663.75	63835.15
803.3643	287.9473	64842.9	63996.35
803.5071	290.16	64713.85	63872.65
803.6499	292.3721	64779.4	63943.75
803.7928	294.5837	64679.8	63842.35
803.9357	296.7947	64515.25	63677.75
804.0786	299.0052	64856.65	64019.4
804.2215	301.2152	64745.25	63906.65
804.3644	303.4246	64797.25	63966.3
804.5074	305.6334	64781.25	63950.6
804.6503	307.8418	64505.85	63671.15
804.7933	310.0495	64454.65	63610.3
804.9363	312.2568	64418.85	63576.95
805.0793	314.4635	64401.1	63556.2
805.2223	316.6696	64534.05	63691.4
805.3653	318.8752	64642.3	63793.35
805.5084	321.0802	64065.25	63220
805.6514	323.2847	64356.55	63509.65
805.7945	325.4887	64285.6	63438.85
805.9376	327.692	64165.75	63319.95
806.0807	329.8949	64302.35	63452
806.2238	332.0972	64143.7	63292.8
806.367	334.2989	64243.6	63388.5
806.5101	336.5001	64406.15	63555.45
806.6533	338.7007	63911.2	63055.95
806.7965	340.9008	64170.45	63313.25
806.9397	343.1003	64196.6	63337.25
807.0829	345.2992	64305.35	63448.25
807.2261	347.4976	64038.05	63176.35
807.3693	349.6955	64153.15	63288.45
807.5126	351.8927	63942.35	63078.3
807.6559	354.0895	64156.35	63278.4
807.7991	356.2856	64105.45	63236.15
807.9424	358.4812	64261.15	63397.45
808.0857	360.6763	63838.5	62971.95
808.2291	362.8707	64263.45	63393.9
808.3724	365.0646	63992.85	63124.4
808.5158	367.258	64018.3	63148.95
808.6591	369.4508	63792.6	62917.9
808.8025	371.643	64224.9	63353.5
808.9459	373.8346	64021.9	63141.9
809.0893	376.0257	64070.05	63191.85
809.2327	378.2162	63969.35	63093.5
809.3762	380.4062	63618.85	62739.5
809.5196	382.5956	63913.8	63035.05
809.6631	384.7844	63852	62969.8
809.8066	386.9726	63993.65	63116.1
809.9501	389.1603	63946.45	63064.05
810.0936	391.3474	63669.3	62744.9
810.2371	393.5339	63896.6	63012.9
810.3806	395.7199	63492.6	62615.1
810.5241	397.9052	63571.2	62692.1
810.6677	400.09	63695.05	62822.5
810.8113	402.2743	63932.1	63061.75
810.9548	404.4579	63604.75	62734.9
811.0984	406.641	63689.5	62816.85
811.2421	408.8235	63820.15	62949.25
811.3857	411.0054	63893.2	63021.4
811.5293	413.1868	63919.2	63042.6
811.673	415.3675	63797.1	62916.95
811.8166	417.5477	63820.65	62941.15
811.9603	419.7273	63822.65	62942.6
812.104	421.9064	63736.3	62847
812.2477	424.0848	63784	62901.7
812.3914	426.2627	63992.85	63110.35
812.5351	428.4399	63601.75	62715.05
812.6788	430.6166	63181.7	62291.2
812.8226	432.7928	63568.4	62673.65
812.9663	434.9683	63193	62305.5
813.1101	437.1432	63159.05	62270.9
813.2539	439.3176	63481.3	62597.3
813.3977	441.4914	62921.85	62043.35
813.5415	443.6645	63013.45	62122.15
813.6853	445.8371	63050.55	62161.65
813.8291	448.0091	62828.45	61936.55
813.973	450.1806	62691	61801.9
814.1168	452.3514	62806.25	61918.9
814.2607	454.5216	62508.75	61615.6
814.4046	456.6913	62806.35	61911.2
814.5485	458.8603	62855.45	61965.45
814.6924	461.0288	62453.55	61567.45
814.8363	463.1967	62847.75	61964.4
814.9802	465.3639	62771.45	61880.7
815.1241	467.5306	62101.7	61211.7
815.2681	469.6967	62520.25	61633.5
815.412	471.8622	62731.95	61842.65
815.556	474.0271	62493.1	61602.7
815.7	476.1914	62566.6	61668.1
815.844	478.3551	62571.05	61677.35
815.988	480.5182	62960.7	62074.75
816.132	482.6807	62417.25	61531.8
816.276	484.8426	62490.8	61611.1
816.4201	487.0039	63031	62147.8
816.5641	489.1647	63035.35	62145
816.7082	491.3248	62534.3	61635.6
816.8522	493.4843	63169.1	62280.75
816.9963	495.6432	63160.6	62268.5
817.1404	497.8015	62545.15	61647.15
817.2845	499.9592	62836.6	61935.25
817.4286	502.1163	62754.85	61848.75
817.5727	504.2728	62640.7	61742.7
817.7168	506.4287	62577.9	61689.7
817.861	508.5839	62237.3	61351.6
818.0051	510.7386	62449.25	61556.5
818.1493	512.8927	62484.8	61581.75
818.2935	515.0461	62362.85	61465.2
818.4377	517.199	62616.95	61713.3
818.5818	519.3512	62364.85	61464.3
818.726	521.5029	62358.2	61453.8
818.8703	523.6539	62473.5	61573.2
819.0145	525.8043	62065.4	61165
819.1587	527.9541	62463.65	61562.35
819.303	530.1033	62380.9	61477.45
819.4472	532.2519	62121.8	61220.95
819.5915	534.3999	62394.6	61489.45
819.7357	536.5472	62628.55	61727.3
819.88	538.694	62108.15	61211.75
820.0243	540.8401	62477.25	61574.25
820.1686	542.9856	62499.65	61585.55
820.3129	545.1305	62716.8	61797.55
820.4572	547.2748	62309.8	61388.7
820.6016	549.4185	62287	61363.1
820.7459	551.5615	62517	61597.45
820.8902	553.704	62401.7	61484.7
821.0346	555.8458	62199.2	61286.5
821.1789	557.987	62312.6	61399.8
821.3233	560.1276	62503.25	61589.3
821.4677	562.2675	62370.45	61452.45
821.6121	564.4069	62519.3	61597.75
821.7565	566.5456	62803.95	61890.1
821.9009	568.6837	62380.1	61462.6
822.0453	570.8212	62510.15	61597.75
822.1897	572.958	61846.85	60930.55
822.3342	575.0942	62184.1	61277.25
822.4786	577.2299	61791.3	60888.65
822.6231	579.3648	61694.35	60797.65
822.7675	581.4992	61584.15	60698.45
822.912	583.6329	61568.3	60680.3
823.0565	585.766	61626.5	60736.7
823.201	587.8985	61771.75	60876.9
823.3454	590.0304	61257.5	60328.8
823.4899	592.1616	61625.3	60705.9
823.6345	594.2922	61358.85	60443.2
823.779	596.4222	61087.5	60168.7
823.9235	598.5515	61149.15	60228.75
824.068	600.6802	61279.2	60360.55
824.2126	602.8083	60842.85	59928.05
824.3571	604.9358	60843.75	59926.25
824.5017	607.0626	61160.1	60237.6
824.6462	609.1888	60654.45	59727.1
824.7908	611.3144	60979.35	60053.85
824.9354	613.4393	60816.25	59890.6
825.08	615.5636	60629.15	59704.9
825.2246	617.6873	60876	59954.05
825.3692	619.8103	60487.35	59561.45
825.5138	621.9327	60795.6	59875.4
825.6584	624.0544	60780.8	59862.1
825.803	626.1756	60574.6	59659.25
825.9477	628.2961	60505.9	59583.5
826.0923	630.4159	60235.5	59313.5
826.237	632.5351	60122.1	59198.75
826.3816	634.6537	60756.85	59833.95
826.5263	636.7716	60095.5	59168.35
826.6709	638.8889	60265.25	59332.65
826.8156	641.0056	60193.5	59266.6
826.9603	643.1216	60325.9	59397.3
827.105	645.237	60418.8	59490.5
827.2497	647.3518	60006.6	59083.35
827.3944	649.4659	60143.3	59224
827.5391	651.5793	60115.55	59198.1
827.6838	653.6922	60152.65	59232.6
827.8285	655.8043	59678.5	58754.8
827.9733	657.9159	60345.8	59424.55
828.118	660.0268	59249.3	58323.5
828.2627	662.137	59820.3	58892.65
828.4075	664.2466	59914.15	58981.55
828.5522	666.3556	59652.3	58722.65
828.697	668.4639	59809.25	58883.05
828.8418	670.5716	59543.7	58620.3
828.9865	672.6786	59736.9	58812.35
829.1313	674.785	59364.55	58432.75
829.2761	676.8907	59376.7	58448.1
829.4209	678.9958	59523.9	58602.7
829.5657	681.1002	59607.5	58680.3
829.7105	683.204	59240.7	58303.2
829.8553	685.3072	59078.7	58143
830.0001	687.4097	59166.55	58237.65
830.1449	689.5115	59071.65	58137.15
830.2898	691.6127	59346.7	58421.05
830.4346	693.7132	59021.2	58091.95
830.5794	695.8131	59089.6	58148.2
830.7243	697.9123	59146.35	58210.2
830.8691	700.0109	59218.85	58283
831.014	702.1089	58751.25	57818.8
831.1588	704.2061	58924.4	57993.1
831.3037	706.3028	58925.05	57988.45
831.4486	708.3987	58928.25	57995.15
831.5935	710.4941	58779.35	57846.35
831.7383	712.5887	58997.2	58062.55
831.8832	714.6827	58845.1	57914.65
832.0281	716.7761	59105.1	58175.8
832.173	718.8688	59149.45	58218.1
832.3179	720.9608	58904.2	57965.85
832.4628	723.0522	59012.1	58068.6
832.6077	725.1429	58754.7	57818.5
832.7527	727.233	59437.75	58501.35
832.8976	729.3224	58454.8	57520.65
833.0425	731.4112	58705.6	57771.95
833.1874	733.4993	58684.35	57747.5
833.3324	735.5867	58576.65	57642.3
833.4773	737.6735	58295.35	57360
833.6222	739.7596	58003.75	57061.55
833.7672	741.845	57970.5	57036.65
833.9122	743.9298	58187.3	57246.9
834.0571	746.014	57871.3	56933.4
834.2021	748.0974	57677.3	56734
834.347	750.1802	58040.65	57093.7
834.492	752.2624	57460.35	56519.4
834.637	754.3439	57516.9	56571.55
834.782	756.4247	57590.1	56640.5
834.9269	758.5048	57405.2	56464.3
835.0719	760.5843	57597.4	56656
835.2169	762.6631	57762	56821.75
835.3619	764.7413	57799.2	56857.75
835.5069	766.8188	58052.5	57110.6
835.6519	768.8956	58275.5	57332.9
835.7969	770.9718	58343.4	57401.6
835.9419	773.0473	58157.5	57214.35
836.0869	775.1221	57884	56942.05
836.232	777.1962	57778.7	56836.75
836.377	779.2697	57458.3	56518.65
836.522	781.3426	57551.9	56597.8
836.667	783.4147	57609.85	56665.3
836.8121	785.4862	57563.95	56620.55
836.9571	787.557	57267.1	56323.85
837.1021	789.6271	57333.1	56391.65
837.2472	791.6966	56832.4	55889.95
837.3922	793.7654	56318.95	55375.95
837.5373	795.8335	56161.45	55215.05
837.6823	797.901	56057.85	55111.95
837.8274	799.9678	55865.45	54920.7
837.9724	802.0339	55771.05	54825.3
838.1175	804.0993	55758.45	54800.15
838.2626	806.1641	55567.15	54622.1
838.4076	808.2282	55470.75	54527.95
838.5527	810.2916	55436.25	54488.2
838.6978	812.3544	55491.8	54547.85
838.8428	814.4164	55108	54164.7
838.9879	816.4778	55238.85	54293.55
839.133	818.5385	55171.15	54222.3
839.2781	820.5986	55148.25	54198.6
839.4232	822.658	55308	54361.65
839.5682	824.7166	55349.5	54408.15
839.7133	826.7747	55393.65	54445.55
839.8584	828.832	55633.8	54686.5
840.0035	830.8886	55770.2	54822.2
840.1486	832.9446	55833.8	54885.5
840.2937	834.9999	55320.1	54372.1
840.4388	837.0545	55377.4	54427
840.5839	839.1085	55271	54324.3
840.729	841.1618	55075.05	54125.9
840.8741	843.2143	54667.35	53721.4
841.0192	845.2662	54548.9	53602.4
841.1643	847.3175	54569.3	53619.9
841.3095	849.368	54047.25	53097.8
841.4546	851.4179	54357.65	53409.6
841.5997	853.467	53917.45	52967.35
841.7448	855.5155	54049.25	53100.25
841.8899	857.5633	53745.45	52799.05
842.0351	859.6105	53508.95	52562.7
842.1802	861.6569	53614.45	52665.95
842.3253	863.7027	53178.05	52228
842.4704	865.7478	53269.05	52320.25
842.6156	867.7922	53127.45	52178.85
842.7607	869.8359	53247.8	52296.7
842.9058	871.8789	52854.8	51907.3
843.0509	873.9212	53030.3	52047.65
843.1961	875.9629	53017.25	52067.2
843.3412	878.0039	53013.5	52061.35
843.4863	880.0441	52909.85	51964.2
843.6315	882.0837	52896.05	51947.1
843.7766	884.1226	52845.7	51894.65
843.9218	886.1609	52839.4	51891.4
844.0669	888.1984	52734.9	51789.15
844.212	890.2352	53114.85	52166.2
844.3572	892.2714	52641	51684.3
844.5023	894.3069	52768.75	51818.95
844.6475	896.3416	52433.15	51485.65
844.7926	898.3757	52254.85	51304.65
844.9377	900.4091	51777.7	50825.9
845.0829	902.4418	52235.35	51276.9
845.228	904.4739	51907	50953.6
845.3732	906.5052	51979.45	51024.6
845.5183	908.5358	51721.15	50766.45
845.6635	910.5658	51525.95	50568.7
845.8086	912.595	51389.15	50436.8
845.9538	914.6236	50854.25	49901.1
846.0989	916.6515	51315.45	50364.9
846.2441	918.6786	50527.75	49572.7
846.3892	920.7051	50674.35	49719.5
846.5344	922.7309	50638.85	49685.65
846.6795	924.756	50608.2	49655.65
846.8246	926.7804	50461.1	49509
846.9698	928.8041	49890.2	48938.05
847.1149	930.8272	50218.4	49265.45
847.2601	932.8495	50102.35	49148.25
847.4052	934.8711	49824.15	48867.35
847.5504	936.892	49500.05	48546.65
847.6955	938.9123	49569.15	48612.05
847.8407	940.9318	49397.3	48446.35
847.9858	942.9506	49273.25	48323.35
848.131	944.9688	49209.25	48257.2
848.2761	946.9862	48695.55	47742.65
848.4213	949.003	48660.15	47707.7
848.5664	951.019	48174.95	47222.5
848.7115	953.0344	48170.95	47216.9
848.8567	955.0491	48084.7	47135.2
849.0018	957.063	48147.7	47195.6
849.147	959.0763	48271.8	47313.6
849.2921	961.0888	47942.9	46989.65
849.4373	963.1007	48122.6	47174.85
849.5824	965.1119	48024.75	47081.15
849.7275	967.1223	47833.25	46894.95
849.8727	969.1321	47932.4	46994.9
850.0178	971.1412	47682.55	46736.15
850.1629	973.1495	47420.2	46467.5
850.3081	975.1572	47496.05	46524.2
850.4532	977.1641	47454.1	46501.75
850.5983	979.1704	47237.6	46284.05
850.7435	981.1759	47130.7	46174.75
850.8886	983.1808	47043.95	46089.75
851.0337	985.1849	46935	45974.85
851.1788	987.1884	46912.1	45958.25
851.324	989.1911	47045.6	46092.55
851.4691	991.1932	46691.55	45740.7
851.6142	993.1945	46670.85	45720.95
851.7593	995.1951	46521.55	45567.75
851.9045	997.1951	46345	45392.1
852.0496	999.1943	46165.15	45215.15
852.1947	1001.1928	45955.05	45001.7
852.3398	1003.1906	45901.8	44953.1
852.4849	1005.1877	45791.55	44842.2
852.63	1007.1841	45628.8	44676.35
852.7751	1009.1798	45479.15	44529
852.9202	1011.1748	45335.6	44384.2
853.0653	1013.1691	45110.75	44161.9
853.2104	1015.1627	44656.8	43706.4
853.3555	1017.1556	44329.05	43378.5
853.5006	1019.1477	44239.25	43292.1
853.6457	1021.1392	43850.2	42908.15
853.7908	1023.1299	43611.5	42669.7
853.9359	1025.12	43558.9	42624.15
854.081	1027.1093	43374.3	42449.8
854.2261	1029.0979	43354.05	42429.55
854.3712	1031.0859	43297.65	42367.5
854.5163	1033.0731	43015.05	42076.6
854.6613	1035.0596	42941.8	41999.35
854.8064	1037.0454	42711.45	41767.3
854.9515	1039.0304	42491.85	41543.65
855.0965	1041.0148	42163.55	41216.8
855.2416	1042.9985	42034.55	41083.4
855.3867	1044.9814	41984.05	41036.75
855.5317	1046.9636	41734.4	40782.2
855.6768	1048.9452	41605.1	40657.5
855.8219	1050.926	41582	40636.45
855.9669	1052.9061	41453.55	40505.25
856.112	1054.8855	41389.75	40442.9
856.257	1056.8642	41296.25	40347.5
856.4021	1058.8421	41285.55	40331.75
856.5471	1060.8194	41202.4	40253.75
856.6921	1062.7959	41135.8	40186.4
856.8372	1064.7717	41091.05	40144.15
856.9822	1066.7469	40996.9	40050.75
857.1272	1068.7213	40992	40041.9
857.2723	1070.695	40938.95	39989.6
857.4173	1072.6679	40744.05	39795.8
857.5623	1074.6402	40680.25	39729.65
857.7073	1076.6117	40636.7	39682.15
857.8523	1078.5826	40564.6	39616.85
857.9973	1080.5527	40339.8	39389
858.1423	1082.5221	40087.6	39138.4
858.2873	1084.4908	40066.45	39116
858.4323	1086.4587	39968.2	39020.95
858.5773	1088.426	39956.4	39006.1
858.7223	1090.3925	39776.3	38824.7
858.8673	1092.3584	39821.85	38874.3
859.0123	1094.3235	39591.3	38645.55
859.1573	1096.2879	39473.85	38524.3
859.3022	1098.2515	39525.25	38579.05
859.4472	1100.2145	39587.3	38642.8
859.5922	1102.1767	39545.1	38599.35
859.7371	1104.1382	39617.6	38671
859.8821	1106.099	39746.1	38793.6
860.027	1108.0591	39788.1	38842.75
860.172	1110.0185	39784.95	38837
860.3169	1111.9771	39806.5	38862.3
860.4619	1113.9351	39580.7	38634.8
860.6068	1115.8923	39293.85	38347.4
860.7517	1117.8488	39036.55	38087.55
860.8967	1119.8045	38743.9	37796.2
861.0416	1121.7596	38643.55	37695.95
861.1865	1123.7139	38413.7	37469.3
861.3314	1125.6675	38298.55	37353.5
861.4763	1127.6204	38335.5	37388.7
861.6212	1129.5726	38114.7	37165.25
861.7661	1131.524	38062.75	37115.15
861.911	1133.4748	37906.95	36959.2
862.0559	1135.4248	37646.35	36699.7
862.2008	1137.3741	37457.95	36513.4
862.3457	1139.3226	37289.25	36341.05
862.4905	1141.2705	37280.3	36332.05
862.6354	1143.2176	36984.6	36034.9
862.7803	1145.164	36921.65	35975.3
862.9251	1147.1097	36848.9	35901.85
863.07	1149.0546	36712.55	35763.4
863.2148	1150.9989	36616	35667.9
863.3597	1152.9424	36470.35	35521.95
863.5045	1154.8852	36295.6	35350.2
863.6493	1156.8272	36182.55	35235.8
863.7942	1158.7686	36185.7	35232.1
863.939	1160.7092	36113.3	35165.85
864.0838	1162.6491	35943.55	34995.6
864.2286	1164.5883	36019.95	35076.05
864.3734	1166.5267	35976.45	35028.55
864.5182	1168.4644	36027.5	35081.5
864.663	1170.4014	36110.05	35163.7
864.8078	1172.3377	36287.05	35343.4
864.9526	1174.2732	36429.45	35486.8
865.0974	1176.2081	36697.6	35752.75
865.2421	1178.1421	36917.65	35967
865.3869	1180.0755	37218.95	36274
865.5317	1182.0082	37355.7	36414.45
