Software Version:	3.9.2.0
Unit SN:	10000200
Spectrometer SN:	6960
Date:	3/26/2024 2:05:44 PM
Data Line Index:	25
Spectral Points:	2048
Integration time (ms):	125
Averages:	20
Delay (ms):	30000
Sequence Number:	1
Processing:	dark subtract
Laser Power (mW):	300
Laser Current (mA):	819
Laser Diode Temp (C):	25
Laser Case Temp (C):	27.4
System Temp (C):	27.4
Spectrometer Temp (C):	25.3
CCD Temp (C):	0.002
Secondary Temp (C):	20.006
Heatsink Temp (C):	22.645
CCDPCB Temp (C):	36.896
SecondaryPCB Temp (C):	34.628

Wavelength	RamanShift	Raw Counts	Dark Subtracted
787.061	30.1047	655	245.05
787.2016	32.3739	666.3	258.45
787.3422	34.6426	682.6	275.35
787.4828	36.9109	701.1	288.85
787.6235	39.1787	723.15	307.8
787.7642	41.4461	747.25	327.55
787.9049	43.7131	770.9	344.1
788.0456	45.9796	806.05	379.6
788.1863	48.2456	832.35	401.65
788.3271	50.5112	860.85	427.65
788.4679	52.7764	880.5	442.55
788.6087	55.0411	915	473.85
788.7496	57.3054	943.1	497.05
788.8904	59.5692	977.75	529.45
789.0313	61.8326	1018.8	566.8
789.1722	64.0955	1057.5	601.85
789.3132	66.3579	1114.85	652.8
789.4541	68.6199	1173.25	708.7
789.5951	70.8815	1271.05	803.7
789.7361	73.1426	1471.95	999.55
789.8771	75.4032	2006.6	1528.2
790.0181	77.6634	3317.5	2832.85
790.1592	79.9231	6616.1	6119
790.3003	82.1824	14186.1	13671.75
790.4414	84.4412	32683.8	32133.35
790.5825	86.6995	59159.65	58556.1
790.7237	88.9574	64697.5	64046.75
790.8648	91.2148	65497.85	64820
791.006	93.4717	65535	64828.75
791.1472	95.7282	65535	64816.25
791.2885	97.9842	65535	64818.3
791.4297	100.2398	65535	64810.8
791.571	102.4949	65535	64805.1
791.7123	104.7495	65535	64807.95
791.8536	107.0036	65535	64806.35
791.9949	109.2573	65535	64807.6
792.1363	111.5105	65535	64800.5
792.2777	113.7632	65535	64798.8
792.4191	116.0154	65535	64789.5
792.5605	118.2672	65535	64791.55
792.7019	120.5185	65535	64795.45
792.8434	122.7693	65535	64790.3
792.9849	125.0197	65535	64789.3
793.1264	127.2696	65535	64786.8
793.2679	129.519	65535	64786.55
793.4094	131.7679	65535	64777
793.551	134.0163	65535	64774.05
793.6926	136.2642	65535	64769.75
793.8342	138.5117	65535	64763.35
793.9758	140.7587	65535	64769.1
794.1175	143.0052	65535	64764.55
794.2591	145.2512	65535	64763.9
794.4008	147.4967	65535	64766.4
794.5425	149.7417	65535	64764.55
794.6842	151.9863	65535	64757.7
794.826	154.2304	65535	64751.7
794.9677	156.4739	65535	64753.7
795.1095	158.717	65535	64749.15
795.2513	160.9596	65535	64747.4
795.3931	163.2017	65535	64742.7
795.535	165.4433	65535	64742.5
795.6768	167.6844	65535	64744
795.8187	169.925	65535	64742.95
795.9606	172.1651	65535	64736.6
796.1025	174.4047	65535	64736.45
796.2445	176.6439	65535	64733.75
796.3864	178.8825	65531.45	64724.8
796.5284	181.1206	65535	64724.5
796.6704	183.3582	65535	64716.6
796.8124	185.5954	65535	64720.35
796.9544	187.832	65535	64714.45
797.0965	190.0681	65529.25	64705.9
797.2386	192.3037	65535	64711.3
797.3806	194.5388	65535	64709.2
797.5228	196.7734	65524.35	64692.55
797.6649	199.0075	65535	64698.3
797.807	201.2411	65535	64694.4
797.9492	203.4742	65535	64697
798.0914	205.7068	65535	64690.55
798.2336	207.9389	65535	64694.45
798.3758	210.1704	65535	64693.05
798.518	212.4015	65535	64693.5
798.6603	214.632	65535	64689.4
798.8025	216.862	65535	64698.2
798.9448	219.0915	65535	64700.95
799.0871	221.3205	65535	64710.1
799.2294	223.549	65535	64711.8
799.3718	225.777	65535	64707.75
799.5141	228.0044	65535	64709.05
799.6565	230.2314	65535	64713.25
799.7989	232.4578	65535	64712.2
799.9413	234.6837	65535	64703.8
800.0837	236.909	65535	64704.65
800.2262	239.1339	65535	64677.8
800.3687	241.3582	65535	64688.8
800.5111	243.582	65535	64661.75
800.6536	245.8053	65535	64676.4
800.7961	248.0281	65535	64678.75
800.9387	250.2503	65535	64671.85
801.0812	252.472	65535	64667.25
801.2238	254.6932	65535	64669
801.3664	256.9139	65535	64666.85
801.509	259.134	65535	64665.4
801.6516	261.3536	65535	64661.5
801.7942	263.5727	65535	64659.7
801.9369	265.7912	65535	64662.75
802.0795	268.0092	65535	64664.95
802.2222	270.2267	65535	64664.35
802.3649	272.4436	65535	64662.25
802.5076	274.6601	65535	64655
802.6504	276.8759	65535	64663.55
802.7931	279.0913	65535	64658.65
802.9359	281.3061	65535	64659.05
803.0787	283.5204	65535	64651.15
803.2215	285.7341	65535	64648.8
803.3643	287.9473	65535	64641.5
803.5071	290.16	65535	64643.35
803.6499	292.3721	65535	64646.45
803.7928	294.5837	65535	64647.45
803.9357	296.7947	65535	64648.75
804.0786	299.0052	65535	64648.65
804.2215	301.2152	65535	64645.2
804.3644	303.4246	65535	64643.7
804.5074	305.6334	65535	64648.95
804.6503	307.8418	65535	64647.35
804.7933	310.0495	65535	64644.2
804.9363	312.2568	65535	64643.95
805.0793	314.4635	65535	64639.05
805.2223	316.6696	65535	64640.5
805.3653	318.8752	65535	64633.85
805.5084	321.0802	65535	64637.4
805.6514	323.2847	65535	64633.7
805.7945	325.4887	65535	64634.25
805.9376	327.692	65535	64634.45
806.0807	329.8949	65535	64632.5
806.2238	332.0972	65535	64635
806.367	334.2989	65535	64628.5
806.5101	336.5001	65535	64628.25
806.6533	338.7007	65535	64629.4
806.7965	340.9008	65535	64627.6
806.9397	343.1003	65535	64625
807.0829	345.2992	65535	64630.75
807.2261	347.4976	65535	64621.85
807.3693	349.6955	65535	64620.5
807.5126	351.8927	65535	64621.95
807.6559	354.0895	65535	64606.4
807.7991	356.2856	65535	64615.85
807.9424	358.4812	65535	64618.8
808.0857	360.6763	65535	64620.5
808.2291	362.8707	65535	64616.3
808.3724	365.0646	65535	64613.45
808.5158	367.258	65535	64619.05
808.6591	369.4508	65535	64613.2
808.8025	371.643	65535	64612.35
808.9459	373.8346	65535	64607.9
809.0893	376.0257	65535	64603.8
809.2327	378.2162	65535	64607.25
809.3762	380.4062	65535	64608.65
809.5196	382.5956	65535	64603.4
809.6631	384.7844	65535	64608.9
809.8066	386.9726	65535	64607.55
809.9501	389.1603	65535	64608.55
810.0936	391.3474	65535	64576.1
810.2371	393.5339	65535	64605.75
810.3806	395.7199	65535	64615.15
810.5241	397.9052	65535	64612.7
810.6677	400.09	65535	64617.4
810.8113	402.2743	65535	64616.95
810.9548	404.4579	65535	64621.85
811.0984	406.641	65535	64615.4
811.2421	408.8235	65535	64617.3
811.3857	411.0054	65535	64614.05
811.5293	413.1868	65535	64616.9
811.673	415.3675	65535	64607.25
811.8166	417.5477	65535	64605.95
811.9603	419.7273	65535	64606.95
812.104	421.9064	65535	64602.95
812.2477	424.0848	65535	64606.5
812.3914	426.2627	65535	64606.1
812.5351	428.4399	65535	64601.6
812.6788	430.6166	65535	64597.9
812.8226	432.7928	65535	64597.95
812.9663	434.9683	65535	64607.9
813.1101	437.1432	65535	64602.25
813.2539	439.3176	65535	64605.85
813.3977	441.4914	65535	64612.2
813.5415	443.6645	65535	64606
813.6853	445.8371	65535	64600.15
813.8291	448.0091	65535	64599
813.973	450.1806	65530.95	64604.6
814.1168	452.3514	65534.95	64609.8
814.2607	454.5216	65525.65	64584.35
814.4046	456.6913	65535	64600.95
814.5485	458.8603	65535	64609.4
814.6924	461.0288	65524.7	64602.75
814.8363	463.1967	65535	64616.25
814.9802	465.3639	65535	64609.25
815.1241	467.5306	65518.95	64589.55
815.2681	469.6967	65533.15	64614.85
815.412	471.8622	65535	64609.95
815.556	474.0271	65530.05	64601.1
815.7	476.1914	65533.45	64598
815.844	478.3551	65534.1	64599.9
815.988	480.5182	65535	64607.05
816.132	482.6807	65527.65	64604.65
816.276	484.8426	65527.9	64616.15
816.4201	487.0039	65535	64617.6
816.5641	489.1647	65535	64598.8
816.7082	491.3248	65530.2	64598
816.8522	493.4843	65535	64611.05
816.9963	495.6432	65535	64610.2
817.1404	497.8015	65533.2	64593.75
817.2845	499.9592	65535	64589.8
817.4286	502.1163	65535	64590.15
817.5727	504.2728	65535	64603.7
817.7168	506.4287	65534.75	64615.3
817.861	508.5839	65526.9	64605.35
818.0051	510.7386	65535	64605.7
818.1493	512.8927	65531.35	64588.3
818.2935	515.0461	65530.4	64593.15
818.4377	517.199	65535	64595.45
818.5818	519.3512	65523.05	64587.05
818.726	521.5029	65529.3	64591.1
818.8703	523.6539	65529.15	64589.75
819.0145	525.8043	65508.25	64564.45
819.1587	527.9541	65528.15	64584
819.303	530.1033	65528.75	64589.5
819.4472	532.2519	65522	64586.5
819.5915	534.3999	65535	64592.75
819.7357	536.5472	65535	64596.25
819.88	538.694	65524.65	64588.45
820.0243	540.8401	65535	64591
820.1686	542.9856	65535	64583.45
820.3129	545.1305	65535	64574.45
820.4572	547.2748	65534.4	64572.75
820.6016	549.4185	65527.7	64564
820.7459	551.5615	65535	64578.55
820.8902	553.704	65535	64578.2
821.0346	555.8458	65529.3	64580.15
821.1789	557.987	65531.55	64581.05
821.3233	560.1276	65534.55	64582.9
821.4677	562.2675	65525.6	64571.7
821.6121	564.4069	65528.25	64570.75
821.7565	566.5456	65535	64583.15
821.9009	568.6837	65522.3	64575.5
822.0453	570.8212	65527.1	64576.85
822.1897	572.958	65486.3	64540.65
822.3342	575.0942	65523.85	64578.8
822.4786	577.2299	65505.7	64565.2
822.6231	579.3648	65494.95	64570.25
822.7675	581.4992	65492.85	64578.85
822.912	583.6329	65500.15	64585.3
823.0565	585.766	65506.4	64585.95
823.201	587.8985	65519.6	64586.45
823.3454	590.0304	65458.2	64508.9
823.4899	592.1616	65495.3	64545.95
823.6345	594.2922	65474.3	64521.95
823.779	596.4222	65429.5	64478.35
823.9235	598.5515	65445.95	64489.8
824.068	600.6802	65489.4	64533.55
824.2126	602.8083	65421.25	64470.9
824.3571	604.9358	65411.75	64458.2
824.5017	607.0626	65462.4	64507.9
824.6462	609.1888	65385.3	64422.75
824.7908	611.3144	65424.95	64461.9
824.9354	613.4393	65401.35	64440
825.08	615.5636	65363.75	64403.35
825.2246	617.6873	65395.75	64436.65
825.3692	619.8103	65348.75	64389.5
825.5138	621.9327	65416.6	64462.7
825.6584	624.0544	65412	64464
825.803	626.1756	65387.95	64438.75
825.9477	628.2961	65385.2	64428.3
826.0923	630.4159	65355.85	64394.7
826.237	632.5351	65332.2	64373.85
826.3816	634.6537	65418.25	64460
826.5263	636.7716	65328	64362.4
826.6709	638.8889	65345.6	64379.35
826.8156	641.0056	65354.65	64387.15
826.9603	643.1216	65370.15	64406.75
827.105	645.237	65384.5	64420.7
827.2497	647.3518	65334.5	64380.55
827.3944	649.4659	65350.45	64403.4
827.5391	651.5793	65353.45	64403.65
827.6838	653.6922	65368.9	64415.85
827.8285	655.8043	65301.25	64347.3
827.9733	657.9159	65381.4	64428
828.118	660.0268	65240.85	64281.65
828.2627	662.137	65326.95	64373.4
828.4075	664.2466	65331.95	64368.4
828.5522	666.3556	65300.95	64339.7
828.697	668.4639	65322	64363.7
828.8418	670.5716	65290.6	64337.05
828.9865	672.6786	65330.3	64372.05
829.1313	674.785	65279.25	64314
829.2761	676.8907	65281.95	64323.75
829.4209	678.9958	65307.4	64356.15
829.5657	681.1002	65317.9	64360.7
829.7105	683.204	65269.5	64298.4
829.8553	685.3072	65239.45	64274.05
830.0001	687.4097	65265.25	64300.2
830.1449	689.5115	65242.8	64278.55
830.2898	691.6127	65297.35	64336.65
830.4346	693.7132	65246.3	64290.15
830.5794	695.8131	65248.85	64267.8
830.7243	697.9123	65256.9	64288.9
830.8691	700.0109	65257.6	64286.8
831.014	702.1089	65186.95	64223
831.1588	704.2061	65217.95	64252.65
831.3037	706.3028	65226	64261.8
831.4486	708.3987	65248	64284.55
831.5935	710.4941	65228.05	64268.9
831.7383	712.5887	65258.45	64297.5
831.8832	714.6827	65233.1	64269.2
832.0281	716.7761	65275.85	64320.4
832.173	718.8688	65293.55	64332.25
832.3179	720.9608	65238.6	64269.8
832.4628	723.0522	65259.4	64284.45
832.6077	725.1429	65207.35	64239.2
832.7527	727.233	65302.95	64334.65
832.8976	729.3224	65073.9	64111.75
833.0425	731.4112	65160.2	64193.8
833.1874	733.4993	65163.5	64194.4
833.3324	735.5867	65175.5	64211.25
833.4773	737.6735	65116.75	64147.1
833.6222	739.7596	65047.15	64079.55
833.7672	741.845	65044.05	64081.85
833.9122	743.9298	65130.8	64165.6
834.0571	746.014	65046.2	64078.4
834.2021	748.0974	64973.1	63999.9
834.347	750.1802	65112.2	64139.75
834.492	752.2624	64951.6	63980.1
834.637	754.3439	64967.25	63995.05
834.782	756.4247	65002	64022.75
834.9269	758.5048	64943.5	63973.5
835.0719	760.5843	64972.85	63998.7
835.2169	762.6631	65028	64050.6
835.3619	764.7413	64989.9	64017.75
835.5069	766.8188	65007.45	64035.75
835.6519	768.8956	65059.05	64088.5
835.7969	770.9718	65052.45	64086.25
835.9419	773.0473	65030.75	64053.8
836.0869	775.1221	64937.55	63966.9
836.232	777.1962	64932.4	63961.7
836.377	779.2697	64820.8	63852.25
836.522	781.3426	64890.55	63902.65
836.667	783.4147	64928.8	63958.2
836.8121	785.4862	64922.75	63947.95
836.9571	787.557	64825.6	63852.3
837.1021	789.6271	64913	63938.4
837.2472	791.6966	64798.15	63827.85
837.3922	793.7654	64667.25	63693.3
837.5373	795.8335	64670.3	63700.2
837.6823	797.901	64681.2	63709.9
837.8274	799.9678	64609.95	63630.05
837.9724	802.0339	64606.95	63630.5
838.1175	804.0993	64620.1	63632.35
838.2626	806.1641	64575.65	63602.25
838.4076	808.2282	64542.65	63572.9
838.5527	810.2916	64496.45	63527.25
838.6978	812.3544	64561.15	63589.6
838.8428	814.4164	64409.8	63440.15
838.9879	816.4778	64443.05	63469.4
839.133	818.5385	64443.75	63470.65
839.2781	820.5986	64427.35	63451.85
839.4232	822.658	64443.05	63466.15
839.5682	824.7166	64447.85	63471.55
839.7133	826.7747	64326.25	63350.8
839.8584	828.832	64393.35	63417.05
840.0035	830.8886	64459.55	63477.45
840.1486	832.9446	64456.3	63481.7
840.2937	834.9999	64218.25	63245.7
840.4388	837.0545	64347.65	63364.55
840.5839	839.1085	64417.15	63438.1
840.729	841.1618	64369.3	63391.55
840.8741	843.2143	64195.15	63223
841.0192	845.2662	64202.05	63228.55
841.1643	847.3175	64235.5	63259.6
841.3095	849.368	64028.95	63051.55
841.4546	851.4179	64162.65	63189.7
841.5997	853.467	64036.9	63057.85
841.7448	855.5155	64109.3	63132.55
841.8899	857.5633	63992.65	63013.5
842.0351	859.6105	63924.05	62948.1
842.1802	861.6569	63980.35	63006.7
842.3253	863.7027	63830.4	62857.45
842.4704	865.7478	63870.55	62896.55
842.6156	867.7922	63840.05	62864.85
842.7607	869.8359	63930.75	62951.5
842.9058	871.8789	63777.35	62795.45
843.0509	873.9212	63879.95	62872
843.1961	875.9629	63869.65	62889.85
843.3412	878.0039	63868.1	62889.65
843.4863	880.0441	63808.15	62831.4
843.6315	882.0837	63804.6	62831.35
843.7766	884.1226	63785.5	62809.5
843.9218	886.1609	63769.7	62795.65
844.0669	888.1984	63690.75	62714
844.212	890.2352	63788.25	62811.4
844.3572	892.2714	63621.2	62638.25
844.5023	894.3069	63684.2	62707.1
844.6475	896.3416	63602.65	62627.7
844.7926	898.3757	63600	62621.55
844.9377	900.4091	63454.15	62474.7
845.0829	902.4418	63611.35	62629.05
845.228	904.4739	63500.65	62516.1
845.3732	906.5052	63543.55	62564.25
845.5183	908.5358	63443.95	62464.1
845.6635	910.5658	63362.05	62383
845.8086	912.595	63347.95	62373.95
845.9538	914.6236	63113.95	62138.85
846.0989	916.6515	63394.2	62419.6
846.2441	918.6786	63090.35	62109.95
846.3892	920.7051	63168.5	62187.45
846.5344	922.7309	63119.85	62138.55
846.6795	924.756	63171.3	62193.65
846.8246	926.7804	63092.5	62111.7
846.9698	928.8041	62790.65	61814.6
847.1149	930.8272	62988.8	62011.6
847.2601	932.8495	62987.8	62010.1
847.4052	934.8711	62781.25	61801.4
847.5504	936.892	62598.05	61617.1
847.6955	938.9123	62652.25	61669.3
847.8407	940.9318	62502.45	61519.4
847.9858	942.9506	62446.05	61467.25
848.131	944.9688	62465.45	61487.55
848.2761	946.9862	62074.9	61094.55
848.4213	949.003	62202.15	61220.05
848.5664	951.019	61861.3	60880.85
848.7115	953.0344	61966.1	60987.35
848.8567	955.0491	61840.15	60857.3
849.0018	957.063	62034	61056.75
849.147	959.0763	62075.05	61088.15
849.2921	961.0888	61719.75	60740.9
849.4373	963.1007	61971.95	60993.35
849.5824	965.1119	61963.75	60990.3
849.7275	967.1223	61681.45	60721.25
849.8727	969.1321	61972.75	61013.5
850.0178	971.1412	61547.3	60578
850.1629	973.1495	61353.55	60378.85
850.3081	975.1572	61634.4	60604.7
850.4532	977.1641	61379.65	60399.85
850.5983	979.1704	61340.75	60359.55
850.7435	981.1759	61359.4	60379.5
850.8886	983.1808	61069.75	60086.65
851.0337	985.1849	61089.4	60099.45
851.1788	987.1884	61199.45	60223.2
851.324	989.1911	61445.55	60471.35
851.4691	991.1932	60710.6	59733.4
851.6142	993.1945	60926.3	59952
851.7593	995.1951	61106.3	60128.95
851.9045	997.1951	60652	59669.6
852.0496	999.1943	60511.45	59536.95
852.1947	1001.1928	60347.25	59370.15
852.3398	1003.1906	60459.5	59485.55
852.4849	1005.1877	59895.3	58920.2
852.63	1007.1841	59764.95	58791.45
852.7751	1009.1798	59739.15	58764.7
852.9202	1011.1748	59629.8	58655.2
853.0653	1013.1691	59489.35	58515.9
853.2104	1015.1627	58097.6	57122.25
853.3555	1017.1556	58619.65	57647.3
853.5006	1019.1477	58765.3	57792.75
853.6457	1021.1392	58090.55	57125.05
853.7908	1023.1299	57323.3	56362.4
853.9359	1025.12	57782	56826.8
854.081	1027.1093	57391.3	56449.25
854.2261	1029.0979	57397.95	56459.95
854.3712	1031.0859	57312.5	56365.45
854.5163	1033.0731	56655.4	55694.9
854.6613	1035.0596	56899.9	55934.9
854.8064	1037.0454	56650.1	55681.95
854.9515	1039.0304	56267.55	55298.65
855.0965	1041.0148	55494.7	54524.35
855.2416	1042.9985	55601.8	54627.65
855.3867	1044.9814	55932.7	54967.2
855.5317	1046.9636	55188.5	54217.8
855.6768	1048.9452	55236.6	54269.05
855.8219	1050.926	55086.65	54118.25
855.9669	1052.9061	55025.5	54058.45
856.112	1054.8855	55007.9	54037
856.257	1056.8642	54654.05	53680.55
856.4021	1058.8421	54363.45	53384.9
856.5471	1060.8194	54409.25	53437.35
856.6921	1062.7959	54196.95	53223.95
856.8372	1064.7717	54429.85	53456
856.9822	1066.7469	54151.65	53179.25
857.1272	1068.7213	54112.25	53140.8
857.2723	1070.695	53868.25	52896.35
857.4173	1072.6679	53444.1	52472.65
857.5623	1074.6402	53612.6	52639.8
857.7073	1076.6117	53296.35	52322.95
857.8523	1078.5826	53279.55	52307.1
857.9973	1080.5527	53242.7	52269
858.1423	1082.5221	52969.6	51996.55
858.2873	1084.4908	53181.85	52210.7
858.4323	1086.4587	53117.7	52143.45
858.5773	1088.426	53187.25	52216.1
858.7223	1090.3925	53041.7	52066.85
858.8673	1092.3584	52880.95	51910.6
859.0123	1094.3235	52381.2	51413.4
859.1573	1096.2879	52268.4	51300.15
859.3022	1098.2515	52246.05	51277.8
859.4472	1100.2145	52054.3	51082.8
859.5922	1102.1767	51982.5	51013.05
859.7371	1104.1382	52114.7	51143.7
859.8821	1106.099	52051.65	51077.55
860.027	1108.0591	52007.35	51038.55
860.172	1110.0185	51656.45	50683.1
860.3169	1111.9771	52030.85	51063.4
860.4619	1113.9351	51544.35	50574.95
860.6068	1115.8923	51071.05	50103.4
860.7517	1117.8488	50656.4	49687
860.8967	1119.8045	50100.45	49133.4
861.0416	1121.7596	50003.1	49035.4
861.1865	1123.7139	49719.4	48754
861.3314	1125.6675	49747.15	48780.15
861.4763	1127.6204	49644	48674.1
861.6212	1129.5726	49342.05	48372.1
861.7661	1131.524	49433.3	48463.6
861.911	1133.4748	49448.9	48483.5
862.0559	1135.4248	49114.85	48146.9
862.2008	1137.3741	49049.8	48082.15
862.3457	1139.3226	48928.7	47955.95
862.4905	1141.2705	48798.5	47828.45
862.6354	1143.2176	48507.4	47533.55
862.7803	1145.164	48330.25	47362
862.9251	1147.1097	48294.1	47324.35
863.07	1149.0546	48227.85	47261.35
863.2148	1150.9989	48152.1	47185.95
863.3597	1152.9424	47804.95	46841.2
863.5045	1154.8852	47640.2	46674.65
863.6493	1156.8272	47398.8	46431.95
863.7942	1158.7686	47446.55	46473.25
863.939	1160.7092	47021.75	46053.05
864.0838	1162.6491	46883.95	45910.65
864.2286	1164.5883	46902.2	45934.3
864.3734	1166.5267	46822.15	45855.95
864.5182	1168.4644	46898.55	45930.35
864.663	1170.4014	46974.6	46002.9
864.8078	1172.3377	47137	46170.85
864.9526	1174.2732	47301.1	46336.65
865.0974	1176.2081	47304.35	46337.35
865.2421	1178.1421	47336.4	46364.25
865.3869	1180.0755	47586.7	46622.7
865.5317	1182.0082	47381.25	46417.5
865.6764	1183.9401	47353.9	46390.5
865.8212	1185.8713	46977.35	46020.8
865.9659	1187.8017	46693.45	45744.75
866.1106	1189.7315	46433.75	45494.05
866.2554	1191.6605	45945.7	45003.95
866.4001	1193.5888	45574.9	44628.65
866.5448	1195.5163	45385	44428.05
866.6895	1197.4432	45197.35	44235.65
866.8342	1199.3693	45053.25	44093.7
866.9789	1201.2947	44864.7	43899.8
867.1236	1203.2193	44625.5	43660.75
