Software Version:	3.9.2.0
Unit SN:	10000200
Spectrometer SN:	6960
Date:	3/26/2024 2:01:00 PM
Data Line Index:	25
Spectral Points:	2048
Integration time (ms):	125
Averages:	20
Delay (ms):	30000
Sequence Number:	1
Processing:	dark subtract
Laser Power (mW):	305
Laser Current (mA):	821
Laser Diode Temp (C):	25.1
Laser Case Temp (C):	27.4
System Temp (C):	27.4
Spectrometer Temp (C):	25.2
CCD Temp (C):	0.012
Secondary Temp (C):	20
Heatsink Temp (C):	22.758
CCDPCB Temp (C):	36.874
SecondaryPCB Temp (C):	34.539

Wavelength	RamanShift	Raw Counts	Dark Subtracted
787.061	30.1047	604.55	193.25
787.2016	32.3739	614.45	204.9
787.3422	34.6426	628.6	217.55
787.4828	36.9109	644.55	233.15
787.6235	39.1787	662.8	245.05
787.7642	41.4461	685.75	266
787.9049	43.7131	698.6	273.8
788.0456	45.9796	725.9	297.3
788.1863	48.2456	755.1	323.65
788.3271	50.5112	775	338.25
788.4679	52.7764	793.25	354.35
788.6087	55.0411	822.05	380.15
788.7496	57.3054	844.55	398.15
788.8904	59.5692	870.95	420.7
789.0313	61.8326	904.1	452.05
789.1722	64.0955	941.85	487.05
789.3132	66.3579	986.55	525.4
789.4541	68.6199	1033.7	567.6
789.5951	70.8815	1118.45	651.1
789.7361	73.1426	1286.15	815
789.8771	75.4032	1729.1	1253.45
790.0181	77.6634	2819.1	2336.65
790.1592	79.9231	5519.15	5026.9
790.3003	82.1824	11727.2	11217.55
790.4414	84.4412	24636	24096.95
790.5825	86.6995	47502.25	46913.8
790.7237	88.9574	59980.2	59355.7
790.8648	91.2148	64101.35	63446
791.006	93.4717	64674.2	64008.5
791.1472	95.7282	64961.3	64280
791.2885	97.9842	65053.85	64366.2
791.4297	100.2398	64995.8	64309.8
791.571	102.4949	64991.35	64298.65
791.7123	104.7495	64953.55	64259.95
791.8536	107.0036	64840.45	64147.85
791.9949	109.2573	64929.5	64237.05
792.1363	111.5105	64800.65	64104.05
792.2777	113.7632	64735	64036.8
792.4191	116.0154	64797.4	64088.45
792.5605	118.2672	64887	64182.5
792.7019	120.5185	64873.7	64167.7
792.8434	122.7693	64841.45	64136.05
792.9849	125.0197	64609.05	63898
793.1264	127.2696	64957.4	64246.25
793.2679	129.519	64872.55	64154.75
793.4094	131.7679	64983.6	64267.8
793.551	134.0163	64652.4	63932.35
793.6926	136.2642	64807.65	64076.75
793.8342	138.5117	64974.45	64243.65
793.9758	140.7587	64904.45	64172.25
794.1175	143.0052	64863.25	64130.2
794.2591	145.2512	64663.65	63939.6
794.4008	147.4967	64896.55	64166.7
794.5425	149.7417	64834.85	64100.15
794.6842	151.9863	64806.65	64069.45
794.826	154.2304	64699.8	63955.95
794.9677	156.4739	64727	63981.35
795.1095	158.717	64914.8	64166.4
795.2513	160.9596	64778.25	64029.45
795.3931	163.2017	64578.05	63823.6
795.535	165.4433	64763.25	64009.8
795.6768	167.6844	64617.85	63863.1
795.8187	169.925	64687.25	63928.95
795.9606	172.1651	64506.25	63748.9
796.1025	174.4047	64605.3	63844.8
796.2445	176.6439	64538.65	63774.75
796.3864	178.8825	64427.5	63662.35
796.5284	181.1206	64666.1	63891.75
796.6704	183.3582	64596.35	63818.95
796.8124	185.5954	64505.6	63730.35
796.9544	187.832	64505.75	63728.15
797.0965	190.0681	64347.55	63567.05
797.2386	192.3037	64591.95	63804.9
797.3806	194.5388	64852.65	64064.55
797.5228	196.7734	64193.35	63399.7
797.6649	199.0075	64821.5	64021.6
797.807	201.2411	64578.55	63776.8
797.9492	203.4742	64908.7	64110.2
798.0914	205.7068	64795.75	63995.7
798.2336	207.9389	64783.75	63979.3
798.3758	210.1704	64753.75	63949.7
798.518	212.4015	64950.8	64150
798.6603	214.632	64757.65	63951.65
798.8025	216.862	64990.3	64191.35
798.9448	219.0915	64827.95	64037.4
799.0871	221.3205	64847.75	64059.8
799.2294	223.549	65046.35	64259.6
799.3718	225.777	65024.85	64245.35
799.5141	228.0044	65099.9	64310.45
799.6565	230.2314	65036.75	64250.95
799.7989	232.4578	65067.15	64283.85
799.9413	234.6837	65098.95	64310.7
800.0837	236.909	65298.65	64506.4
800.2262	239.1339	64976.2	64155.6
800.3687	241.3582	65121.45	64315.2
800.5111	243.582	65120.9	64288.15
800.6536	245.8053	65094.05	64270.1
800.7961	248.0281	65110.85	64291.55
800.9387	250.2503	65133.8	64311.7
801.0812	252.472	65002.75	64175.15
801.2238	254.6932	65078.4	64249.6
801.3664	256.9139	65030.2	64205.65
801.509	259.134	65228.95	64395.2
801.6516	261.3536	65017	64186.65
801.7942	263.5727	65114	64277.2
801.9369	265.7912	65046.85	64215.2
802.0795	268.0092	65090.2	64257.75
802.2222	270.2267	65115	64283.25
802.3649	272.4436	64990.6	64157.4
802.5076	274.6601	65104.65	64264.45
802.6504	276.8759	65136	64302.2
802.7931	279.0913	65065.25	64226.2
802.9359	281.3061	65103.85	64266.65
803.0787	283.5204	65102.6	64259.95
803.2215	285.7341	65098.7	64254.8
803.3643	287.9473	65189.15	64326.15
803.5071	290.16	65125.95	64275.2
803.6499	292.3721	65168.85	64326.65
803.7928	294.5837	65110.1	64261.75
803.9357	296.7947	65046.75	64204.8
804.0786	299.0052	65202.2	64353.45
804.2215	301.2152	65139.05	64290.65
804.3644	303.4246	65174.6	64328.7
804.5074	305.6334	65163.5	64316.3
804.6503	307.8418	65027.55	64178.3
804.7933	310.0495	65027.2	64177.9
804.9363	312.2568	65015.35	64167.95
805.0793	314.4635	65013.8	64160.6
805.2223	316.6696	65080.6	64226.95
805.3653	318.8752	65123.95	64261.85
805.5084	321.0802	64878.9	64028.1
805.6514	323.2847	64992.8	64138
805.7945	325.4887	64970.2	64113.2
805.9376	327.692	64921.1	64061.1
806.0807	329.8949	64977.4	64120.35
806.2238	332.0972	64895.6	64032.6
806.367	334.2989	64938.75	64077.6
806.5101	336.5001	65022.6	64161.1
806.6533	338.7007	64759.85	63898.05
806.7965	340.9008	64920.8	64055.05
806.9397	343.1003	64941.35	64076.35
807.0829	345.2992	64995.05	64127.6
807.2261	347.4976	64857.4	63991.05
807.3693	349.6955	64927.2	64055.1
807.5126	351.8927	64837.2	63958.7
807.6559	354.0895	64947.95	64065.35
807.7991	356.2856	64932.05	64055.95
807.9424	358.4812	65009.85	64134.7
808.0857	360.6763	64808.75	63932.25
808.2291	362.8707	65005.75	64129.2
808.3724	365.0646	64893.85	64015.4
808.5158	367.258	64896.55	64018.3
808.6591	369.4508	64758.45	63877.45
808.8025	371.643	64979.5	64098.25
808.9459	373.8346	64885.1	63996.5
809.0893	376.0257	64897.6	64014
809.2327	378.2162	64847.1	63958.4
809.3762	380.4062	64593.6	63705
809.5196	382.5956	64825.4	63933
809.6631	384.7844	64783.1	63893.65
809.8066	386.9726	64868.55	63978.85
809.9501	389.1603	64845.5	63958.05
810.0936	391.3474	64691.95	63763.1
810.2371	393.5339	64815.9	63924.55
810.3806	395.7199	64528.25	63642.45
810.5241	397.9052	64591	63710.2
810.6677	400.09	64673.2	63793.3
810.8113	402.2743	64857.1	63977.1
810.9548	404.4579	64598.5	63721
811.0984	406.641	64633.45	63753.3
811.2421	408.8235	64749.95	63872.35
811.3857	411.0054	64816.9	63940.85
811.5293	413.1868	64866.25	63979.2
811.673	415.3675	64812.2	63926.15
811.8166	417.5477	64809.25	63928.4
811.9603	419.7273	64828.55	63941.9
812.104	421.9064	64799.45	63905.35
812.2477	424.0848	64806.25	63915
812.3914	426.2627	64920.1	64029.1
812.5351	428.4399	64696.3	63804.4
812.6788	430.6166	64406.7	63512.35
812.8226	432.7928	64675.65	63777.6
812.9663	434.9683	64463.95	63572.1
813.1101	437.1432	64427	63531.95
813.2539	439.3176	64624.7	63732.15
813.3977	441.4914	64281.55	63391.65
813.5415	443.6645	64338.05	63440.8
813.6853	445.8371	64369.9	63474.3
813.8291	448.0091	64239.4	63347.9
813.973	450.1806	64169.4	63276.25
814.1168	452.3514	64207.1	63313.85
814.2607	454.5216	64052.15	63148.45
814.4046	456.6913	64224	63327.85
814.5485	458.8603	64250.7	63354.9
814.6924	461.0288	64010.75	63122.5
814.8363	463.1967	64251.05	63362.15
814.9802	465.3639	64211.2	63317.65
815.1241	467.5306	63884.95	62989.95
815.2681	469.6967	64122.55	63225.75
815.412	471.8622	64267.8	63375.5
815.556	474.0271	64120.4	63227.1
815.7	476.1914	64161.75	63259.85
815.844	478.3551	64166.65	63269.7
815.988	480.5182	64422.2	63528.05
816.132	482.6807	64063.85	63173.65
816.276	484.8426	64107.15	63219
816.4201	487.0039	64380.6	63492.75
816.5641	489.1647	64417.1	63517.95
816.7082	491.3248	64150.1	63252.25
816.8522	493.4843	64509.65	63617.35
816.9963	495.6432	64508.3	63615.75
817.1404	497.8015	64152.85	63249.15
817.2845	499.9592	64363.95	63458.65
817.4286	502.1163	64327.6	63420.65
817.5727	504.2728	64266.35	63366.7
817.7168	506.4287	64195.55	63305.1
817.861	508.5839	64028.25	63138.05
818.0051	510.7386	64134	63235.35
818.1493	512.8927	64170.25	63267.8
818.2935	515.0461	64069.15	63166.7
818.4377	517.199	64225.15	63317.75
818.5818	519.3512	64056.9	63151.6
818.726	521.5029	64010.35	63099.85
818.8703	523.6539	64060.75	63156.15
819.0145	525.8043	63851.9	62943.55
819.1587	527.9541	64067.25	63162.85
819.303	530.1033	64051.65	63149.25
819.4472	532.2519	63940.2	63032.6
819.5915	534.3999	64115.35	63208.95
819.7357	536.5472	64239.7	63336.65
819.88	538.694	63962.5	63059.25
820.0243	540.8401	64191.8	63282.3
820.1686	542.9856	64267.8	63354.5
820.3129	545.1305	64404.75	63486.5
820.4572	547.2748	64124.75	63203
820.6016	549.4185	64068.8	63146.2
820.7459	551.5615	64231.15	63309.2
820.8902	553.704	64144	63224.8
821.0346	555.8458	64022.25	63106.5
821.1789	557.987	64070.95	63155.65
821.3233	560.1276	64129.55	63208.15
821.4677	562.2675	64001.8	63085.35
821.6121	564.4069	64052.85	63137.1
821.7565	566.5456	64186.05	63275.2
821.9009	568.6837	63944.7	63032.55
822.0453	570.8212	64029.9	63117.7
822.1897	572.958	63728.8	62819.5
822.3342	575.0942	63941.05	63029.15
822.4786	577.2299	63761.7	62857.05
822.6231	579.3648	63708.55	62809.05
822.7675	581.4992	63685.1	62791.4
822.912	583.6329	63708.8	62817.75
823.0565	585.766	63701.6	62804.75
823.201	587.8985	63787.9	62887.9
823.3454	590.0304	63511.75	62599.2
823.4899	592.1616	63728.45	62814.2
823.6345	594.2922	63628.8	62716.5
823.779	596.4222	63487.6	62566.8
823.9235	598.5515	63489.9	62573.75
824.068	600.6802	63538.4	62621
824.2126	602.8083	63336.45	62421
824.3571	604.9358	63320.55	62403.95
824.5017	607.0626	63481.9	62565.05
824.6462	609.1888	63232.95	62311.55
824.7908	611.3144	63389.55	62465.05
824.9354	613.4393	63264.4	62338.95
825.08	615.5636	63111.65	62190.15
825.2246	617.6873	63264.05	62341.7
825.3692	619.8103	63029.15	62107
825.5138	621.9327	63212.8	62289.65
825.6584	624.0544	63260.9	62345.05
825.803	626.1756	63152.25	62239.05
825.9477	628.2961	63107.15	62185.5
826.0923	630.4159	62990.8	62068.5
826.237	632.5351	62981.8	62057.8
826.3816	634.6537	63280.1	62358
826.5263	636.7716	62899.75	61977.85
826.6709	638.8889	63013	62084.3
826.8156	641.0056	62977.5	62050.5
826.9603	643.1216	63046.95	62119.3
827.105	645.237	63131.5	62207.25
827.2497	647.3518	62913.95	61997.9
827.3944	649.4659	62976.75	62062
827.5391	651.5793	62992.65	62074.9
827.6838	653.6922	63011.95	62089.25
827.8285	655.8043	62744.05	61821.95
827.9733	657.9159	63131.2	62211.4
828.118	660.0268	62432.2	61509.7
828.2627	662.137	62843.1	61925.85
828.4075	664.2466	62903.1	61973.4
828.5522	666.3556	62761.25	61834.6
828.697	668.4639	62824.7	61897.8
828.8418	670.5716	62694.8	61776.2
828.9865	672.6786	62825.5	61901.4
829.1313	674.785	62596	61669.7
829.2761	676.8907	62650.4	61727
829.4209	678.9958	62733.45	61814.7
829.5657	681.1002	62776.6	61852.9
829.7105	683.204	62559.8	61627.75
829.8553	685.3072	62428.15	61501.9
830.0001	687.4097	62471.15	61541.65
830.1449	689.5115	62388.55	61459.55
830.2898	691.6127	62598.65	61675.35
830.4346	693.7132	62367.1	61445.55
830.5794	695.8131	62357.3	61411.65
830.7243	697.9123	62430.85	61500.25
830.8691	700.0109	62476.3	61547.45
831.014	702.1089	62101.1	61174.25
831.1588	704.2061	62222.65	61296
831.3037	706.3028	62289	61356.8
831.4486	708.3987	62332.4	61405
831.5935	710.4941	62202.3	61278.5
831.7383	712.5887	62415.25	61489.95
831.8832	714.6827	62274.75	61346.25
832.0281	716.7761	62523.55	61600.05
832.173	718.8688	62571.9	61646.2
832.3179	720.9608	62400.8	61466.95
832.4628	723.0522	62417.2	61481.05
832.6077	725.1429	62152.1	61221.55
832.7527	727.233	62592.3	61667.05
832.8976	729.3224	61646.2	60718.8
833.0425	731.4112	61980.95	61051.25
833.1874	733.4993	61968.75	61037.25
833.3324	735.5867	61920.8	60989.3
833.4773	737.6735	61704.1	60775.8
833.6222	739.7596	61447.25	60517.75
833.7672	741.845	61404.4	60471
833.9122	743.9298	61757.1	60824.9
834.0571	746.014	61338.55	60408.9
834.2021	748.0974	61113.4	60178.8
834.347	750.1802	61611.15	60674.75
834.492	752.2624	60946.95	60010.45
834.637	754.3439	61053.85	60122.85
834.782	756.4247	61164.7	60220.1
834.9269	758.5048	60875.8	59942.85
835.0719	760.5843	61034.1	60100.45
835.2169	762.6631	61204.6	60268.9
835.3619	764.7413	61184.75	60251.4
835.5069	766.8188	61310.45	60376.85
835.6519	768.8956	61628.8	60693.6
835.7969	770.9718	61616.5	60687
835.9419	773.0473	61439.45	60508.85
836.0869	775.1221	61015.6	60083
836.232	777.1962	60931	59996.95
836.377	779.2697	60380.9	59445.45
836.522	781.3426	60720.1	59766.4
836.667	783.4147	60873.45	59939.05
836.8121	785.4862	60829.55	59896.85
836.9571	787.557	60431.75	59495.8
837.1021	789.6271	60747.9	59814.15
837.2472	791.6966	60228	59296.4
837.3922	793.7654	59598.55	58658.9
837.5373	795.8335	59572.5	58640.35
837.6823	797.901	59658.8	58724.55
837.8274	799.9678	59372.7	58436.95
837.9724	802.0339	59290.6	58353.65
838.1175	804.0993	59310.7	58363.5
838.2626	806.1641	59081.95	58143.35
838.4076	808.2282	58943	58009.35
838.5527	810.2916	58850.35	57915.6
838.6978	812.3544	59036.25	58105.25
838.8428	814.4164	58470.05	57538.9
838.9879	816.4778	58591.25	57653.1
839.133	818.5385	58595.9	57662.25
839.2781	820.5986	58547.3	57609.9
839.4232	822.658	58656.3	57721
839.5682	824.7166	58679.35	57745.05
839.7133	826.7747	58335.8	57396.5
839.8584	828.832	58560.2	57627.25
840.0035	830.8886	58797.95	57857.4
840.1486	832.9446	58813.4	57876.05
840.2937	834.9999	58089.8	57154.65
840.4388	837.0545	58403.45	57464.5
840.5839	839.1085	58567.5	57630.25
840.729	841.1618	58373.05	57430.95
840.8741	843.2143	57851.5	56915.5
841.0192	845.2662	57812.95	56874.3
841.1643	847.3175	57947.3	57009.4
841.3095	849.368	57315.35	56381.2
841.4546	851.4179	57711.15	56773.05
841.5997	853.467	57205.1	56267.15
841.7448	855.5155	57433	56496.05
841.8899	857.5633	57020.25	56082.9
842.0351	859.6105	56798.95	55859.9
842.1802	861.6569	56972.35	56031.55
842.3253	863.7027	56519.8	55577.45
842.4704	865.7478	56677.7	55741.45
842.6156	867.7922	56542.5	55602.2
842.7607	869.8359	56786.15	55846.5
842.9058	871.8789	56307.75	55370.05
843.0509	873.9212	56595.55	55620.35
843.1961	875.9629	56548.35	55609.05
843.3412	878.0039	56559.45	55619.7
843.4863	880.0441	56427.6	55489.05
843.6315	882.0837	56378.5	55443.55
843.7766	884.1226	56278	55342.9
843.9218	886.1609	56240.9	55305.65
844.0669	888.1984	56033	55097.4
844.212	890.2352	56333.2	55397.05
844.3572	892.2714	55817.7	54875.65
844.5023	894.3069	55948.55	55006.65
844.6475	896.3416	55752.45	54815.6
844.7926	898.3757	55667.6	54728.45
844.9377	900.4091	55235.1	54293.9
845.0829	902.4418	55674.4	54728.85
845.228	904.4739	55327.95	54388.45
845.3732	906.5052	55411.75	54472.6
845.5183	908.5358	55121.15	54180.9
845.6635	910.5658	54871.1	53932
845.8086	912.595	54740.85	53802.2
845.9538	914.6236	54293.75	53354.95
846.0989	916.6515	54835.75	53898.4
846.2441	918.6786	54098.25	53155.6
846.3892	920.7051	54229.45	53284.6
846.5344	922.7309	54201.6	53260.45
846.6795	924.756	54303.45	53362.9
846.8246	926.7804	54110.45	53170.05
846.9698	928.8041	53570.4	52631.3
847.1149	930.8272	53842.35	52901.45
847.2601	932.8495	53745.75	52804
847.4052	934.8711	53353.05	52414.45
847.5504	936.892	53151.55	52212.55
847.6955	938.9123	53077.4	52137.5
847.8407	940.9318	52790.5	51851.2
847.9858	942.9506	52665.65	51724.45
848.131	944.9688	52608.6	51668.4
848.2761	946.9862	52117.2	51176.55
848.4213	949.003	52070.55	51130.5
848.5664	951.019	51739	50801.1
848.7115	953.0344	51794.8	50854.3
848.8567	955.0491	51690.6	50752.05
849.0018	957.063	51839.95	50901.05
849.147	959.0763	51951.2	51006.65
849.2921	961.0888	51618.15	50677.65
849.4373	963.1007	51786.55	50854.1
849.5824	965.1119	51717.6	50785.7
849.7275	967.1223	51498.9	50568.75
849.8727	969.1321	51618.4	50688.8
850.0178	971.1412	51365.95	50434.15
850.1629	973.1495	51161.25	50227.65
850.3081	975.1572	51249.95	50273.4
850.4532	977.1641	51125.2	50186.5
850.5983	979.1704	50961.5	50018
850.7435	981.1759	50940.3	49999.05
850.8886	983.1808	50784.9	49850.3
851.0337	985.1849	50755.1	49806.05
851.1788	987.1884	50777.6	49838.7
851.324	989.1911	50930.45	49990.65
851.4691	991.1932	50573.9	49637.9
851.6142	993.1945	50570.05	49632.85
851.7593	995.1951	50513.8	49575.9
851.9045	997.1951	50221.05	49276.3
852.0496	999.1943	50023.25	49085.2
852.1947	1001.1928	49859.2	48919.75
852.3398	1003.1906	49797.65	48860.1
852.4849	1005.1877	49502.5	48562
852.63	1007.1841	49274.8	48336.05
852.7751	1009.1798	49106.35	48171.4
852.9202	1011.1748	48893.65	47956.65
853.0653	1013.1691	48723.8	47784.55
853.2104	1015.1627	48088.1	47154.65
853.3555	1017.1556	47914.45	46979.75
853.5006	1019.1477	47831.65	46897.35
853.6457	1021.1392	47378.45	46447.8
853.7908	1023.1299	47002.15	46072.5
853.9359	1025.12	47046.15	46119.05
854.081	1027.1093	46810.5	45893.95
854.2261	1029.0979	46766.55	45847.9
854.3712	1031.0859	46653.6	45732.95
854.5163	1033.0731	46420.75	45491.55
854.6613	1035.0596	46352.6	45420.35
854.8064	1037.0454	46050.35	45118.35
854.9515	1039.0304	45831.6	44898.2
855.0965	1041.0148	45382.55	44446.15
855.2416	1042.9985	45279.25	44343.75
855.3867	1044.9814	45304.95	44372
855.5317	1046.9636	44986.85	44052.65
855.6768	1048.9452	44837.65	43903.15
855.8219	1050.926	44784.85	43853
855.9669	1052.9061	44669.15	43733.25
856.112	1054.8855	44539.3	43607.75
856.257	1056.8642	44432.15	43495.75
856.4021	1058.8421	44376.25	43436.5
856.5471	1060.8194	44264.25	43326.25
856.6921	1062.7959	44128.35	43192.6
856.8372	1064.7717	44085.75	43151.3
856.9822	1066.7469	43995.95	43058.5
857.1272	1068.7213	43977.15	43044.45
857.2723	1070.695	43804.45	42869.35
857.4173	1072.6679	43510.1	42574.4
857.5623	1074.6402	43570.05	42638.05
857.7073	1076.6117	43457.65	42516.55
857.8523	1078.5826	43349.35	42413.5
857.9973	1080.5527	43189.25	42254.85
858.1423	1082.5221	43113.15	42178.1
858.2873	1084.4908	43133.45	42198.1
858.4323	1086.4587	43114.4	42179.1
858.5773	1088.426	43167.85	42231.15
858.7223	1090.3925	42989.4	42051.7
858.8673	1092.3584	42994.25	42059.15
859.0123	1094.3235	42628.2	41695.9
859.1573	1096.2879	42523.75	41589.15
859.3022	1098.2515	42407.75	41474.15
859.4472	1100.2145	42374.9	41440.1
859.5922	1102.1767	42288.5	41352.9
859.7371	1104.1382	42294.3	41363.1
859.8821	1106.099	42376.55	41441.95
860.027	1108.0591	42417.95	41489.9
860.172	1110.0185	42344.4	41410.3
860.3169	1111.9771	42416.7	41485.75
860.4619	1113.9351	42071.1	41136.5
860.6068	1115.8923	41749	40816.7
860.7517	1117.8488	41378.65	40445.05
860.8967	1119.8045	40975.1	40040
861.0416	1121.7596	40814.1	39877.9
861.1865	1123.7139	40623.75	39693.3
861.3314	1125.6675	40567	39633.05
861.4763	1127.6204	40609.1	39678.6
861.6212	1129.5726	40407.7	39471.5
861.7661	1131.524	40373.7	39440.75
861.911	1133.4748	40312.65	39377.6
862.0559	1135.4248	40146.7	39214.05
862.2008	1137.3741	40012.2	39077.45
862.3457	1139.3226	39869.75	38934.85
862.4905	1141.2705	39834.25	38901.4
862.6354	1143.2176	39560	38619.85
862.7803	1145.164	39484.15	38549.3
862.9251	1147.1097	39388.9	38454.4
863.07	1149.0546	39284.9	38350.45
863.2148	1150.9989	39236.3	38302.1
863.3597	1152.9424	39068.8	38133.5
863.5045	1154.8852	38825.7	37892.9
863.6493	1156.8272	38667.9	37735.4
863.7942	1158.7686	38617.9	37677.3
863.939	1160.7092	38441.8	37508
864.0838	1162.6491	38235.35	37298.8
864.2286	1164.5883	38340.5	37406.85
864.3734	1166.5267	38263	37329.2
864.5182	1168.4644	38297.4	37368.3
864.663	1170.4014	38370.55	37436.15
864.8078	1172.3377	38588.2	37657.05
864.9526	1174.2732	38643.9	37715.75
865.0974	1176.2081	38825.3	37898.15
865.2421	1178.1421	38954.65	38021.25
865.3869	1180.0755	39105.65	38173.95
865.5317	1182.0082	39021.45	38090.15
