Software Version:	3.9.2.0
Unit SN:	10000200
Spectrometer SN:	6960
Date:	3/26/2024 2:40:25 PM
Data Line Index:	25
Spectral Points:	2048
Integration time (ms):	125
Averages:	20
Delay (ms):	30000
Sequence Number:	1
Processing:	dark subtract
Laser Power (mW):	300
Laser Current (mA):	822
Laser Diode Temp (C):	25
Laser Case Temp (C):	27.9
System Temp (C):	28
Spectrometer Temp (C):	25.9
CCD Temp (C):	0.005
Secondary Temp (C):	20.003
Heatsink Temp (C):	23.447
CCDPCB Temp (C):	37.241
SecondaryPCB Temp (C):	34.695

Wavelength	RamanShift	Raw Counts	Dark Subtracted
787.061	30.1047	642.7	233.15
787.2016	32.3739	651.1	244.35
787.3422	34.6426	672.4	263.95
787.4828	36.9109	691.9	280.85
787.6235	39.1787	709.5	294.1
787.7642	41.4461	731.8	312.1
787.9049	43.7131	758.8	334.95
788.0456	45.9796	781.2	353.55
788.1863	48.2456	803.7	372.45
788.3271	50.5112	837.8	402.55
788.4679	52.7764	862.4	426.2
788.6087	55.0411	891	448.65
788.7496	57.3054	922.2	474.25
788.8904	59.5692	956.65	506.55
789.0313	61.8326	996.55	543.2
789.1722	64.0955	1033.75	574.15
789.3132	66.3579	1090	629.05
789.4541	68.6199	1132.3	667.95
789.5951	70.8815	1229.6	761
789.7361	73.1426	1425.45	953.3
789.8771	75.4032	1955.25	1477.1
790.0181	77.6634	3237.5	2752.7
790.1592	79.9231	6457.25	5964.9
790.3003	82.1824	13827.9	13315.9
790.4414	84.4412	30920.9	30376.95
790.5825	86.6995	58671.2	58077.9
790.7237	88.9574	65535	64897.15
790.8648	91.2148	65535	64867.7
791.006	93.4717	65535	64847.7
791.1472	95.7282	65535	64838.95
791.2885	97.9842	65535	64837.1
791.4297	100.2398	65535	64833.85
791.571	102.4949	65535	64833.2
791.7123	104.7495	65535	64824.25
791.8536	107.0036	65535	64829.05
791.9949	109.2573	65535	64829.1
792.1363	111.5105	65535	64825.1
792.2777	113.7632	65535	64822.85
792.4191	116.0154	65535	64813.95
792.5605	118.2672	65535	64815.75
792.7019	120.5185	65535	64816.35
792.8434	122.7693	65535	64818.65
792.9849	125.0197	65535	64813.9
793.1264	127.2696	65535	64805.5
793.2679	129.519	65535	64804.55
793.4094	131.7679	65535	64799.9
793.551	134.0163	65535	64799.05
793.6926	136.2642	65535	64794.35
793.8342	138.5117	65535	64789.6
793.9758	140.7587	65535	64793
794.1175	143.0052	65535	64790.3
794.2591	145.2512	65535	64784.95
794.4008	147.4967	65535	64787.55
794.5425	149.7417	65535	64784.2
794.6842	151.9863	65535	64781.1
794.826	154.2304	65535	64777.9
794.9677	156.4739	65535	64774.75
795.1095	158.717	65535	64777.9
795.2513	160.9596	65535	64767.05
795.3931	163.2017	65535	64771.6
795.535	165.4433	65535	64763.5
795.6768	167.6844	65535	64766.8
795.8187	169.925	65535	64768.75
795.9606	172.1651	65535	64760.6
796.1025	174.4047	65535	64762.8
796.2445	176.6439	65535	64757.35
796.3864	178.8825	65535	64753.35
796.5284	181.1206	65535	64751.6
796.6704	183.3582	65535	64744.8
796.8124	185.5954	65535	64741.7
796.9544	187.832	65535	64744.4
797.0965	190.0681	65535	64735.2
797.2386	192.3037	65535	64736.1
797.3806	194.5388	65535	64731.85
797.5228	196.7734	65535	64727.4
797.6649	199.0075	65535	64724.65
797.807	201.2411	65535	64716.9
797.9492	203.4742	65535	64724.6
798.0914	205.7068	65535	64716.75
798.2336	207.9389	65535	64720.4
798.3758	210.1704	65535	64713.6
798.518	212.4015	65535	64711.35
798.6603	214.632	65535	64715.5
798.8025	216.862	65535	64721.9
798.9448	219.0915	65535	64733.1
799.0871	221.3205	65535	64727.35
799.2294	223.549	65535	64740.55
799.3718	225.777	65535	64735.05
799.5141	228.0044	65535	64735.2
799.6565	230.2314	65535	64737.05
799.7989	232.4578	65535	64742.1
799.9413	234.6837	65535	64726.45
800.0837	236.909	65535	64729
800.2262	239.1339	65535	64701.05
800.3687	241.3582	65535	64720.3
800.5111	243.582	65535	64686.2
800.6536	245.8053	65535	64700.9
800.7961	248.0281	65535	64707.55
800.9387	250.2503	65535	64694.4
801.0812	252.472	65535	64694.5
801.2238	254.6932	65535	64691.9
801.3664	256.9139	65535	64693.45
801.509	259.134	65535	64688.4
801.6516	261.3536	65535	64685.55
801.7942	263.5727	65535	64684.2
801.9369	265.7912	65535	64688.7
802.0795	268.0092	65535	64688.3
802.2222	270.2267	65535	64686.8
802.3649	272.4436	65535	64686.4
802.5076	274.6601	65535	64678.65
802.6504	276.8759	65535	64682.8
802.7931	279.0913	65535	64682.25
802.9359	281.3061	65535	64673.9
803.0787	283.5204	65535	64673.05
803.2215	285.7341	65535	64672.7
803.3643	287.9473	65535	64662.4
803.5071	290.16	65535	64666.8
803.6499	292.3721	65535	64674.95
803.7928	294.5837	65535	64671.25
803.9357	296.7947	65535	64673.1
804.0786	299.0052	65535	64673
804.2215	301.2152	65535	64670.4
804.3644	303.4246	65535	64676.2
804.5074	305.6334	65535	64677.15
804.6503	307.8418	65535	64672.4
804.7933	310.0495	65535	64663.35
804.9363	312.2568	65535	64672.3
805.0793	314.4635	65535	64663.7
805.2223	316.6696	65535	64667.05
805.3653	318.8752	65535	64653.05
805.5084	321.0802	65535	64668.55
805.6514	323.2847	65535	64653.35
805.7945	325.4887	65535	64663.9
805.9376	327.692	65535	64663.35
806.0807	329.8949	65535	64658.6
806.2238	332.0972	65535	64660.95
806.367	334.2989	65535	64656.25
806.5101	336.5001	65535	64654.05
806.6533	338.7007	65535	64653.55
806.7965	340.9008	65535	64654.75
806.9397	343.1003	65535	64655.65
807.0829	345.2992	65535	64650.55
807.2261	347.4976	65535	64651.15
807.3693	349.6955	65535	64645.2
807.5126	351.8927	65535	64646.25
807.6559	354.0895	65535	64637.85
807.7991	356.2856	65535	64643.6
807.9424	358.4812	65535	64647.85
808.0857	360.6763	65535	64644.7
808.2291	362.8707	65535	64643.05
808.3724	365.0646	65535	64643.65
808.5158	367.258	65535	64640.1
808.6591	369.4508	65535	64634.35
808.8025	371.643	65535	64633.8
808.9459	373.8346	65535	64635.1
809.0893	376.0257	65535	64630.05
809.2327	378.2162	65535	64635.5
809.3762	380.4062	65535	64629.45
809.5196	382.5956	65535	64626.75
809.6631	384.7844	65535	64630.1
809.8066	386.9726	65535	64633
809.9501	389.1603	65535	64629.85
810.0936	391.3474	65535	64589.3
810.2371	393.5339	65535	64631.2
810.3806	395.7199	65535	64637.8
810.5241	397.9052	65535	64634.95
810.6677	400.09	65535	64638.5
810.8113	402.2743	65535	64641.6
810.9548	404.4579	65535	64644.95
811.0984	406.641	65535	64643.9
811.2421	408.8235	65535	64644.4
811.3857	411.0054	65535	64643.6
811.5293	413.1868	65535	64640.75
811.673	415.3675	65535	64637.8
811.8166	417.5477	65535	64636.65
811.9603	419.7273	65535	64638.35
812.104	421.9064	65535	64631.9
812.2477	424.0848	65535	64630.2
812.3914	426.2627	65535	64624.85
812.5351	428.4399	65535	64625.6
812.6788	430.6166	65535	64622.4
812.8226	432.7928	65535	64620.9
812.9663	434.9683	65535	64626.1
813.1101	437.1432	65535	64627.5
813.2539	439.3176	65535	64633.4
813.3977	441.4914	65535	64635.9
813.5415	443.6645	65535	64626.7
813.6853	445.8371	65535	64628.8
813.8291	448.0091	65535	64629.65
813.973	450.1806	65535	64628.2
814.1168	452.3514	65535	64633.15
814.2607	454.5216	65535	64621.2
814.4046	456.6913	65535	64624.55
814.5485	458.8603	65535	64627.1
814.6924	461.0288	65535	64628.35
814.8363	463.1967	65535	64634.35
814.9802	465.3639	65535	64627.6
815.1241	467.5306	65535	64626.6
815.2681	469.6967	65535	64630.4
815.412	471.8622	65535	64630.85
815.556	474.0271	65535	64629.75
815.7	476.1914	65535	64627.5
815.844	478.3551	65535	64625.7
815.988	480.5182	65535	64628.2
816.132	482.6807	65535	64635.65
816.276	484.8426	65535	64638.4
816.4201	487.0039	65535	64635.05
816.5641	489.1647	65535	64622.4
816.7082	491.3248	65535	64623.95
816.8522	493.4843	65535	64628.95
816.9963	495.6432	65535	64626.95
817.1404	497.8015	65535	64619.35
817.2845	499.9592	65535	64612.3
817.4286	502.1163	65535	64617.35
817.5727	504.2728	65535	64622.65
817.7168	506.4287	65535	64631.55
817.861	508.5839	65535	64629.9
818.0051	510.7386	65535	64629.1
818.1493	512.8927	65535	64614.1
818.2935	515.0461	65535	64621.05
818.4377	517.199	65535	64613.5
818.5818	519.3512	65535	64613.85
818.726	521.5029	65535	64614.95
818.8703	523.6539	65535	64618.25
819.0145	525.8043	65535	64613.1
819.1587	527.9541	65535	64618.15
819.303	530.1033	65535	64615.55
819.4472	532.2519	65535	64612.95
819.5915	534.3999	65535	64613.45
819.7357	536.5472	65535	64615.65
819.88	538.694	65535	64617.7
820.0243	540.8401	65535	64614
820.1686	542.9856	65535	64603.9
820.3129	545.1305	65535	64599.65
820.4572	547.2748	65535	64595.25
820.6016	549.4185	65535	64595.55
820.7459	551.5615	65535	64598.4
820.8902	553.704	65535	64603.3
821.0346	555.8458	65535	64605.25
821.1789	557.987	65535	64607.1
821.3233	560.1276	65535	64607.5
821.4677	562.2675	65535	64600.1
821.6121	564.4069	65535	64604.2
821.7565	566.5456	65535	64608.45
821.9009	568.6837	65535	64610.8
822.0453	570.8212	65535	64610.7
822.1897	572.958	65535	64607.75
822.3342	575.0942	65535	64610.35
822.4786	577.2299	65535	64617.15
822.6231	579.3648	65535	64625.15
822.7675	581.4992	65535	64634.9
822.912	583.6329	65535	64635.8
823.0565	585.766	65535	64630.6
823.201	587.8985	65535	64623.85
823.3454	590.0304	65535	64593.8
823.4899	592.1616	65535	64613.8
823.6345	594.2922	65535	64607.25
823.779	596.4222	65535	64602.7
823.9235	598.5515	65535	64599.75
824.068	600.6802	65535	64602.3
824.2126	602.8083	65535	64607.3
824.3571	604.9358	65535	64606.6
824.5017	607.0626	65535	64603.75
824.6462	609.1888	65535	64596.9
824.7908	611.3144	65535	64596.15
824.9354	613.4393	65535	64598.05
825.08	615.5636	65535	64597.4
825.2246	617.6873	65535	64597.05
825.3692	619.8103	65535	64598.1
825.5138	621.9327	65535	64603.35
825.6584	624.0544	65535	64608.2
825.803	626.1756	65535	64609.25
825.9477	628.2961	65535	64604.05
826.0923	630.4159	65535	64602.05
826.237	632.5351	65535	64599.65
826.3816	634.6537	65535	64596.8
826.5263	636.7716	65535	64593.45
826.6709	638.8889	65535	64591.65
826.8156	641.0056	65535	64592.2
826.9603	643.1216	65535	64594.4
827.105	645.237	65535	64597.35
827.2497	647.3518	65535	64601.15
827.3944	649.4659	65535	64605.55
827.5391	651.5793	65535	64604.05
827.6838	653.6922	65535	64603.3
827.8285	655.8043	65535	64600.8
827.9733	657.9159	65535	64601.25
828.118	660.0268	65535	64595.95
828.2627	662.137	65535	64603.4
828.4075	664.2466	65535	64592.6
828.5522	666.3556	65535	64593.4
828.697	668.4639	65535	64601.45
828.8418	670.5716	65535	64604.05
828.9865	672.6786	65535	64599.7
829.1313	674.785	65535	64594.55
829.2761	676.8907	65535	64602.65
829.4209	678.9958	65535	64602.8
829.5657	681.1002	65535	64599.35
829.7105	683.204	65535	64589.65
829.8553	685.3072	65535	64589.1
830.0001	687.4097	65535	64595.75
830.1449	689.5115	65535	64591.95
830.2898	691.6127	65535	64597.85
830.4346	693.7132	65535	64601.25
830.5794	695.8131	65535	64581.85
830.7243	697.9123	65535	64587.9
830.8691	700.0109	65535	64588.85
831.014	702.1089	65535	64589.6
831.1588	704.2061	65535	64592.4
831.3037	706.3028	65535	64588.35
831.4486	708.3987	65535	64593.85
831.5935	710.4941	65535	64595
831.7383	712.5887	65535	64595.35
831.8832	714.6827	65535	64595.7
832.0281	716.7761	65535	64597.25
832.173	718.8688	65535	64593.6
832.3179	720.9608	65535	64587.2
832.4628	723.0522	65535	64583.2
832.6077	725.1429	65535	64587.55
832.7527	727.233	65535	64589.6
832.8976	729.3224	65535	64590.05
833.0425	731.4112	65535	64592.8
833.1874	733.4993	65535	64589.35
833.3324	735.5867	65535	64587.85
833.4773	737.6735	65535	64591.3
833.6222	739.7596	65534.35	64588.55
833.7672	741.845	65531.65	64587.7
833.9122	743.9298	65535	64591
834.0571	746.014	65531.7	64585.2
834.2021	748.0974	65524	64573.65
834.347	750.1802	65535	64585.85
834.492	752.2624	65521.4	64571
834.637	754.3439	65523.5	64571.05
834.782	756.4247	65529.4	64570.7
834.9269	758.5048	65519.65	64572.3
835.0719	760.5843	65524.3	64572.15
835.2169	762.6631	65530.05	64579
835.3619	764.7413	65526.8	64579.85
835.5069	766.8188	65531.05	64582.45
835.6519	768.8956	65535	64584.95
835.7969	770.9718	65535	64585.4
835.9419	773.0473	65535	64588
836.0869	775.1221	65519.3	64573.6
836.232	777.1962	65519.1	64572.75
836.377	779.2697	65457.3	64507.25
836.522	781.3426	65513.05	64546.1
836.667	783.4147	65522.3	64567.7
836.8121	785.4862	65525.65	64575.8
836.9571	787.557	65471.95	64524.35
837.1021	789.6271	65516.2	64563.1
837.2472	791.6966	65461.85	64512.95
837.3922	793.7654	65281.25	64327.85
837.5373	795.8335	65300.95	64351.4
837.6823	797.901	65347.85	64398.45
837.8274	799.9678	65247.55	64292.2
837.9724	802.0339	65188.85	64236.8
838.1175	804.0993	65223	64260.85
838.2626	806.1641	65140.15	64185.9
838.4076	808.2282	65077.1	64125.65
838.5527	810.2916	64975.8	64027.7
838.6978	812.3544	65190.3	64245.7
838.8428	814.4164	64838.15	63888.1
838.9879	816.4778	64836.65	63881.7
839.133	818.5385	64872.05	63914.7
839.2781	820.5986	64827.65	63874.55
839.4232	822.658	64853.5	63899.1
839.5682	824.7166	64893.75	63945.75
839.7133	826.7747	64547.45	63595.6
839.8584	828.832	64663.55	63711.45
840.0035	830.8886	64910.35	63956.45
840.1486	832.9446	64938.15	63985.6
840.2937	834.9999	64343.95	63392.9
840.4388	837.0545	64680.2	63720.4
840.5839	839.1085	64896.55	63944.95
840.729	841.1618	64762.95	63804.65
840.8741	843.2143	64347.55	63396.2
841.0192	845.2662	64315.5	63362.2
841.1643	847.3175	64479.3	63527.55
841.3095	849.368	63764.15	62812.25
841.4546	851.4179	64344	63394.6
841.5997	853.467	63832.9	62882.4
841.7448	855.5155	64049.1	63093.9
841.8899	857.5633	63560.15	62609.4
842.0351	859.6105	63335.15	62384.5
842.1802	861.6569	63657.15	62703.6
842.3253	863.7027	62962.05	62007.9
842.4704	865.7478	63190.2	62233.45
842.6156	867.7922	63064.05	62108.55
842.7607	869.8359	63406.2	62451.85
842.9058	871.8789	62642.6	61687.8
843.0509	873.9212	63192.15	62206.15
843.1961	875.9629	63305.95	62348.7
843.3412	878.0039	63203.85	62247.85
843.4863	880.0441	62928.45	61975.8
843.6315	882.0837	62884.15	61934.65
843.7766	884.1226	62798.7	61845.1
843.9218	886.1609	62622.6	61675.1
844.0669	888.1984	62207.9	61251.8
844.212	890.2352	62690.7	61736.25
844.3572	892.2714	61910.4	60949.65
844.5023	894.3069	62247.05	61293.35
844.6475	896.3416	61837.85	60884.05
844.7926	898.3757	61734.45	60778.9
844.9377	900.4091	60750.25	59793.85
845.0829	902.4418	61987.65	61026.55
845.228	904.4739	61200.9	60242.4
845.3732	906.5052	61356.65	60401.3
845.5183	908.5358	60860	59901.8
845.6635	910.5658	60513.5	59555.45
845.8086	912.595	60462.7	59505.05
845.9538	914.6236	59590.4	58637.85
846.0989	916.6515	60907.85	59953.85
846.2441	918.6786	59432	58474.1
846.3892	920.7051	59781.5	58821.85
846.5344	922.7309	59616.6	58662.6
846.6795	924.756	59837.85	58883.85
846.8246	926.7804	59418.25	58461.15
846.9698	928.8041	58626.55	57666.45
847.1149	930.8272	59184.2	58227.3
847.2601	932.8495	59163	58201.9
847.4052	934.8711	58417.1	57461.2
847.5504	936.892	57970.4	57015.3
847.6955	938.9123	58058.75	57096.6
847.8407	940.9318	57569.3	56616.4
847.9858	942.9506	57366.2	56409.2
848.131	944.9688	57425.6	56469.1
848.2761	946.9862	56502.15	55544.75
848.4213	949.003	56729.3	55772.05
848.5664	951.019	55906.75	54950.4
848.7115	953.0344	56065.8	55108.2
848.8567	955.0491	55990.3	55031.3
849.0018	957.063	56224.75	55272.35
849.147	959.0763	56257.7	55295.7
849.2921	961.0888	55840.05	54880.7
849.4373	963.1007	56143.85	55189.05
849.5824	965.1119	56102.9	55156.7
849.7275	967.1223	55733.75	54792.8
849.8727	969.1321	56036.05	55095.9
850.0178	971.1412	55498.8	54552.45
850.1629	973.1495	55222.1	54266.2
850.3081	975.1572	55406.75	54419.85
850.4532	977.1641	55272.1	54317.05
850.5983	979.1704	54970.4	54014.6
850.7435	981.1759	55005.05	54047.3
850.8886	983.1808	54719.85	53765.9
851.0337	985.1849	54714	53750.45
851.1788	987.1884	54834.65	53878.65
851.324	989.1911	55184.6	54231.3
851.4691	991.1932	54546.65	53590.85
851.6142	993.1945	54692.9	53744.2
851.7593	995.1951	54617.25	53664.05
851.9045	997.1951	54236.85	53274.05
852.0496	999.1943	53922.8	52974.4
852.1947	1001.1928	53708.8	52755.85
852.3398	1003.1906	53606.25	52654.55
852.4849	1005.1877	53209.4	52255.7
852.63	1007.1841	52905.35	51952.85
852.7751	1009.1798	52753.95	51799.55
852.9202	1011.1748	52419	51464.05
853.0653	1013.1691	52086.55	51132.65
853.2104	1015.1627	51398.85	50444.55
853.3555	1017.1556	51079.6	50126.6
853.5006	1019.1477	51023.1	50073.5
853.6457	1021.1392	50552.7	49608.6
853.7908	1023.1299	50222.65	49279.6
853.9359	1025.12	50112.1	49171.7
854.081	1027.1093	49890.25	48960.4
854.2261	1029.0979	49817.9	48892.45
854.3712	1031.0859	49724.5	48791.65
854.5163	1033.0731	49429.3	48487.2
854.6613	1035.0596	49267	48324.05
854.8064	1037.0454	48912.45	47963.9
854.9515	1039.0304	48646.7	47697.8
855.0965	1041.0148	48281.3	47330.3
855.2416	1042.9985	48053.25	47104.3
855.3867	1044.9814	47929.95	46981.15
855.5317	1046.9636	47637.3	46686.2
855.6768	1048.9452	47482.25	46535.15
855.8219	1050.926	47447.1	46498.6
855.9669	1052.9061	47257	46306.5
856.112	1054.8855	47113.45	46163.65
856.257	1056.8642	46971.2	46020.2
856.4021	1058.8421	46899.6	45944.55
856.5471	1060.8194	46781.55	45829.4
856.6921	1062.7959	46631.45	45680.2
856.8372	1064.7717	46538.7	45587.55
856.9822	1066.7469	46390.15	45438.8
857.1272	1068.7213	46224	45270.5
857.2723	1070.695	46147.65	45197.75
857.4173	1072.6679	45745.25	44795.6
857.5623	1074.6402	45669.9	44718.25
857.7073	1076.6117	45559.45	44603.5
857.8523	1078.5826	45467.4	44518.1
857.9973	1080.5527	45382.9	44431.55
858.1423	1082.5221	45374.65	44425.2
858.2873	1084.4908	45487.15	44539.1
858.4323	1086.4587	45585.65	44636.2
858.5773	1088.426	45690.6	44739.55
858.7223	1090.3925	45458.15	44504.7
858.8673	1092.3584	45262.15	44311.6
859.0123	1094.3235	44821.95	43873.25
859.1573	1096.2879	44661.5	43711.4
859.3022	1098.2515	44513.15	43560.45
859.4472	1100.2145	44455.9	43507.3
859.5922	1102.1767	44324.6	43372.15
859.7371	1104.1382	44325.4	43375.9
859.8821	1106.099	44388.65	43438.5
860.027	1108.0591	44383.35	43435.55
860.172	1110.0185	44403.45	43453.95
860.3169	1111.9771	44386.75	43439.75
860.4619	1113.9351	43931.2	42978.6
860.6068	1115.8923	43468.8	42516.9
860.7517	1117.8488	43028.35	42076.4
860.8967	1119.8045	42454.2	41505.45
861.0416	1121.7596	42241.5	41291.3
861.1865	1123.7139	42026.7	41079.55
861.3314	1125.6675	41900.35	40953.25
861.4763	1127.6204	42045.65	41099.75
861.6212	1129.5726	41872.75	40926.85
861.7661	1131.524	41802.05	40854
861.911	1133.4748	41786.95	40832.65
862.0559	1135.4248	41674.95	40726.8
862.2008	1137.3741	41604.85	40658.6
862.3457	1139.3226	41464.95	40516.95
862.4905	1141.2705	41358.75	40412.65
862.6354	1143.2176	41074.45	40124.1
862.7803	1145.164	40990.05	40037.5
862.9251	1147.1097	40964.7	40017.7
863.07	1149.0546	40921.05	39970.9
863.2148	1150.9989	40744.3	39793.5
863.3597	1152.9424	40531.55	39582.8
863.5045	1154.8852	40197.3	39251.45
863.6493	1156.8272	39948.6	38998.45
863.7942	1158.7686	39894.35	38937.2
863.939	1160.7092	39628.9	38681.4
864.0838	1162.6491	39446.15	38496.4
864.2286	1164.5883	39493.4	38546.8
864.3734	1166.5267	39425.4	38479.75
864.5182	1168.4644	39434.95	38487.7
864.663	1170.4014	39547.1	38600.4
864.8078	1172.3377	39740.6	38793.75
864.9526	1174.2732	39839.7	38897.25
865.0974	1176.2081	40010.2	39061.75
865.2421	1178.1421	40024.85	39076.15
865.3869	1180.0755	40138.3	39194.75
865.5317	1182.0082	39895.9	38950.95
865.6764	1183.9401	39835.7	38893.3
865.8212	1185.8713	39479.45	38539.75
865.9659	1187.8017	39173.2	38239
866.1106	1189.7315	38829.75	37901.8
866.2554	1191.6605	38327.4	37397.9
866.4001	1193.5888	37983.45	37050.1
866.5448	1195.5163	37826.6	36890.7
866.6895	1197.4432	37593.85	36651.25
866.8342	1199.3693	37471	36527.05
866.9789	1201.2947	37224.05	36274
867.1236	1203.2193	37057.4	36113.55
867.2683	1205.1432	36980.55	36034.65
867.413	1207.0664	36971.55	36028.65
867.5576	1208.9889	36892.45	35945.15
867.7023	1210.9106	36810.45	35868.4
867.847	1212.8316	36768.2	35826.35
867.9916	1214.7519	36744.4	35792.95
868.1363	1216.6715	36637.6	35692.6
868.2809	1218.5903	36531.45	35585.05
