Software Version:	3.9.2.0
Unit SN:	10000200
Spectrometer SN:	6960
Date:	3/26/2024 2:51:28 PM
Data Line Index:	25
Spectral Points:	2048
Integration time (ms):	125
Averages:	20
Delay (ms):	30000
Sequence Number:	1
Processing:	dark subtract
Laser Power (mW):	295
Laser Current (mA):	819
Laser Diode Temp (C):	25.1
Laser Case Temp (C):	28
System Temp (C):	28.1
Spectrometer Temp (C):	25.9
CCD Temp (C):	0.01
Secondary Temp (C):	20.007
Heatsink Temp (C):	23.646
CCDPCB Temp (C):	37.274
SecondaryPCB Temp (C):	34.906

Wavelength	RamanShift	Raw Counts	Dark Subtracted
787.061	30.1047	631.3	223.1
787.2016	32.3739	636.45	229
787.3422	34.6426	649.55	241.6
787.4828	36.9109	668.35	257.5
787.6235	39.1787	682.5	269.2
787.7642	41.4461	704.85	286.25
787.9049	43.7131	724.7	302.5
788.0456	45.9796	749.3	324.3
788.1863	48.2456	778.7	349.9
788.3271	50.5112	801.3	369.5
788.4679	52.7764	828.6	393.2
788.6087	55.0411	854.05	414.3
788.7496	57.3054	886.3	439.2
788.8904	59.5692	913	464.35
789.0313	61.8326	947.6	493.35
789.1722	64.0955	991.05	533.95
789.3132	66.3579	1033.5	570.95
789.4541	68.6199	1091.45	626.4
789.5951	70.8815	1180.35	712.65
789.7361	73.1426	1374.65	904.2
789.8771	75.4032	1842.1	1364.05
790.0181	77.6634	3051.05	2565.4
790.1592	79.9231	6032.6	5538.85
790.3003	82.1824	12873	12360.8
790.4414	84.4412	27612.1	27066.1
790.5825	86.6995	54201.25	53608.9
790.7237	88.9574	65348.85	64715.7
790.8648	91.2148	65535	64869.95
791.006	93.4717	65535	64852.15
791.1472	95.7282	65535	64840.65
791.2885	97.9842	65535	64836.8
791.4297	100.2398	65535	64833.9
791.571	102.4949	65535	64830.5
791.7123	104.7495	65535	64830.75
791.8536	107.0036	65535	64826.7
791.9949	109.2573	65535	64829.2
792.1363	111.5105	65535	64831.05
792.2777	113.7632	65535	64821.4
792.4191	116.0154	65535	64815.4
792.5605	118.2672	65535	64815.8
792.7019	120.5185	65535	64816.2
792.8434	122.7693	65535	64816.3
792.9849	125.0197	65535	64813.95
793.1264	127.2696	65535	64812.55
793.2679	129.519	65535	64803
793.4094	131.7679	65535	64797.85
793.551	134.0163	65535	64795.8
793.6926	136.2642	65535	64794.8
793.8342	138.5117	65535	64792.2
793.9758	140.7587	65535	64793.6
794.1175	143.0052	65535	64789.75
794.2591	145.2512	65535	64787.45
794.4008	147.4967	65535	64788.3
794.5425	149.7417	65535	64789.4
794.6842	151.9863	65535	64780.2
794.826	154.2304	65535	64781.7
794.9677	156.4739	65535	64780.25
795.1095	158.717	65535	64774.15
795.2513	160.9596	65535	64766
795.3931	163.2017	65535	64769.9
795.535	165.4433	65535	64767.25
795.6768	167.6844	65535	64766.75
795.8187	169.925	65535	64767.15
795.9606	172.1651	65535	64761.25
796.1025	174.4047	65535	64756.35
796.2445	176.6439	65535	64758.15
796.3864	178.8825	65535	64754.45
796.5284	181.1206	65535	64749.3
796.6704	183.3582	65535	64746.1
796.8124	185.5954	65535	64743.4
796.9544	187.832	65535	64741.8
797.0965	190.0681	65535	64733.25
797.2386	192.3037	65535	64734.35
797.3806	194.5388	65535	64733.95
797.5228	196.7734	65535	64728.7
797.6649	199.0075	65535	64726.65
797.807	201.2411	65535	64723.35
797.9492	203.4742	65535	64721.45
798.0914	205.7068	65535	64721.5
798.2336	207.9389	65535	64718.4
798.3758	210.1704	65535	64716.9
798.518	212.4015	65535	64715.05
798.6603	214.632	65535	64716.05
798.8025	216.862	65535	64723.3
798.9448	219.0915	65535	64731.95
799.0871	221.3205	65535	64731.25
799.2294	223.549	65535	64741.05
799.3718	225.777	65535	64739.15
799.5141	228.0044	65535	64734.3
799.6565	230.2314	65535	64735.95
799.7989	232.4578	65535	64734.4
799.9413	234.6837	65535	64729.6
800.0837	236.909	65535	64724.1
800.2262	239.1339	65535	64701.2
800.3687	241.3582	65535	64712.4
800.5111	243.582	65535	64679.45
800.6536	245.8053	65535	64695.9
800.7961	248.0281	65535	64706.2
800.9387	250.2503	65535	64703.3
801.0812	252.472	65535	64692.55
801.2238	254.6932	65535	64693.7
801.3664	256.9139	65535	64687.45
801.509	259.134	65535	64685.8
801.6516	261.3536	65535	64691
801.7942	263.5727	65535	64682.5
801.9369	265.7912	65535	64686.85
802.0795	268.0092	65535	64688.55
802.2222	270.2267	65535	64685.45
802.3649	272.4436	65535	64688.95
802.5076	274.6601	65535	64678.9
802.6504	276.8759	65535	64689.6
802.7931	279.0913	65535	64684.75
802.9359	281.3061	65535	64677.3
803.0787	283.5204	65535	64679.15
803.2215	285.7341	65535	64675.85
803.3643	287.9473	65535	64662.6
803.5071	290.16	65535	64665.7
803.6499	292.3721	65535	64675.2
803.7928	294.5837	65535	64672.65
803.9357	296.7947	65535	64671.9
804.0786	299.0052	65535	64675.2
804.2215	301.2152	65535	64668.4
804.3644	303.4246	65535	64670.95
804.5074	305.6334	65535	64677.5
804.6503	307.8418	65535	64674.1
804.7933	310.0495	65535	64671.55
804.9363	312.2568	65535	64669.55
805.0793	314.4635	65535	64666.45
805.2223	316.6696	65535	64662.1
805.3653	318.8752	65535	64658.85
805.5084	321.0802	65535	64665.6
805.6514	323.2847	65535	64660.9
805.7945	325.4887	65535	64659.3
805.9376	327.692	65535	64663.85
806.0807	329.8949	65535	64666.7
806.2238	332.0972	65535	64659.6
806.367	334.2989	65535	64652.95
806.5101	336.5001	65535	64657
806.6533	338.7007	65535	64655.6
806.7965	340.9008	65535	64656.35
806.9397	343.1003	65535	64654.75
807.0829	345.2992	65535	64652.15
807.2261	347.4976	65535	64649.8
807.3693	349.6955	65535	64647.4
807.5126	351.8927	65535	64645.05
807.6559	354.0895	65535	64635.9
807.7991	356.2856	65535	64646.65
807.9424	358.4812	65535	64647.9
808.0857	360.6763	65535	64645.9
808.2291	362.8707	65535	64642.5
808.3724	365.0646	65535	64642.65
808.5158	367.258	65535	64641.2
808.6591	369.4508	65535	64637.05
808.8025	371.643	65535	64635.8
808.9459	373.8346	65535	64638.75
809.0893	376.0257	65535	64634.6
809.2327	378.2162	65535	64635.5
809.3762	380.4062	65535	64633.45
809.5196	382.5956	65535	64633.35
809.6631	384.7844	65535	64633.05
809.8066	386.9726	65535	64627.85
809.9501	389.1603	65535	64635.3
810.0936	391.3474	65535	64590.05
810.2371	393.5339	65535	64627.8
810.3806	395.7199	65535	64639.65
810.5241	397.9052	65535	64639.7
810.6677	400.09	65535	64640.8
810.8113	402.2743	65535	64639
810.9548	404.4579	65535	64643.65
811.0984	406.641	65535	64643.25
811.2421	408.8235	65535	64640
811.3857	411.0054	65535	64644.2
811.5293	413.1868	65535	64636.55
811.673	415.3675	65535	64635.25
811.8166	417.5477	65535	64637.35
811.9603	419.7273	65535	64632.05
812.104	421.9064	65535	64626.5
812.2477	424.0848	65535	64632.1
812.3914	426.2627	65535	64630.25
812.5351	428.4399	65535	64633.85
812.6788	430.6166	65535	64625.2
812.8226	432.7928	65535	64622.3
812.9663	434.9683	65535	64628.85
813.1101	437.1432	65535	64628.2
813.2539	439.3176	65535	64631.7
813.3977	441.4914	65535	64634.85
813.5415	443.6645	65535	64628
813.6853	445.8371	65535	64624.9
813.8291	448.0091	65535	64627
813.973	450.1806	65535	64629.95
814.1168	452.3514	65535	64628.5
814.2607	454.5216	65535	64619.75
814.4046	456.6913	65535	64630.05
814.5485	458.8603	65535	64629
814.6924	461.0288	65535	64630.05
814.8363	463.1967	65535	64632.15
814.9802	465.3639	65535	64628.1
815.1241	467.5306	65535	64628.15
815.2681	469.6967	65535	64630.9
815.412	471.8622	65535	64631.75
815.556	474.0271	65535	64627.5
815.7	476.1914	65535	64624.95
815.844	478.3551	65535	64626.85
815.988	480.5182	65535	64625.05
816.132	482.6807	65535	64634.3
816.276	484.8426	65535	64641.6
816.4201	487.0039	65535	64634.75
816.5641	489.1647	65535	64626.95
816.7082	491.3248	65535	64626.35
816.8522	493.4843	65535	64630.95
816.9963	495.6432	65535	64629.4
817.1404	497.8015	65535	64621.4
817.2845	499.9592	65535	64615.55
817.4286	502.1163	65535	64616
817.5727	504.2728	65535	64628.9
817.7168	506.4287	65535	64633.65
817.861	508.5839	65535	64633.7
818.0051	510.7386	65535	64627.6
818.1493	512.8927	65535	64618.2
818.2935	515.0461	65535	64617.85
818.4377	517.199	65535	64617.15
818.5818	519.3512	65535	64618.8
818.726	521.5029	65535	64617.2
818.8703	523.6539	65535	64619
819.0145	525.8043	65535	64618.55
819.1587	527.9541	65535	64612
819.303	530.1033	65535	64618.9
819.4472	532.2519	65535	64619.3
819.5915	534.3999	65535	64616.1
819.7357	536.5472	65535	64623.15
819.88	538.694	65535	64623.6
820.0243	540.8401	65535	64615.3
820.1686	542.9856	65535	64603.8
820.3129	545.1305	65535	64599.95
820.4572	547.2748	65535	64604.15
820.6016	549.4185	65535	64599
820.7459	551.5615	65535	64603.65
820.8902	553.704	65535	64604.55
821.0346	555.8458	65535	64606.15
821.1789	557.987	65535	64609.5
821.3233	560.1276	65535	64607
821.4677	562.2675	65535	64607.95
821.6121	564.4069	65535	64605.25
821.7565	566.5456	65535	64610.85
821.9009	568.6837	65535	64611.45
822.0453	570.8212	65535	64613.3
822.1897	572.958	65535	64613.15
822.3342	575.0942	65535	64613.5
822.4786	577.2299	65535	64617.45
822.6231	579.3648	65535	64628.35
822.7675	581.4992	65535	64632.85
822.912	583.6329	65535	64634.05
823.0565	585.766	65535	64628.9
823.201	587.8985	65535	64624
823.3454	590.0304	65535	64605.85
823.4899	592.1616	65535	64610.2
823.6345	594.2922	65535	64607.05
823.779	596.4222	65535	64604.3
823.9235	598.5515	65535	64601.85
824.068	600.6802	65535	64604.75
824.2126	602.8083	65535	64607.05
824.3571	604.9358	65535	64604.25
824.5017	607.0626	65535	64601.85
824.6462	609.1888	65535	64598.4
824.7908	611.3144	65535	64596.2
824.9354	613.4393	65535	64599.75
825.08	615.5636	65535	64599
825.2246	617.6873	65535	64603.2
825.3692	619.8103	65535	64601.25
825.5138	621.9327	65535	64605.3
825.6584	624.0544	65535	64607.75
825.803	626.1756	65535	64607.5
825.9477	628.2961	65535	64602.45
826.0923	630.4159	65535	64602.4
826.237	632.5351	65534.5	64599.25
826.3816	634.6537	65535	64598.4
826.5263	636.7716	65531.4	64591.15
826.6709	638.8889	65535	64598.35
826.8156	641.0056	65535	64593.45
826.9603	643.1216	65535	64598.15
827.105	645.237	65535	64597.2
827.2497	647.3518	65531.95	64605.35
827.3944	649.4659	65535	64613.7
827.5391	651.5793	65535	64608.35
827.6838	653.6922	65535	64608.05
827.8285	655.8043	65507.05	64575.65
827.9733	657.9159	65535	64601.8
828.118	660.0268	65402.9	64470.85
828.2627	662.137	65529.95	64596.15
828.4075	664.2466	65528.9	64586.65
828.5522	666.3556	65501.85	64564.45
828.697	668.4639	65532.55	64594.7
828.8418	670.5716	65495.2	64566.05
828.9865	672.6786	65526.6	64590.3
829.1313	674.785	65494.35	64556.5
829.2761	676.8907	65500.55	64571.4
829.4209	678.9958	65526.5	64596.7
829.5657	681.1002	65527.35	64594.05
829.7105	683.204	65489	64543.4
829.8553	685.3072	65406.4	64467.3
830.0001	687.4097	65462.8	64521.75
830.1449	689.5115	65386.95	64450.9
830.2898	691.6127	65496.55	64562.05
830.4346	693.7132	65397.4	64462.5
830.5794	695.8131	65389.4	64434.6
830.7243	697.9123	65426.3	64480.1
830.8691	700.0109	65428.1	64481.55
831.014	702.1089	65251.3	64311.95
831.1588	704.2061	65303	64361.8
831.3037	706.3028	65316.2	64374.15
831.4486	708.3987	65366.7	64424.05
831.5935	710.4941	65297.8	64356.85
831.7383	712.5887	65427.5	64489.25
831.8832	714.6827	65350.5	64412.85
832.0281	716.7761	65478	64542.9
832.173	718.8688	65497.7	64557.4
832.3179	720.9608	65419.2	64472.05
832.4628	723.0522	65388.25	64442.5
832.6077	725.1429	65257.3	64314.35
832.7527	727.233	65493.1	64554.7
832.8976	729.3224	64864.85	63923.05
833.0425	731.4112	65136.3	64192.05
833.1874	733.4993	65123.75	64178.7
833.3324	735.5867	65124.3	64188.45
833.4773	737.6735	64930.3	63987.25
833.6222	739.7596	64708.3	63764.75
833.7672	741.845	64673.35	63731.35
833.9122	743.9298	65047.5	64102.3
834.0571	746.014	64632.5	63690.25
834.2021	748.0974	64291.95	63341.25
834.347	750.1802	64957.7	64007
834.492	752.2624	64175.9	63228.35
834.637	754.3439	64292.4	63344.4
834.782	756.4247	64486.6	63531.55
834.9269	758.5048	64135.15	63189.05
835.0719	760.5843	64290.4	63343.35
835.2169	762.6631	64524.2	63579.05
835.3619	764.7413	64430.5	63486.35
835.5069	766.8188	64574.8	63630.3
835.6519	768.8956	64940.8	63990.6
835.7969	770.9718	64884.05	63940.25
835.9419	773.0473	64720.45	63775.9
836.0869	775.1221	64127.2	63180.05
836.232	777.1962	64043.35	63097.5
836.377	779.2697	63349.1	62401.65
836.522	781.3426	63840.6	62882.1
836.667	783.4147	64133.45	63185.1
836.8121	785.4862	64148.95	63199.95
836.9571	787.557	63540.3	62595.05
837.1021	789.6271	64013.1	63061.65
837.2472	791.6966	63303.25	62357.95
837.3922	793.7654	62400.35	61453.3
837.5373	795.8335	62369.1	61421.1
837.6823	797.901	62577.1	61630.5
837.8274	799.9678	62122.7	61171.45
837.9724	802.0339	61987.05	61040
838.1175	804.0993	62112.6	61153.25
838.2626	806.1641	61799.65	60848.65
838.4076	808.2282	61591.85	60643.7
838.5527	810.2916	61294.9	60346.75
838.6978	812.3544	61766.95	60823.1
838.8428	814.4164	60784.05	59836.7
838.9879	816.4778	60866.3	59915.8
839.133	818.5385	60926	59974.3
839.2781	820.5986	60785	59833.4
839.4232	822.658	60866.2	59915.6
839.5682	824.7166	60856.65	59907
839.7133	826.7747	60038.5	59084.85
839.8584	828.832	60453.45	59504.2
840.0035	830.8886	60887.8	59935.9
840.1486	832.9446	60917.1	59965.4
840.2937	834.9999	59591.75	58643.95
840.4388	837.0545	60373.3	59418.85
840.5839	839.1085	60741.5	59791.1
840.729	841.1618	60472.55	59520.6
840.8741	843.2143	59558.4	58605.6
841.0192	845.2662	59522.65	58570.85
841.1643	847.3175	59802.35	58854.45
841.3095	849.368	58700.55	57750.55
841.4546	851.4179	59443.2	58494.65
841.5997	853.467	58643.95	57692.95
841.7448	855.5155	58809.9	57860.1
841.8899	857.5633	58176.7	57223.65
842.0351	859.6105	57792.9	56840.55
842.1802	861.6569	58044.25	57091.95
842.3253	863.7027	57311.25	56361.55
842.4704	865.7478	57497.95	56545.4
842.6156	867.7922	57330.35	56379.7
842.7607	869.8359	57726.55	56773.4
842.9058	871.8789	56965.85	56016.5
843.0509	873.9212	57518.35	56535.5
843.1961	875.9629	57552.1	56599.7
843.3412	878.0039	57583.5	56633.5
843.4863	880.0441	57302.35	56352.8
843.6315	882.0837	57201.3	56251.05
843.7766	884.1226	57040.65	56091.35
843.9218	886.1609	56863.1	55912.15
844.0669	888.1984	56467.55	55516.95
844.212	890.2352	56795.85	55845.35
844.3572	892.2714	56056.5	55104
844.5023	894.3069	56242.65	55288.9
844.6475	896.3416	55953.1	54999.3
844.7926	898.3757	55841.05	54889.5
844.9377	900.4091	55221.95	54264.95
845.0829	902.4418	55803.15	54841.45
845.228	904.4739	55226.05	54269.5
845.3732	906.5052	55375.3	54418.75
845.5183	908.5358	54973.9	54022.15
845.6635	910.5658	54586.8	53634.45
845.8086	912.595	54460.4	53504.85
845.9538	914.6236	53893.9	52940.75
846.0989	916.6515	54538.75	53582.35
846.2441	918.6786	53589.25	52634.6
846.3892	920.7051	53846.05	52890.95
846.5344	922.7309	53803.05	52848.8
846.6795	924.756	53860.3	52907.35
846.8246	926.7804	53601.75	52646.8
846.9698	928.8041	53098	52140.95
847.1149	930.8272	53299.9	52346.1
847.2601	932.8495	53103.95	52150.55
847.4052	934.8711	52637.05	51685.95
847.5504	936.892	52330.95	51375.4
847.6955	938.9123	52185.4	51230
847.8407	940.9318	51814.25	50860.15
847.9858	942.9506	51498.95	50545.25
848.131	944.9688	51403.5	50453.2
848.2761	946.9862	50904.85	49955.65
848.4213	949.003	50832.45	49880.1
848.5664	951.019	50483.8	49529.2
848.7115	953.0344	50479.6	49525.2
848.8567	955.0491	50353.5	49400.7
849.0018	957.063	50474.55	49520.45
849.147	959.0763	50537.55	49576.55
849.2921	961.0888	50336.2	49380.05
849.4373	963.1007	50428.05	49478.95
849.5824	965.1119	50293.2	49348.55
849.7275	967.1223	50157.95	49219.8
849.8727	969.1321	50207.15	49265.35
850.0178	971.1412	49977.3	49033.05
850.1629	973.1495	49805.3	48857.45
850.3081	975.1572	49898.95	48904.8
850.4532	977.1641	49737.95	48786.65
850.5983	979.1704	49536.8	48585.7
850.7435	981.1759	49438.3	48480.05
850.8886	983.1808	49374.1	48419.6
851.0337	985.1849	49324.55	48363.45
851.1788	987.1884	49360.15	48405.35
851.324	989.1911	49501.85	48549.5
851.4691	991.1932	49455.55	48504.95
851.6142	993.1945	49348.3	48401.15
851.7593	995.1951	49095.5	48140.45
851.9045	997.1951	48909.1	47951.85
852.0496	999.1943	48656.15	47703.4
852.1947	1001.1928	48402.3	47450.2
852.3398	1003.1906	48227.3	47275.95
852.4849	1005.1877	48108.2	47154.8
852.63	1007.1841	47841.75	46891.4
852.7751	1009.1798	47537.05	46587.5
852.9202	1011.1748	47103.7	46151.55
853.0653	1013.1691	46781.05	45829.95
853.2104	1015.1627	46369.65	45418.6
853.3555	1017.1556	45928.35	44976.7
853.5006	1019.1477	45776.1	44827.2
853.6457	1021.1392	45419.85	44476.4
853.7908	1023.1299	45284.35	44345
853.9359	1025.12	45091.25	44153.55
854.081	1027.1093	44925.1	44000.5
854.2261	1029.0979	44810.1	43887.1
854.3712	1031.0859	44717.75	43788.3
854.5163	1033.0731	44515.55	43581.1
854.6613	1035.0596	44319.25	43377
854.8064	1037.0454	43985.75	43040.4
854.9515	1039.0304	43698.7	42752.75
855.0965	1041.0148	43444.45	42497.75
855.2416	1042.9985	43258.1	42310.75
855.3867	1044.9814	43203	42253.6
855.5317	1046.9636	42930.3	41981.15
855.6768	1048.9452	42761.35	41816.05
855.8219	1050.926	42669	41722.45
855.9669	1052.9061	42485.55	41536.9
856.112	1054.8855	42364.95	41417.95
856.257	1056.8642	42286	41341.2
856.4021	1058.8421	42216.4	41266.75
856.5471	1060.8194	42127.25	41178.25
856.6921	1062.7959	42060.7	41112.85
856.8372	1064.7717	41892	40939.7
856.9822	1066.7469	41808.85	40860.25
857.1272	1068.7213	41591.15	40639.05
857.2723	1070.695	41461.65	40515.25
857.4173	1072.6679	41196.45	40248.65
857.5623	1074.6402	41047.45	40100.55
857.7073	1076.6117	41022.3	40067.5
857.8523	1078.5826	40955.55	40004.8
857.9973	1080.5527	40878.25	39929.75
858.1423	1082.5221	40893.35	39943.9
858.2873	1084.4908	40996.9	40048.95
858.4323	1086.4587	41149.7	40205.6
858.5773	1088.426	41316	40369.5
858.7223	1090.3925	41060	40104.2
858.8673	1092.3584	40957.4	40009.35
859.0123	1094.3235	40479.75	39533.25
859.1573	1096.2879	40276.55	39325.6
859.3022	1098.2515	40135.6	39191.1
859.4472	1100.2145	40058.25	39111.7
859.5922	1102.1767	39978.9	39030.95
859.7371	1104.1382	40037.55	39090.4
859.8821	1106.099	40129.9	39180.2
860.027	1108.0591	40164.35	39215.8
860.172	1110.0185	40213.2	39264.2
860.3169	1111.9771	40125.5	39178.95
860.4619	1113.9351	39726.1	38778.45
860.6068	1115.8923	39280.55	38335.1
860.7517	1117.8488	38780.2	37831.4
860.8967	1119.8045	38337.6	37394.15
861.0416	1121.7596	38093.9	37148.35
861.1865	1123.7139	37970.05	37025.35
861.3314	1125.6675	37849.1	36905.15
861.4763	1127.6204	37921	36972.9
861.6212	1129.5726	37832.1	36883.4
861.7661	1131.524	37769.85	36822.45
861.911	1133.4748	37730.6	36782.7
862.0559	1135.4248	37612.4	36663.85
862.2008	1137.3741	37592.9	36650.4
862.3457	1139.3226	37425.95	36478.4
862.4905	1141.2705	37391.65	36444.5
862.6354	1143.2176	37140.3	36190
862.7803	1145.164	37066.1	36114.95
862.9251	1147.1097	36981.5	36033.8
863.07	1149.0546	36982.65	36036.85
863.2148	1150.9989	36805.5	35860.9
863.3597	1152.9424	36588.05	35642.8
863.5045	1154.8852	36302.35	35356.6
863.6493	1156.8272	36111.05	35164.8
863.7942	1158.7686	36008.35	35056.55
863.939	1160.7092	35770.8	34823.9
864.0838	1162.6491	35614.15	34667.9
864.2286	1164.5883	35631.15	34687.25
864.3734	1166.5267	35604.55	34658.55
864.5182	1168.4644	35708.9	34763.5
864.663	1170.4014	35735.1	34788.85
864.8078	1172.3377	35980.1	35037.85
864.9526	1174.2732	36060.2	35117.4
865.0974	1176.2081	36250.6	35305.05
865.2421	1178.1421	36235.8	35290
865.3869	1180.0755	36297.55	35354.8
865.5317	1182.0082	36132.6	35189.05
865.6764	1183.9401	36035.05	35090.95
865.8212	1185.8713	35757.55	34818.9
865.9659	1187.8017	35414.5	34482.2
866.1106	1189.7315	35102.55	34177.3
866.2554	1191.6605	34659.95	33736.7
866.4001	1193.5888	34326.55	33393.7
866.5448	1195.5163	34172	33235.25
866.6895	1197.4432	33962.65	33021.8
866.8342	1199.3693	33821.75	32881.45
866.9789	1201.2947	33596.5	32647.1
867.1236	1203.2193	33489.15	32546.35
867.2683	1205.1432	33451.25	32508.05
867.413	1207.0664	33381.45	32440.35
867.5576	1208.9889	33349.6	32404.55
867.7023	1210.9106	33267.85	32325.85
867.847	1212.8316	33292.95	32353.1
867.9916	1214.7519	33313.85	32364.7
