Software Version:	3.9.2.0
Unit SN:	10000200
Spectrometer SN:	6960
Date:	3/26/2024 1:14:52 PM
Data Line Index:	25
Spectral Points:	2048
Integration time (ms):	125
Averages:	20
Delay (ms):	30000
Sequence Number:	1
Processing:	dark subtract
Laser Power (mW):	305
Laser Current (mA):	818
Laser Diode Temp (C):	25
Laser Case Temp (C):	26.4
System Temp (C):	26.3
Spectrometer Temp (C):	24
CCD Temp (C):	0.004
Secondary Temp (C):	20.01
Heatsink Temp (C):	21.912
CCDPCB Temp (C):	36.351
SecondaryPCB Temp (C):	32.072

Wavelength	RamanShift	Raw Counts	Dark Subtracted
787.061	30.1047	426.6	15.5
787.2016	32.3739	426	15.7
787.3422	34.6426	427	15.1
787.4828	36.9109	431.1	19.5
787.6235	39.1787	434.75	16.15
787.7642	41.4461	440.6	16.55
787.9049	43.7131	445.95	20.15
788.0456	45.9796	449.4	21.45
788.1863	48.2456	455.45	23.6
788.3271	50.5112	462.2	25.45
788.4679	52.7764	463.45	25.45
788.6087	55.0411	470.85	29.55
788.7496	57.3054	475.95	28.8
788.8904	59.5692	480.15	32
789.0313	61.8326	487.5	34.8
789.1722	64.0955	491.25	35.95
789.3132	66.3579	504.15	42.75
789.4541	68.6199	507.45	44.05
789.5951	70.8815	520.45	54.4
789.7361	73.1426	546.5	78.65
789.8771	75.4032	599.6	125.85
790.0181	77.6634	726.05	247.25
790.1592	79.9231	1027.5	544.95
790.3003	82.1824	1664.2	1178.65
790.4414	84.4412	2734.2	2242.2
790.5825	86.6995	4219.15	3722.5
790.7237	88.9574	5701.1	5198.5
790.8648	91.2148	6811.1	6305.5
791.006	93.4717	7398.8	6889.85
791.1472	95.7282	7674.5	7160.45
791.2885	97.9842	7754.4	7240.05
791.4297	100.2398	7776.75	7259.15
791.571	102.4949	7743.2	7221.7
791.7123	104.7495	7722.15	7195.9
791.8536	107.0036	7698.3	7169
791.9949	109.2573	7648.45	7123.9
792.1363	111.5105	7609.2	7081.8
792.2777	113.7632	7520.6	6990.85
792.4191	116.0154	7491.3	6950.65
792.5605	118.2672	7433.9	6900.1
792.7019	120.5185	7368	6834.2
792.8434	122.7693	7333.5	6796.45
792.9849	125.0197	7290	6748.8
793.1264	127.2696	7237.2	6695.55
793.2679	129.519	7208.6	6662.8
793.4094	131.7679	7222.75	6673.85
793.551	134.0163	7197.8	6647
793.6926	136.2642	7195.65	6639.65
793.8342	138.5117	7198.05	6633.5
793.9758	140.7587	7170.2	6608.05
794.1175	143.0052	7136.35	6571.3
794.2591	145.2512	7088.15	6523.8
794.4008	147.4967	7049.4	6483.2
794.5425	149.7417	7023.95	6458.35
794.6842	151.9863	7009.5	6438.05
794.826	154.2304	6981.95	6408.65
794.9677	156.4739	6948.8	6369.1
795.1095	158.717	6967.9	6387.6
795.2513	160.9596	6971.6	6384.85
795.3931	163.2017	6961.65	6373.25
795.535	165.4433	6968.4	6380.6
795.6768	167.6844	6943.3	6351.05
795.8187	169.925	6936.4	6341.95
795.9606	172.1651	6863.65	6264.4
796.1025	174.4047	6830.65	6230.9
796.2445	176.6439	6805.15	6200.7
796.3864	178.8825	6787.15	6181.85
796.5284	181.1206	6784.65	6174.45
796.6704	183.3582	6744.7	6130.05
796.8124	185.5954	6744.65	6130.35
796.9544	187.832	6738	6119.4
797.0965	190.0681	6744.45	6123.85
797.2386	192.3037	6743.35	6119.45
797.3806	194.5388	6745.35	6117.75
797.5228	196.7734	6749.65	6120.75
797.6649	199.0075	6769.65	6135.8
797.807	201.2411	6789.7	6154
797.9492	203.4742	6804.1	6167.65
798.0914	205.7068	6820	6183.45
798.2336	207.9389	6816.95	6179.45
798.3758	210.1704	6825.65	6184.25
798.518	212.4015	6825	6179.45
798.6603	214.632	6824.9	6181.65
798.8025	216.862	6815.1	6181.5
798.9448	219.0915	6791.15	6164
799.0871	221.3205	6798.7	6173.6
799.2294	223.549	6805.05	6181.7
799.3718	225.777	6814.95	6190.95
799.5141	228.0044	6795.3	6169.2
799.6565	230.2314	6787.9	6163.45
799.7989	232.4578	6771.7	6144.65
799.9413	234.6837	6761.25	6125.55
800.0837	236.909	6758.85	6123.3
800.2262	239.1339	6743.85	6084.15
800.3687	241.3582	6743.1	6096.5
800.5111	243.582	6747	6069.55
800.6536	245.8053	6750.45	6086.05
800.7961	248.0281	6737	6076.05
800.9387	250.2503	6731.75	6067.65
801.0812	252.472	6720.3	6048.6
801.2238	254.6932	6739.1	6066.9
801.3664	256.9139	6721.4	6045.35
801.509	259.134	6724.35	6048.1
801.6516	261.3536	6708.5	6032.6
801.7942	263.5727	6748.8	6068
801.9369	265.7912	6757.15	6080.85
802.0795	268.0092	6790.45	6114.45
802.2222	270.2267	6805.5	6126.85
802.3649	272.4436	6845.25	6162.5
802.5076	274.6601	6867.7	6178.65
802.6504	276.8759	6870.15	6188.15
802.7931	279.0913	6883.9	6198.7
802.9359	281.3061	6896.7	6206.4
803.0787	283.5204	6919.85	6227.1
803.2215	285.7341	6911.35	6220.5
803.3643	287.9473	6940.6	6236.8
803.5071	290.16	6919.1	6219.85
803.6499	292.3721	6888	6193.95
803.7928	294.5837	6863.1	6166.95
803.9357	296.7947	6797.8	6101.5
804.0786	299.0052	6814.95	6117.75
804.2215	301.2152	6772.05	6069.85
804.3644	303.4246	6785.15	6087.4
804.5074	305.6334	6735.6	6037.35
804.6503	307.8418	6713.25	6012.9
804.7933	310.0495	6706.7	6005.2
804.9363	312.2568	6669.4	5969.2
805.0793	314.4635	6598.55	5894.45
805.2223	316.6696	6581.85	5877.25
805.3653	318.8752	6540.7	5827.4
805.5084	321.0802	6506.95	5802.6
805.6514	323.2847	6508.1	5800.25
805.7945	325.4887	6479.65	5771.4
805.9376	327.692	6482.05	5773.5
806.0807	329.8949	6502.6	5791.15
806.2238	332.0972	6516.5	5804.15
806.367	334.2989	6545.15	5830.6
806.5101	336.5001	6519.4	5801.65
806.6533	338.7007	6514.55	5798
806.7965	340.9008	6488.6	5768.05
806.9397	343.1003	6433.95	5714.5
807.0829	345.2992	6412.4	5690.8
807.2261	347.4976	6371.5	5647.3
807.3693	349.6955	6338.55	5611.75
807.5126	351.8927	6342.1	5611.8
807.6559	354.0895	6316.05	5574.95
807.7991	356.2856	6302.15	5574.25
807.9424	358.4812	6261.7	5531.4
808.0857	360.6763	6283.65	5550.55
808.2291	362.8707	6241.65	5508.7
808.3724	365.0646	6254.95	5517.3
808.5158	367.258	6262.55	5527
808.6591	369.4508	6241.95	5502.4
808.8025	371.643	6266.6	5527.15
808.9459	373.8346	6291.65	5548.85
809.0893	376.0257	6312.05	5563.85
809.2327	378.2162	6320.3	5573.15
809.3762	380.4062	6322.2	5573.1
809.5196	382.5956	6295.5	5544.7
809.6631	384.7844	6242.1	5492.1
809.8066	386.9726	6189.15	5435.65
809.9501	389.1603	6155.2	5404.4
810.0936	391.3474	6156.3	5374.35
810.2371	393.5339	6155.8	5403
810.3806	395.7199	6121.95	5376.25
810.5241	397.9052	6133.05	5389.65
810.6677	400.09	6121	5378.25
810.8113	402.2743	6165.3	5421.4
810.9548	404.4579	6171.95	5428.3
811.0984	406.641	6184.55	5441.55
811.2421	408.8235	6243.6	5497.25
811.3857	411.0054	6284.85	5538.5
811.5293	413.1868	6379.2	5627.1
811.673	415.3675	6460.95	5706.35
811.8166	417.5477	6489	5734.4
811.9603	419.7273	6409.85	5652.65
812.104	421.9064	6293.45	5530.95
812.2477	424.0848	6216.25	5456.65
812.3914	426.2627	6133.1	5372.05
812.5351	428.4399	6093.15	5331.1
812.6788	430.6166	6056.4	5288.45
812.8226	432.7928	5989.55	5218.9
812.9663	434.9683	5946.75	5179.1
813.1101	437.1432	5905.1	5134.45
813.2539	439.3176	5891.2	5120.7
813.3977	441.4914	5864.55	5093.8
813.5415	443.6645	5878.85	5105.75
813.6853	445.8371	5837.15	5062.9
813.8291	448.0091	5831.35	5058.75
813.973	450.1806	5814.95	5040.15
814.1168	452.3514	5799.05	5021.45
814.2607	454.5216	5796.6	5012.95
814.4046	456.6913	5764.05	4986.75
814.5485	458.8603	5772.15	4996.35
814.6924	461.0288	5787.75	5012.75
814.8363	463.1967	5770.2	4991.55
814.9802	465.3639	5787.6	5007.95
815.1241	467.5306	5761.15	4979.15
815.2681	469.6967	5742.95	4961.5
815.412	471.8622	5714.15	4934.95
815.556	474.0271	5716.95	4937.6
815.7	476.1914	5712.1	4926.75
815.844	478.3551	5697.25	4913.75
815.988	480.5182	5699.85	4915.6
816.132	482.6807	5702.6	4920.55
816.276	484.8426	5734.45	4949.85
816.4201	487.0039	5755.75	4971.1
816.5641	489.1647	5783.2	4996.65
816.7082	491.3248	5807.55	5022.05
816.8522	493.4843	5813.6	5027.95
816.9963	495.6432	5812.9	5026.85
817.1404	497.8015	5775.45	4983.05
817.2845	499.9592	5751.35	4962.65
817.4286	502.1163	5729.75	4938.95
817.5727	504.2728	5689.45	4896.4
817.7168	506.4287	5677	4887.45
817.861	508.5839	5645.05	4853.35
818.0051	510.7386	5641.05	4851.45
818.1493	512.8927	5640.55	4841.8
818.2935	515.0461	5634.15	4841.65
818.4377	517.199	5633.8	4841.8
818.5818	519.3512	5666.75	4872.35
818.726	521.5029	5708.1	4908.8
818.8703	523.6539	5753.4	4957
819.0145	525.8043	5747.4	4948.4
819.1587	527.9541	5728.75	4928.25
819.303	530.1033	5671.75	4873.55
819.4472	532.2519	5635.65	4836.85
819.5915	534.3999	5626.9	4826.3
819.7357	536.5472	5606.65	4805.95
819.88	538.694	5595.5	4793.7
820.0243	540.8401	5620.05	4817.55
820.1686	542.9856	5639.9	4837.8
820.3129	545.1305	5627.95	4825.85
820.4572	547.2748	5645.1	4842.8
820.6016	549.4185	5644.55	4837.6
820.7459	551.5615	5648.3	4843.35
820.8902	553.704	5642.9	4837.75
821.0346	555.8458	5643.15	4839.1
821.1789	557.987	5649.75	4843.95
821.3233	560.1276	5664.7	4856.5
821.4677	562.2675	5711.1	4905
821.6121	564.4069	5760.55	4954.7
821.7565	566.5456	5776.45	4968.2
821.9009	568.6837	5781.6	4975.3
822.0453	570.8212	5735	4929.7
822.1897	572.958	5680.5	4871.35
822.3342	575.0942	5633.25	4828.75
822.4786	577.2299	5600	4791.7
822.6231	579.3648	5575.4	4767.75
822.7675	581.4992	5529.3	4723.85
822.912	583.6329	5494.6	4686.45
823.0565	585.766	5535.75	4727.55
823.201	587.8985	5551.7	4742.5
823.3454	590.0304	5568.9	4746.5
823.4899	592.1616	5591.8	4778.1
823.6345	594.2922	5587.2	4775.45
823.779	596.4222	5563.55	4750.45
823.9235	598.5515	5510.4	4696.65
824.068	600.6802	5450.05	4635.95
824.2126	602.8083	5406.25	4591.55
824.3571	604.9358	5420	4604.35
824.5017	607.0626	5393.7	4575.65
824.6462	609.1888	5367.45	4551.05
824.7908	611.3144	5412.4	4594.2
824.9354	613.4393	5423.95	4607.5
825.08	615.5636	5460.25	4643.05
825.2246	617.6873	5474.8	4657.5
825.3692	619.8103	5504.7	4685.6
825.5138	621.9327	5506	4681.85
825.6584	624.0544	5497.85	4680.05
825.803	626.1756	5443.2	4624.7
825.9477	628.2961	5399.35	4577.85
826.0923	630.4159	5385.6	4564.75
826.237	632.5351	5382.55	4561.35
826.3816	634.6537	5380.6	4558.85
826.5263	636.7716	5347.45	4523.1
826.6709	638.8889	5357.65	4535
826.8156	641.0056	5367.75	4544.6
826.9603	643.1216	5370.55	4546.6
827.105	645.237	5365.6	4540
827.2497	647.3518	5349.95	4525.4
827.3944	649.4659	5344.95	4521.55
827.5391	651.5793	5311.2	4486.7
827.6838	653.6922	5293	4468.1
827.8285	655.8043	5291.85	4465.55
827.9733	657.9159	5283.5	4456.6
828.118	660.0268	5258.25	4429.3
828.2627	662.137	5264.65	4436.7
828.4075	664.2466	5258.1	4428.65
828.5522	666.3556	5251.3	4424.95
828.697	668.4639	5233.1	4400.95
828.8418	670.5716	5249.5	4422.1
828.9865	672.6786	5243.35	4412.85
829.1313	674.785	5238.4	4407.15
829.2761	676.8907	5200.45	4367.3
829.4209	678.9958	5198.55	4369.75
829.5657	681.1002	5198	4365.75
829.7105	683.204	5200.15	4364.55
829.8553	685.3072	5181.35	4349.75
830.0001	687.4097	5185.25	4353.1
830.1449	689.5115	5175.1	4338.85
830.2898	691.6127	5175.95	4345.35
830.4346	693.7132	5172.45	4338.85
830.5794	695.8131	5181.35	4339.1
830.7243	697.9123	5178.65	4341.7
830.8691	700.0109	5179.8	4343.85
831.014	702.1089	5172.15	4337.75
831.1588	704.2061	5176.55	4343.4
831.3037	706.3028	5199	4360.7
831.4486	708.3987	5208.8	4372.85
831.5935	710.4941	5186.35	4351.6
831.7383	712.5887	5212.75	4375.5
831.8832	714.6827	5231.05	4392.3
832.0281	716.7761	5179.55	4341.8
832.173	718.8688	5199.3	4362.6
832.3179	720.9608	5191.4	4349.8
832.4628	723.0522	5205.2	4363.85
832.6077	725.1429	5209.5	4371.35
832.7527	727.233	5223.3	4385.35
832.8976	729.3224	5268.65	4430.55
833.0425	731.4112	5299.5	4455.55
833.1874	733.4993	5296.65	4456
833.3324	735.5867	5276.1	4435.5
833.4773	737.6735	5229.6	4387.6
833.6222	739.7596	5185.8	4343.55
833.7672	741.845	5148.2	4305.55
833.9122	743.9298	5157.15	4314.25
834.0571	746.014	5148.3	4305.85
834.2021	748.0974	5170.7	4327.4
834.347	750.1802	5153.35	4308.25
834.492	752.2624	5150.8	4308.4
834.637	754.3439	5121.4	4276.1
834.782	756.4247	5079.65	4228.65
834.9269	758.5048	5078.35	4235.75
835.0719	760.5843	5072.2	4225.6
835.2169	762.6631	5080.65	4236.1
835.3619	764.7413	5098.6	4253.75
835.5069	766.8188	5147.15	4300.7
835.6519	768.8956	5172.25	4324.4
835.7969	770.9718	5236.4	4391.1
835.9419	773.0473	5199.7	4354.2
836.0869	775.1221	5181.55	4335.85
836.232	777.1962	5163.9	4317.85
836.377	779.2697	5189.6	4340.95
836.522	781.3426	5252.15	4385.6
836.667	783.4147	5277.85	4429.85
836.8121	785.4862	5274.85	4430.3
836.9571	787.557	5221.25	4373.75
837.1021	789.6271	5140.35	4291.45
837.2472	791.6966	5053.45	4204.2
837.3922	793.7654	4954.5	4105.9
837.5373	795.8335	4917.7	4070.55
837.6823	797.901	4881	4031.35
837.8274	799.9678	4860.5	4009.15
837.9724	802.0339	4861.7	4013.2
838.1175	804.0993	4856.3	3996.4
838.2626	806.1641	4849.35	3999.4
838.4076	808.2282	4820.25	3970.3
838.5527	810.2916	4825.25	3971.8
838.6978	812.3544	4799.9	3950.15
838.8428	814.4164	4789.05	3939.15
838.9879	816.4778	4796.95	3945.9
839.133	818.5385	4779.75	3927.4
839.2781	820.5986	4802.9	3951.4
839.4232	822.658	4835.6	3983
839.5682	824.7166	4856.55	4007.6
839.7133	826.7747	4923.5	4074.35
839.8584	828.832	4955	4102.95
840.0035	830.8886	5005.1	4151.2
840.1486	832.9446	5003.9	4151.4
840.2937	834.9999	4986.65	4132.05
840.4388	837.0545	4931.8	4074.8
840.5839	839.1085	4885.7	4031.55
840.729	841.1618	4810.55	3954.3
840.8741	843.2143	4769.5	3915.45
841.0192	845.2662	4725.8	3873.9
841.1643	847.3175	4707.4	3854.6
841.3095	849.368	4690.45	3835.05
841.4546	851.4179	4695.45	3842.2
841.5997	853.467	4666.85	3812.3
841.7448	855.5155	4683.2	3827.1
841.8899	857.5633	4688.2	3833.7
842.0351	859.6105	4647	3792.65
842.1802	861.6569	4650.1	3794.7
842.3253	863.7027	4628.95	3773.9
842.4704	865.7478	4612.7	3756.95
842.6156	867.7922	4593.35	3738.55
842.7607	869.8359	4596.7	3740.7
842.9058	871.8789	4597	3738.85
843.0509	873.9212	4608.65	3720.65
843.1961	875.9629	4565.55	3709
843.3412	878.0039	4581.4	3722.5
843.4863	880.0441	4577.45	3720.45
843.6315	882.0837	4590.2	3730.75
843.7766	884.1226	4575.75	3716.15
843.9218	886.1609	4603.75	3746.35
844.0669	888.1984	4646.85	3791.3
844.212	890.2352	4677.2	3818.95
844.3572	892.2714	4668.8	3808.95
844.5023	894.3069	4657.5	3799.35
844.6475	896.3416	4601.45	3743.25
844.7926	898.3757	4564.85	3705.85
844.9377	900.4091	4552.65	3692.7
845.0829	902.4418	4544.85	3679.85
845.228	904.4739	4535.75	3675.7
845.3732	906.5052	4534.95	3672.85
845.5183	908.5358	4528.75	3670.05
845.6635	910.5658	4519.75	3656.5
845.8086	912.595	4474.15	3611.25
845.9538	914.6236	4446.05	3586.65
846.0989	916.6515	4430.5	3569.95
846.2441	918.6786	4402.25	3540.25
846.3892	920.7051	4386.6	3523.6
846.5344	922.7309	4369.4	3509.3
846.6795	924.756	4357.4	3497.95
846.8246	926.7804	4356.8	3492.15
846.9698	928.8041	4345.7	3480.5
847.1149	930.8272	4361.85	3499.55
847.2601	932.8495	4347.85	3485.6
847.4052	934.8711	4339.8	3476.75
847.5504	936.892	4336.7	3475.3
847.6955	938.9123	4345.1	3482.15
847.8407	940.9318	4363.6	3501.15
847.9858	942.9506	4355.25	3490.1
848.131	944.9688	4344.15	3480.1
848.2761	946.9862	4318.75	3454.05
848.4213	949.003	4292.3	3428.45
848.5664	951.019	4271.7	3407.5
848.7115	953.0344	4243.85	3379.95
848.8567	955.0491	4212.1	3345.85
849.0018	957.063	4201.05	3337.3
849.147	959.0763	4210.25	3338.1
849.2921	961.0888	4193.3	3326.25
849.4373	963.1007	4198.15	3332.7
849.5824	965.1119	4194	3329.75
849.7275	967.1223	4160.2	3295.95
849.8727	969.1321	4139.25	3276.45
850.0178	971.1412	4129.65	3264.95
850.1629	973.1495	4118.75	3254.45
850.3081	975.1572	4140.5	3241.5
850.4532	977.1641	4117.7	3254.35
850.5983	979.1704	4090.8	3224.15
850.7435	981.1759	4076.6	3208.2
850.8886	983.1808	4083.75	3215.95
851.0337	985.1849	4068.5	3192.1
851.1788	987.1884	4053.4	3185.6
851.324	989.1911	4049.1	3180.1
851.4691	991.1932	4045.05	3178.7
851.6142	993.1945	4022.85	3156.75
851.7593	995.1951	4000.45	3134.05
851.9045	997.1951	4015.85	3141.2
852.0496	999.1943	3996.2	3131
852.1947	1001.1928	3987.8	3120.9
852.3398	1003.1906	3983.15	3115.95
852.4849	1005.1877	3965.55	3096.45
852.63	1007.1841	3974.2	3106.8
852.7751	1009.1798	3980.35	3111.45
852.9202	1011.1748	3979.85	3113.9
853.0653	1013.1691	3940.05	3071.15
853.2104	1015.1627	3914.5	3046.6
853.3555	1017.1556	3851.3	2984.2
853.5006	1019.1477	3848.8	2979.65
853.6457	1021.1392	3822.1	2954.8
853.7908	1023.1299	3803.95	2936.5
853.9359	1025.12	3786.45	2917.05
854.081	1027.1093	3777.35	2910.15
854.2261	1029.0979	3793.15	2926.25
854.3712	1031.0859	3786.75	2919.2
854.5163	1033.0731	3793.7	2926.85
854.6613	1035.0596	3782.3	2912.55
854.8064	1037.0454	3759.5	2890.7
854.9515	1039.0304	3738.35	2868.85
855.0965	1041.0148	3719.6	2851.35
855.2416	1042.9985	3684.35	2813.05
855.3867	1044.9814	3667.1	2798.5
855.5317	1046.9636	3653.95	2783.65
855.6768	1048.9452	3643	2773.8
855.8219	1050.926	3660.65	2791.1
855.9669	1052.9061	3635.25	2766.55
856.112	1054.8855	3672.45	2803.65
856.257	1056.8642	3643.4	2775.35
856.4021	1058.8421	3645.05	2770.85
856.5471	1060.8194	3624.3	2754.55
856.6921	1062.7959	3596.35	2725.7
856.8372	1064.7717	3581.3	2709.6
856.9822	1066.7469	3592.3	2721.6
857.1272	1068.7213	3584.95	2713.3
857.2723	1070.695	3601.9	2730.5
857.4173	1072.6679	3611.3	2739.6
857.5623	1074.6402	3608.55	2735.6
857.7073	1076.6117	3598.95	2722.8
857.8523	1078.5826	3591.7	2719.5
857.9973	1080.5527	3556.65	2682.15
858.1423	1082.5221	3539	2666.05
858.2873	1084.4908	3488.95	2619.35
858.4323	1086.4587	3482.7	2608.9
858.5773	1088.426	3451	2580.55
858.7223	1090.3925	3441.35	2562.9
858.8673	1092.3584	3444.15	2572.75
859.0123	1094.3235	3429.75	2560.45
859.1573	1096.2879	3439.35	2566.1
859.3022	1098.2515	3445.6	2574.1
859.4472	1100.2145	3462.3	2589.25
859.5922	1102.1767	3473.7	2601.55
859.7371	1104.1382	3484.55	2611.8
859.8821	1106.099	3519.85	2646.4
860.027	1108.0591	3537.55	2667.2
860.172	1110.0185	3558.8	2684.5
860.3169	1111.9771	3593.25	2721
860.4619	1113.9351	3605.95	2731.7
860.6068	1115.8923	3635.25	2762.7
860.7517	1117.8488	3670.35	2795.4
860.8967	1119.8045	3626.25	2753.65
861.0416	1121.7596	3559.8	2687.1
861.1865	1123.7139	3481.55	2608.05
861.3314	1125.6675	3427.25	2554.1
861.4763	1127.6204	3405	2530.95
861.6212	1129.5726	3410.45	2532.65
861.7661	1131.524	3409.5	2535.75
861.911	1133.4748	3402.7	2527.35
862.0559	1135.4248	3345.8	2470
862.2008	1137.3741	3298.8	2425.35
862.3457	1139.3226	3263	2387
862.4905	1141.2705	3263.8	2388.15
862.6354	1143.2176	3240.4	2359.5
862.7803	1145.164	3252.4	2375.7
862.9251	1147.1097	3238.6	2360.7
863.07	1149.0546	3240.25	2362.35
863.2148	1150.9989	3212.25	2338.6
863.3597	1152.9424	3189.25	2313.9
863.5045	1154.8852	3177.85	2302.9
863.6493	1156.8272	3161.9	2287.95
863.7942	1158.7686	3153.8	2272.5
863.939	1160.7092	3167.3	2292.15
864.0838	1162.6491	3145.15	2268.45
864.2286	1164.5883	3132.3	2255.9
864.3734	1166.5267	3146.3	2269.15
864.5182	1168.4644	3158.55	2282.35
864.663	1170.4014	3190.75	2310.2
864.8078	1172.3377	3180.4	2307.35
864.9526	1174.2732	3220	2345.6
865.0974	1176.2081	3280.35	2406.3
865.2421	1178.1421	3349.05	2469.85
865.3869	1180.0755	3436	2561.35
865.5317	1182.0082	3482.5	2606.25
865.6764	1183.9401	3485.9	2609.2
865.8212	1185.8713	3395.3	2522.6
865.9659	1187.8017	3322	2446.3
866.1106	1189.7315	3233.25	2357.85
866.2554	1191.6605	3159.5	2284.2
866.4001	1193.5888	3104.45	2227.75
866.5448	1195.5163	3089.95	2214.2
866.6895	1197.4432	3052.05	2174.7
866.8342	1199.3693	3026.15	2151.8
866.9789	1201.2947	3016.75	2135.85
867.1236	1203.2193	3006	2129.25
867.2683	1205.1432	2997.35	2121.6
867.413	1207.0664	2972.6	2095
867.5576	1208.9889	2972.6	2092.2
867.7023	1210.9106	2972.7	2095.5
867.847	1212.8316	2968.5	2092.6
867.9916	1214.7519	2956.7	2071.55
868.1363	1216.6715	2946.95	2072.1
868.2809	1218.5903	2959.95	2082.75
868.4255	1220.5084	2959.05	2081.75
868.5701	1222.4257	2971.2	2091.55
868.7148	1224.3424	2958.85	2084.6
868.8594	1226.2583	2984	2100.7
869.004	1228.1735	2990.15	2112.95
869.1486	1230.0879	2995.7	2117.9
869.2932	1232.0016	3029.6	2153.7
869.4377	1233.9146	3046.1	2168.25
869.5823	1235.8269	3059.35	2182.5
869.7269	1237.7384	3051.4	2173.9
869.8715	1239.6492	3028.3	2149.95
