Software Version:	3.9.2.0
Unit SN:	10000200
Spectrometer SN:	6960
Date:	3/26/2024 1:36:20 PM
Data Line Index:	25
Spectral Points:	2048
Integration time (ms):	125
Averages:	20
Delay (ms):	30000
Sequence Number:	1
Processing:	dark subtract
Laser Power (mW):	305
Laser Current (mA):	819
Laser Diode Temp (C):	25
Laser Case Temp (C):	27
System Temp (C):	27
Spectrometer Temp (C):	24.9
CCD Temp (C):	0.018
Secondary Temp (C):	20.008
Heatsink Temp (C):	22.619
CCDPCB Temp (C):	36.685
SecondaryPCB Temp (C):	33.995

Wavelength	RamanShift	Raw Counts	Dark Subtracted
787.061	30.1047	588.3	177.35
787.2016	32.3739	597.55	185.15
787.3422	34.6426	611.7	199.6
787.4828	36.9109	623.2	209.2
787.6235	39.1787	640.8	224.55
787.7642	41.4461	661.2	240.15
787.9049	43.7131	681.25	253.9
788.0456	45.9796	694.55	264.75
788.1863	48.2456	717.8	283.95
788.3271	50.5112	737.2	300.1
788.4679	52.7764	761	323.2
788.6087	55.0411	780.5	338.15
788.7496	57.3054	811.85	363.8
788.8904	59.5692	830.45	381.5
789.0313	61.8326	860.3	407.85
789.1722	64.0955	895.5	438.25
789.3132	66.3579	935	473.2
789.4541	68.6199	980.45	515.65
789.5951	70.8815	1051.95	584.6
789.7361	73.1426	1225.6	755.55
789.8771	75.4032	1658.85	1180.4
790.0181	77.6634	2730.15	2245.4
790.1592	79.9231	5395.3	4905.4
790.3003	82.1824	11379.35	10873.6
790.4414	84.4412	23203.95	22667.5
790.5825	86.6995	43845.3	43273.65
790.7237	88.9574	56612.25	56008.9
790.8648	91.2148	61908.9	61279
791.006	93.4717	62680.4	62037.95
791.1472	95.7282	62998.75	62346.6
791.2885	97.9842	63142	62478.4
791.4297	100.2398	63075.25	62413.6
791.571	102.4949	63034.45	62368.45
791.7123	104.7495	62955.5	62287.25
791.8536	107.0036	62809.3	62144.95
791.9949	109.2573	62912.35	62244.45
792.1363	111.5105	62756.8	62086.05
792.2777	113.7632	62718	62048.6
792.4191	116.0154	62774.45	62088.3
792.5605	118.2672	62850.9	62176.15
792.7019	120.5185	62865.65	62193.8
792.8434	122.7693	62829.4	62150.75
792.9849	125.0197	62594.1	61913.75
793.1264	127.2696	62968.65	62283.05
793.2679	129.519	62841.25	62150.05
793.4094	131.7679	63003.35	62312.65
793.551	134.0163	62611.6	61909.85
793.6926	136.2642	62733.5	62031.75
793.8342	138.5117	62946.75	62237.65
793.9758	140.7587	62811.45	62105.05
794.1175	143.0052	62782.05	62070.95
794.2591	145.2512	62543.6	61834.55
794.4008	147.4967	62784.85	62074
794.5425	149.7417	62689.65	61979.2
794.6842	151.9863	62662.5	61950.4
794.826	154.2304	62522.25	61801.75
794.9677	156.4739	62572.2	61849.05
795.1095	158.717	62767.5	62043.95
795.2513	160.9596	62595.55	61867.8
795.3931	163.2017	62346.55	61616.2
795.535	165.4433	62566.2	61837.45
795.6768	167.6844	62400.65	61669.2
795.8187	169.925	62512.15	61774.95
795.9606	172.1651	62302	61568.25
796.1025	174.4047	62386.45	61647.55
796.2445	176.6439	62319.7	61578.75
796.3864	178.8825	62193.15	61452.5
796.5284	181.1206	62471.05	61720.1
796.6704	183.3582	62373.9	61618.8
796.8124	185.5954	62264.75	61511.3
796.9544	187.832	62265.55	61511.1
797.0965	190.0681	62025.05	61267.95
797.2386	192.3037	62357.6	61593.95
797.3806	194.5388	62663	61894.1
797.5228	196.7734	61881.15	61110
797.6649	199.0075	62656.3	61881.3
797.807	201.2411	62372.2	61598.8
797.9492	203.4742	62732.3	61956.85
798.0914	205.7068	62641.05	61866.95
798.2336	207.9389	62631.15	61849.1
798.3758	210.1704	62589	61804.3
798.518	212.4015	62838.85	62054.55
798.6603	214.632	62558.05	61776
798.8025	216.862	62866.05	62093.5
798.9448	219.0915	62651	61883.7
799.0871	221.3205	62649	61880.9
799.2294	223.549	62910.45	62147.6
799.3718	225.777	62875.45	62115.3
799.5141	228.0044	63055.25	62293.45
799.6565	230.2314	62916.85	62157.65
799.7989	232.4578	62917.85	62157.35
799.9413	234.6837	62972.05	62202.05
800.0837	236.909	63426	62649.6
800.2262	239.1339	62742.7	61944.2
800.3687	241.3582	63017.6	62233.1
800.5111	243.582	63029.4	62211.2
800.6536	245.8053	63025.05	62224.25
800.7961	248.0281	63075.6	62277.25
800.9387	250.2503	63150.4	62347.15
801.0812	252.472	62919.6	62110.05
801.2238	254.6932	63083.8	62277.15
801.3664	256.9139	63002.45	62191.5
801.509	259.134	63447.4	62631.65
801.6516	261.3536	63008.85	62198.05
801.7942	263.5727	63227.1	62412.35
801.9369	265.7912	63100	62282.15
802.0795	268.0092	63184.2	62367.9
802.2222	270.2267	63271.35	62451.45
802.3649	272.4436	63065.5	62249.2
802.5076	274.6601	63260.2	62442.1
802.6504	276.8759	63349.95	62535.8
802.7931	279.0913	63180.05	62356.8
802.9359	281.3061	63266.2	62441.05
803.0787	283.5204	63214.95	62386.25
803.2215	285.7341	63184.55	62354.4
803.3643	287.9473	63397.45	62553.7
803.5071	290.16	63269.25	62437.55
803.6499	292.3721	63322.7	62493.1
803.7928	294.5837	63216.8	62382.45
803.9357	296.7947	63079.8	62249.65
804.0786	299.0052	63409.8	62578.4
804.2215	301.2152	63279.8	62447.5
804.3644	303.4246	63357.6	62527.1
804.5074	305.6334	63313.1	62483.9
804.6503	307.8418	63046.55	62213.45
804.7933	310.0495	63004.9	62171.4
804.9363	312.2568	62970.3	62136.85
805.0793	314.4635	62929.45	62095.55
805.2223	316.6696	63029.4	62188.2
805.3653	318.8752	63099.25	62253.55
805.5084	321.0802	62611.5	61773.05
805.6514	323.2847	62842.2	62001.8
805.7945	325.4887	62798.5	61955.35
805.9376	327.692	62727.65	61884.4
806.0807	329.8949	62821.3	61976.85
806.2238	332.0972	62690.8	61845
806.367	334.2989	62727.15	61876.3
806.5101	336.5001	62893.6	62038.3
806.6533	338.7007	62499.9	61647.8
806.7965	340.9008	62684.25	61835.75
806.9397	343.1003	62692.05	61833.95
807.0829	345.2992	62793.2	61940.7
807.2261	347.4976	62599.35	61744.85
807.3693	349.6955	62685.35	61828.65
807.5126	351.8927	62520.9	61656.8
807.6559	354.0895	62646.15	61773.05
807.7991	356.2856	62632.15	61767.9
807.9424	358.4812	62794	61933.65
808.0857	360.6763	62493.4	61630.1
808.2291	362.8707	62773.95	61910.6
808.3724	365.0646	62584.2	61718.85
808.5158	367.258	62582.65	61717.15
808.6591	369.4508	62418.5	61553.5
808.8025	371.643	62712.9	61844.5
808.9459	373.8346	62550.2	61673.95
809.0893	376.0257	62574.2	61698
809.2327	378.2162	62513.25	61638
809.3762	380.4062	62294.75	61420.55
809.5196	382.5956	62480.85	61608
809.6631	384.7844	62413.05	61541.25
809.8066	386.9726	62509.6	61633.4
809.9501	389.1603	62488.35	61611.8
810.0936	391.3474	62296.5	61377.55
810.2371	393.5339	62459.45	61580.55
810.3806	395.7199	62153.5	61284.15
810.5241	397.9052	62196.45	61326.6
810.6677	400.09	62290.75	61425.4
810.8113	402.2743	62457.3	61592.1
810.9548	404.4579	62228.3	61361.25
811.0984	406.641	62269.6	61400.3
811.2421	408.8235	62392.9	61527.65
811.3857	411.0054	62424.7	61557.6
811.5293	413.1868	62455.35	61583.5
811.673	415.3675	62347.8	61466.25
811.8166	417.5477	62385.35	61506.75
811.9603	419.7273	62403.95	61529.75
812.104	421.9064	62356	61472.15
812.2477	424.0848	62385.8	61508.65
812.3914	426.2627	62497.9	61613.55
812.5351	428.4399	62213.5	61332.2
812.6788	430.6166	61929.25	61039.85
812.8226	432.7928	62180.2	61289.35
812.9663	434.9683	61929.8	61044.65
813.1101	437.1432	61878.55	60994.05
813.2539	439.3176	62068.3	61188.55
813.3977	441.4914	61690.3	60809.85
813.5415	443.6645	61764.5	60879.1
813.6853	445.8371	61772.9	60886.75
813.8291	448.0091	61597.45	60712.25
813.973	450.1806	61476.3	60592.25
814.1168	452.3514	61577.95	60695
814.2607	454.5216	61292.15	60404.3
814.4046	456.6913	61569.4	60681.8
814.5485	458.8603	61624.9	60743.5
814.6924	461.0288	61258.65	60379.5
814.8363	463.1967	61617.8	60736.85
814.9802	465.3639	61551.4	60669.55
815.1241	467.5306	60888	60003.1
815.2681	469.6967	61315.45	60433.7
815.412	471.8622	61523.15	60638.35
815.556	474.0271	61296.85	60412.5
815.7	476.1914	61330.85	60441.3
815.844	478.3551	61356.05	60466.75
815.988	480.5182	61677.4	60790
816.132	482.6807	61207	60326.25
816.276	484.8426	61303.45	60425.45
816.4201	487.0039	61727.55	60845.25
816.5641	489.1647	61766.7	60882.3
816.7082	491.3248	61392.1	60503.65
816.8522	493.4843	61836.2	60951.6
816.9963	495.6432	61812.65	60928.25
817.1404	497.8015	61329.7	60436.55
817.2845	499.9592	61611	60710.25
817.4286	502.1163	61569.6	60671.85
817.5727	504.2728	61465.95	60575.8
817.7168	506.4287	61353.25	60470.35
817.861	508.5839	61029.1	60144.7
818.0051	510.7386	61183.15	60296
818.1493	512.8927	61259.8	60359.25
818.2935	515.0461	61136.9	60241
818.4377	517.199	61408.2	60511.8
818.5818	519.3512	61165.4	60263.9
818.726	521.5029	61215.35	60315.2
818.8703	523.6539	61305.25	60406.85
819.0145	525.8043	60876.15	59977
819.1587	527.9541	61251.9	60353.1
819.303	530.1033	61164.55	60267.5
819.4472	532.2519	60921.9	60022.7
819.5915	534.3999	61217.35	60314.1
819.7357	536.5472	61408.05	60510.55
819.88	538.694	60857.05	59962.1
820.0243	540.8401	61244.95	60342.2
820.1686	542.9856	61317.7	60408.05
820.3129	545.1305	61490.75	60574.95
820.4572	547.2748	61150	60230.65
820.6016	549.4185	61091.4	60169.6
820.7459	551.5615	61357.35	60437.85
820.8902	553.704	61219.6	60309.25
821.0346	555.8458	61022.75	60115.55
821.1789	557.987	61128.25	60219.25
821.3233	560.1276	61264.1	60353.8
821.4677	562.2675	61185.9	60275.45
821.6121	564.4069	61352	60441.1
821.7565	566.5456	61552.1	60644.4
821.9009	568.6837	61210.85	60301.05
822.0453	570.8212	61272.8	60364.95
822.1897	572.958	60626.05	59719.7
822.3342	575.0942	60976.5	60072.95
822.4786	577.2299	60541.65	59641.75
822.6231	579.3648	60418.75	59527.9
822.7675	581.4992	60341.25	59457.3
822.912	583.6329	60319.35	59433.45
823.0565	585.766	60360.15	59469.9
823.201	587.8985	60539.35	59642.85
823.3454	590.0304	59923.85	59004.45
823.4899	592.1616	60401.8	59490.9
823.6345	594.2922	60117.7	59207.45
823.779	596.4222	59689.25	58773.95
823.9235	598.5515	59736.5	58822.9
824.068	600.6802	59955.15	59043
824.2126	602.8083	59406.1	58490.9
824.3571	604.9358	59386.95	58472.05
824.5017	607.0626	59836.9	58921.05
824.6462	609.1888	59180.8	58258.55
824.7908	611.3144	59624.15	58703.2
824.9354	613.4393	59438.95	58514.35
825.08	615.5636	59154.6	58235.4
825.2246	617.6873	59463.6	58543.25
825.3692	619.8103	59005.35	58086.75
825.5138	621.9327	59473	58552.45
825.6584	624.0544	59426.55	58513.35
825.803	626.1756	59087	58177.85
825.9477	628.2961	59060.45	58144.3
826.0923	630.4159	58790.45	57871.8
826.237	632.5351	58629.75	57709.05
826.3816	634.6537	59417.8	58499.1
826.5263	636.7716	58543	57614.75
826.6709	638.8889	58789.7	57861.45
826.8156	641.0056	58751.9	57826.1
826.9603	643.1216	58842.4	57915.35
827.105	645.237	58971.9	58051.8
827.2497	647.3518	58513.4	57595.25
827.3944	649.4659	58631.3	57717.6
827.5391	651.5793	58652.2	57738.6
827.6838	653.6922	58725	57806.6
827.8285	655.8043	58098.35	57178.6
827.9733	657.9159	58924.8	58005.1
828.118	660.0268	57505.5	56586.1
828.2627	662.137	58349.7	57426.9
828.4075	664.2466	58409.35	57479.9
828.5522	666.3556	58068.2	57144.05
828.697	668.4639	58312.1	57390.95
828.8418	670.5716	57938.9	57019.9
828.9865	672.6786	58223.4	57301.5
829.1313	674.785	57697.05	56773.95
829.2761	676.8907	57776.2	56853.95
829.4209	678.9958	57967.65	57051.1
829.5657	681.1002	58074.8	57146.7
829.7105	683.204	57576.55	56647.25
829.8553	685.3072	57299.1	56371.1
830.0001	687.4097	57463.5	56536.15
830.1449	689.5115	57299.15	56372.7
830.2898	691.6127	57691.55	56767.75
830.4346	693.7132	57257.7	56338.35
830.5794	695.8131	57330.25	56398.35
830.7243	697.9123	57438.35	56507.25
830.8691	700.0109	57534.45	56602.8
831.014	702.1089	56980.4	56051.15
831.1588	704.2061	57186.2	56257.85
831.3037	706.3028	57230.9	56304.3
831.4486	708.3987	57272.35	56342.7
831.5935	710.4941	57019.15	56093
831.7383	712.5887	57378.75	56451.75
831.8832	714.6827	57110	56179.8
832.0281	716.7761	57447	56522.85
832.173	718.8688	57571.1	56643.65
832.3179	720.9608	57224.9	56291.85
832.4628	723.0522	57307.2	56366.4
832.6077	725.1429	56964.55	56027.65
832.7527	727.233	57969.1	57036.3
832.8976	729.3224	56538.35	55608.3
833.0425	731.4112	57001	56068.05
833.1874	733.4993	56937.5	56003.1
833.3324	735.5867	56858.45	55929.7
833.4773	737.6735	56446.2	55515.25
833.6222	739.7596	55998.45	55065.2
833.7672	741.845	55940.75	55006.45
833.9122	743.9298	56307.25	55373.65
834.0571	746.014	55823.15	54887.3
834.2021	748.0974	55489.7	54553.6
834.347	750.1802	56149.7	55213.75
834.492	752.2624	55260.65	54327.95
834.637	754.3439	55402.2	54465.4
834.782	756.4247	55625.95	54680.35
834.9269	758.5048	55282.1	54345.8
835.0719	760.5843	55542.9	54606.85
835.2169	762.6631	55801.85	54864.65
835.3619	764.7413	55921.35	54987
835.5069	766.8188	56227.2	55289.3
835.6519	768.8956	56648.6	55713.05
835.7969	770.9718	56693.25	55756.8
835.9419	773.0473	56483.9	55546.75
836.0869	775.1221	56010.6	55072
836.232	777.1962	55890.2	54956.45
836.377	779.2697	55390.7	54451.3
836.522	781.3426	55635.75	54683.85
836.667	783.4147	55759.05	54821.45
836.8121	785.4862	55662.8	54722.55
836.9571	787.557	55183.25	54242
837.1021	789.6271	55357.8	54413.3
837.2472	791.6966	54624.7	53683.4
837.3922	793.7654	53958.4	53022.5
837.5373	795.8335	53772.9	52835.35
837.6823	797.901	53744.45	52806.6
837.8274	799.9678	53466	52525.85
837.9724	802.0339	53338.15	52395.5
838.1175	804.0993	53338.5	52387.75
838.2626	806.1641	53102.4	52161.35
838.4076	808.2282	52966.1	52026.65
838.5527	810.2916	52867.65	51922.95
838.6978	812.3544	52981.3	52044.35
838.8428	814.4164	52547	51608.5
838.9879	816.4778	52679.05	51737.45
839.133	818.5385	52618.45	51676.5
839.2781	820.5986	52644.05	51703.45
839.4232	822.658	52811.6	51864.25
839.5682	824.7166	52923.85	51982.2
839.7133	826.7747	52878.5	51936.7
839.8584	828.832	53310.25	52365.85
840.0035	830.8886	53588.7	52641.45
840.1486	832.9446	53583.35	52636.85
840.2937	834.9999	52811.05	51871
840.4388	837.0545	53003.15	52056.15
840.5839	839.1085	52897.6	51955.05
840.729	841.1618	52626.95	51676.25
840.8741	843.2143	52050.75	51109.3
841.0192	845.2662	51862.95	50920.55
841.1643	847.3175	51954.9	51011.45
841.3095	849.368	51398	50453.95
841.4546	851.4179	51681.3	50737.1
841.5997	853.467	51257.85	50315.05
841.7448	855.5155	51340.2	50394.35
841.8899	857.5633	50979.65	50035.1
842.0351	859.6105	50735.8	49791.95
842.1802	861.6569	50805.7	49862.85
842.3253	863.7027	50402.3	49454.75
842.4704	865.7478	50529.9	49585.55
842.6156	867.7922	50334	49388.85
842.7607	869.8359	50510.2	49564.1
842.9058	871.8789	50066.55	49119.2
843.0509	873.9212	50356.45	49378.1
843.1961	875.9629	50220.9	49277.45
843.3412	878.0039	50259.75	49316.45
843.4863	880.0441	50158.05	49213.45
843.6315	882.0837	50195.55	49249.35
843.7766	884.1226	50143.35	49197.45
843.9218	886.1609	50115.5	49170.2
844.0669	888.1984	50030.4	49087.6
844.212	890.2352	50347.25	49400.25
844.3572	892.2714	49926.25	48973.05
844.5023	894.3069	49998.05	49052.35
844.6475	896.3416	49697.75	48750.6
844.7926	898.3757	49489.6	48544.45
844.9377	900.4091	49139.55	48193.5
845.0829	902.4418	49431.7	48479.15
845.228	904.4739	49126.7	48176.3
845.3732	906.5052	49192.2	48242.8
845.5183	908.5358	48979.9	48032.2
845.6635	910.5658	48758.3	47811.3
845.8086	912.595	48590.8	47641.95
845.9538	914.6236	48149.3	47203.65
846.0989	916.6515	48425.5	47479.2
846.2441	918.6786	47790.65	46840.95
846.3892	920.7051	47873.4	46920.4
846.5344	922.7309	47905.75	46956.8
846.6795	924.756	47830.2	46883.7
846.8246	926.7804	47718.4	46766.3
846.9698	928.8041	47258	46308.25
847.1149	930.8272	47485.95	46535.15
847.2601	932.8495	47307.35	46358.25
847.4052	934.8711	47103.95	46154.85
847.5504	936.892	46905.3	45953.6
847.6955	938.9123	46847.25	45898.35
847.8407	940.9318	46715.15	45768.65
847.9858	942.9506	46585.05	45638
848.131	944.9688	46431.6	45482.25
848.2761	946.9862	46085.85	45138.2
848.4213	949.003	45957.35	45008.95
848.5664	951.019	45602.65	44654.65
848.7115	953.0344	45588.15	44638.2
848.8567	955.0491	45487.5	44539.35
849.0018	957.063	45558.55	44606.35
849.147	959.0763	45575.65	44619.75
849.2921	961.0888	45413.45	44464.75
849.4373	963.1007	45457.35	44509.4
849.5824	965.1119	45393.65	44455.65
849.7275	967.1223	45283.35	44351.5
849.8727	969.1321	45269.3	44331.3
850.0178	971.1412	45032.3	44093.15
850.1629	973.1495	44904.85	43956.35
850.3081	975.1572	44920.1	43952.1
850.4532	977.1641	44813.15	43867.55
850.5983	979.1704	44650.2	43700.55
850.7435	981.1759	44511.1	43557.95
850.8886	983.1808	44429.95	43478.1
851.0337	985.1849	44384.5	43429.05
851.1788	987.1884	44393	43443.55
851.324	989.1911	44471.05	43522.55
851.4691	991.1932	44207.3	43255.15
851.6142	993.1945	44126.75	43180.95
851.7593	995.1951	43984.7	43038
851.9045	997.1951	43858.5	42907.05
852.0496	999.1943	43631.95	42681.2
852.1947	1001.1928	43523.45	42576.7
852.3398	1003.1906	43393.65	42445.4
852.4849	1005.1877	43396.3	42448.9
852.63	1007.1841	43191.3	42247.15
852.7751	1009.1798	43094.5	42149.85
852.9202	1011.1748	42919.05	41972.8
853.0653	1013.1691	42682.65	41734.2
853.2104	1015.1627	42376.4	41433.05
853.3555	1017.1556	41938.2	40993.15
853.5006	1019.1477	41867.25	40922.45
853.6457	1021.1392	41498.1	40559.7
853.7908	1023.1299	41358.35	40420.45
853.9359	1025.12	41188.9	40252.8
854.081	1027.1093	41037.1	40114.45
854.2261	1029.0979	41078.85	40158.4
854.3712	1031.0859	40974.25	40045.25
854.5163	1033.0731	40822.65	39886.05
854.6613	1035.0596	40665.75	39727.4
854.8064	1037.0454	40386.4	39445.55
854.9515	1039.0304	40207.05	39264.5
855.0965	1041.0148	39969.5	39025.5
855.2416	1042.9985	39814.25	38866.1
855.3867	1044.9814	39783.2	38842.05
855.5317	1046.9636	39559.7	38611.9
855.6768	1048.9452	39421.35	38481
855.8219	1050.926	39378.4	38437.5
855.9669	1052.9061	39324.75	38381.25
856.112	1054.8855	39241.3	38296.6
856.257	1056.8642	39180.4	38239.85
856.4021	1058.8421	39168.45	38217.05
856.5471	1060.8194	39025.15	38081
856.6921	1062.7959	39017.25	38070.8
856.8372	1064.7717	38971.4	38025.65
856.9822	1066.7469	38946.2	38002
857.1272	1068.7213	38882.4	37937
857.2723	1070.695	38854.15	37909.7
857.4173	1072.6679	38668.35	37722.2
857.5623	1074.6402	38632.3	37685.3
857.7073	1076.6117	38643.75	37691.2
857.8523	1078.5826	38494.3	37549.4
857.9973	1080.5527	38244.9	37296.6
858.1423	1082.5221	38093.95	37150.15
858.2873	1084.4908	38010.15	37064.65
858.4323	1086.4587	37940.5	36995.45
858.5773	1088.426	37906.75	36962.1
858.7223	1090.3925	37752.45	36800.1
858.8673	1092.3584	37769.1	36825.4
859.0123	1094.3235	37560.2	36614.35
859.1573	1096.2879	37468.85	36525.25
859.3022	1098.2515	37499.15	36555.3
859.4472	1100.2145	37571.6	36628.7
859.5922	1102.1767	37581.7	36636.7
859.7371	1104.1382	37624.9	36684
859.8821	1106.099	37721.2	36776.95
860.027	1108.0591	37818.6	36874.95
860.172	1110.0185	37782.95	36835.2
860.3169	1111.9771	37851.6	36905.75
860.4619	1113.9351	37615.6	36669.2
860.6068	1115.8923	37391.35	36448.9
860.7517	1117.8488	37170.5	36223.45
860.8967	1119.8045	36818.55	35873.65
861.0416	1121.7596	36759.65	35814.85
861.1865	1123.7139	36475.15	35534.6
861.3314	1125.6675	36384.4	35440.45
861.4763	1127.6204	36429.45	35485.75
861.6212	1129.5726	36297.55	35353.3
861.7661	1131.524	36173.05	35225.85
861.911	1133.4748	36039.45	35099.4
862.0559	1135.4248	35818.8	34878.2
862.2008	1137.3741	35653.3	34713.75
862.3457	1139.3226	35432.95	34489.25
862.4905	1141.2705	35373.75	34431.7
862.6354	1143.2176	35152.1	34203.95
862.7803	1145.164	35058.95	34115.9
862.9251	1147.1097	34965.5	34020
863.07	1149.0546	34861	33914.85
863.2148	1150.9989	34723.65	33778.85
863.3597	1152.9424	34590.7	33645.85
863.5045	1154.8852	34479.45	33536.1
863.6493	1156.8272	34379.35	33436.25
863.7942	1158.7686	34381.75	33431.65
863.939	1160.7092	34265.8	33319.55
864.0838	1162.6491	34128.45	33181.15
864.2286	1164.5883	34195.45	33249.8
864.3734	1166.5267	34144.85	33202.55
864.5182	1168.4644	34264.2	33324.6
864.663	1170.4014	34297.2	33356.65
864.8078	1172.3377	34508.9	33570.2
864.9526	1174.2732	34687.5	33746.15
865.0974	1176.2081	34910.95	33970.55
865.2421	1178.1421	35209.15	34263.4
865.3869	1180.0755	35519.65	34578.45
865.5317	1182.0082	35631.5	34691
