Software Version:	3.9.2.0
Unit SN:	10000200
Spectrometer SN:	6960
Date:	3/26/2024 1:30:47 PM
Data Line Index:	25
Spectral Points:	2048
Integration time (ms):	125
Averages:	20
Delay (ms):	30000
Sequence Number:	1
Processing:	dark subtract
Laser Power (mW):	305
Laser Current (mA):	820
Laser Diode Temp (C):	25
Laser Case Temp (C):	26.9
System Temp (C):	26.8
Spectrometer Temp (C):	24.6
CCD Temp (C):	0.007
Secondary Temp (C):	20.008
Heatsink Temp (C):	22.462
CCDPCB Temp (C):	36.607
SecondaryPCB Temp (C):	33.706

Wavelength	RamanShift	Raw Counts	Dark Subtracted
787.061	30.1047	542.85	130.6
787.2016	32.3739	549.1	141.05
787.3422	34.6426	558.4	147.85
787.4828	36.9109	571.8	159.05
787.6235	39.1787	583.35	167.55
787.7642	41.4461	596.25	175.15
787.9049	43.7131	616.2	191.45
788.0456	45.9796	633.45	206.05
788.1863	48.2456	645.15	212.35
788.3271	50.5112	665.25	228.7
788.4679	52.7764	678.55	239.1
788.6087	55.0411	690.7	249.2
788.7496	57.3054	714.45	267.1
788.8904	59.5692	735.8	287.4
789.0313	61.8326	761.95	309.65
789.1722	64.0955	788.6	332.7
789.3132	66.3579	812.7	350.45
789.4541	68.6199	851.8	385.55
789.5951	70.8815	911.7	444.9
789.7361	73.1426	1045.85	575
789.8771	75.4032	1395.55	918.75
790.0181	77.6634	2237.95	1756.4
790.1592	79.9231	4323.3	3834
790.3003	82.1824	8996.95	8493.85
790.4414	84.4412	17976.1	17454.5
790.5825	86.6995	32588.85	32034.75
790.7237	88.9574	42936.4	42355.3
790.8648	91.2148	49014.1	48414.95
791.006	93.4717	50660.5	50050.8
791.1472	95.7282	51276.4	50660.05
791.2885	97.9842	51499.75	50876.3
791.4297	100.2398	51454.85	50831.2
791.571	102.4949	51302.7	50676.95
791.7123	104.7495	51182.25	50553.25
791.8536	107.0036	50916.3	50286.8
791.9949	109.2573	50953.2	50319.6
792.1363	111.5105	50664.45	50030.25
792.2777	113.7632	50606.65	49972.35
792.4191	116.0154	50564.6	49918.95
792.5605	118.2672	50664.85	50024.8
792.7019	120.5185	50585.1	49943.9
792.8434	122.7693	50530.35	49889.85
792.9849	125.0197	50296.35	49652.2
793.1264	127.2696	50635	49988.35
793.2679	129.519	50560.45	49905.5
793.4094	131.7679	50680.15	50026.65
793.551	134.0163	50247.35	49587.4
793.6926	136.2642	50351.85	49689.15
793.8342	138.5117	50503.9	49830.1
793.9758	140.7587	50342.35	49672.6
794.1175	143.0052	50297.15	49625
794.2591	145.2512	49917.25	49246.1
794.4008	147.4967	50142.8	49471.25
794.5425	149.7417	50010	49336.5
794.6842	151.9863	49957.5	49279.1
794.826	154.2304	49767.6	49085.95
794.9677	156.4739	49762.55	49076.4
795.1095	158.717	49977.4	49290.3
795.2513	160.9596	49762	49070.2
795.3931	163.2017	49339.25	48646.05
795.535	165.4433	49626.55	48933.25
795.6768	167.6844	49277.45	48582.4
795.8187	169.925	49375.8	48678.2
795.9606	172.1651	49037.9	48338
796.1025	174.4047	49076.2	48374.65
796.2445	176.6439	48978.9	48277.85
796.3864	178.8825	48743.7	48034.95
796.5284	181.1206	49116.3	48401
796.6704	183.3582	48997.95	48280.7
796.8124	185.5954	48828.75	48112.55
796.9544	187.832	48808.6	48087.15
797.0965	190.0681	48529.7	47806.5
797.2386	192.3037	49004.15	48280.1
797.3806	194.5388	49424.65	48689.55
797.5228	196.7734	48352.65	47618.75
797.6649	199.0075	49430.65	48689.1
797.807	201.2411	49078.55	48335.9
797.9492	203.4742	49581.65	48836.15
798.0914	205.7068	49561.1	48819.85
798.2336	207.9389	49567.6	48825.4
798.3758	210.1704	49590.7	48847.35
798.518	212.4015	49861.15	49110.4
798.6603	214.632	49606.9	48857.9
798.8025	216.862	49947.7	49206.75
798.9448	219.0915	49784.9	49051.6
799.0871	221.3205	49792.5	49059.85
799.2294	223.549	50076.6	49349.15
799.3718	225.777	50055.8	49327.95
799.5141	228.0044	50166.5	49435.15
799.6565	230.2314	50179.45	49453.35
799.7989	232.4578	50173.35	49446.05
799.9413	234.6837	50219.2	49482.2
800.0837	236.909	50462.6	49724.15
800.2262	239.1339	50057.2	49295.2
800.3687	241.3582	50257.9	49506.1
800.5111	243.582	50258.65	49479.15
800.6536	245.8053	50268	49500.95
800.7961	248.0281	50265.85	49503.9
800.9387	250.2503	50273.55	49502.75
801.0812	252.472	50204.15	49430.95
801.2238	254.6932	50319.55	49545.85
801.3664	256.9139	50266.05	49490.1
801.509	259.134	50492.95	49712.9
801.6516	261.3536	50314.2	49536.55
801.7942	263.5727	50514.5	49733.5
801.9369	265.7912	50466.65	49685.15
802.0795	268.0092	50548.6	49770.3
802.2222	270.2267	50569.6	49791.8
802.3649	272.4436	50509.7	49726.95
802.5076	274.6601	50574.35	49785.75
802.6504	276.8759	50599	49815.55
802.7931	279.0913	50492.35	49705.95
802.9359	281.3061	50499.2	49708.1
803.0787	283.5204	50538.15	49744.9
803.2215	285.7341	50557.25	49765.15
803.3643	287.9473	50606.3	49799.2
803.5071	290.16	50569.55	49767.8
803.6499	292.3721	50635.8	49842.65
803.7928	294.5837	50578.55	49779.15
803.9357	296.7947	50549.65	49755.25
804.0786	299.0052	50693.8	49897.3
804.2215	301.2152	50623.4	49824.2
804.3644	303.4246	50673.75	49878.5
804.5074	305.6334	50568.2	49775.4
804.6503	307.8418	50422.2	49626.3
804.7933	310.0495	50318.5	49516.55
804.9363	312.2568	50202.05	49399.65
805.0793	314.4635	50108.9	49303.95
805.2223	316.6696	50089.65	49283.3
805.3653	318.8752	50017.3	49206.15
805.5084	321.0802	49766.95	48960.9
805.6514	323.2847	49938.3	49128.5
805.7945	325.4887	49875.45	49063.7
805.9376	327.692	49831.75	49024.15
806.0807	329.8949	49896.7	49084.55
806.2238	332.0972	49806.2	48994.05
806.367	334.2989	49788.6	48976.45
806.5101	336.5001	49803.2	48991.4
806.6533	338.7007	49503.65	48686.5
806.7965	340.9008	49703.05	48883.4
806.9397	343.1003	49617.2	48799.25
807.0829	345.2992	49690.3	48870.6
807.2261	347.4976	49490.05	48665.35
807.3693	349.6955	49579.65	48751.5
807.5126	351.8927	49468.3	48641.45
807.6559	354.0895	49522.3	48685.25
807.7991	356.2856	49489.3	48658.5
807.9424	358.4812	49595	48766.35
808.0857	360.6763	49350.7	48522.35
808.2291	362.8707	49566.85	48736.8
808.3724	365.0646	49418.95	48589.25
808.5158	367.258	49405.4	48575.3
808.6591	369.4508	49244.75	48410.05
808.8025	371.643	49567.85	48731.05
808.9459	373.8346	49389.75	48548.45
809.0893	376.0257	49430.75	48589.85
809.2327	378.2162	49343.65	48501.9
809.3762	380.4062	49109.8	48263.15
809.5196	382.5956	49288.85	48445.25
809.6631	384.7844	49227.65	48384.75
809.8066	386.9726	49266.65	48419.8
809.9501	389.1603	49146.15	48299.8
810.0936	391.3474	49011.35	48132.7
810.2371	393.5339	49112.75	48264.7
810.3806	395.7199	48799.65	47956.05
810.5241	397.9052	48881.8	48043.4
810.6677	400.09	48967.95	48129.75
810.8113	402.2743	49142.95	48307.55
810.9548	404.4579	48963	48129.45
811.0984	406.641	49062.45	48226.75
811.2421	408.8235	49148.1	48313
811.3857	411.0054	49270.7	48432.15
811.5293	413.1868	49348	48507.65
811.673	415.3675	49223.05	48378.7
811.8166	417.5477	49261.9	48420.05
811.9603	419.7273	49254.3	48404.75
812.104	421.9064	49153.9	48299
812.2477	424.0848	49136.55	48287.15
812.3914	426.2627	49165.65	48316.8
812.5351	428.4399	48920.25	48066.35
812.6788	430.6166	48474.9	47623.4
812.8226	432.7928	48696.25	47840.05
812.9663	434.9683	48318.5	47466.35
813.1101	437.1432	48198.45	47343.9
813.2539	439.3176	48386.65	47534.5
813.3977	441.4914	47829.15	46977.9
813.5415	443.6645	47919.05	47061.25
813.6853	445.8371	47950.85	47092.3
813.8291	448.0091	47622.3	46762.75
813.973	450.1806	47457.5	46599.25
814.1168	452.3514	47573.65	46718.25
814.2607	454.5216	47246.4	46380.8
814.4046	456.6913	47511.95	46650.65
814.5485	458.8603	47673	46817.75
814.6924	461.0288	47250.85	46395.9
814.8363	463.1967	47602.15	46748.6
814.9802	465.3639	47519.9	46662.6
815.1241	467.5306	46823	45963.05
815.2681	469.6967	47245.25	46387.4
815.412	471.8622	47525.65	46671.4
815.556	474.0271	47208.6	46350.45
815.7	476.1914	47270.8	46405.45
815.844	478.3551	47303.9	46439.65
815.988	480.5182	47759.15	46898.55
816.132	482.6807	47186.95	46328.95
816.276	484.8426	47326.5	46471.9
816.4201	487.0039	47911.5	47054.6
816.5641	489.1647	48047.55	47184.8
816.7082	491.3248	47639.35	46778.8
816.8522	493.4843	48199.5	47339.45
816.9963	495.6432	48149.45	47291.5
817.1404	497.8015	47489.1	46620.75
817.2845	499.9592	47800.85	46926
817.4286	502.1163	47671.4	46798.95
817.5727	504.2728	47476.45	46607.7
817.7168	506.4287	47289.8	46430.9
817.861	508.5839	46928.85	46069.9
818.0051	510.7386	47060.35	46195.25
818.1493	512.8927	47085.3	46212.2
818.2935	515.0461	47005.8	46135.4
818.4377	517.199	47275.2	46405.7
818.5818	519.3512	47017.85	46146.65
818.726	521.5029	47170.2	46293.3
818.8703	523.6539	47327.5	46454.1
819.0145	525.8043	46911.9	46036.4
819.1587	527.9541	47236.6	46360.05
819.303	530.1033	47100.25	46228.1
819.4472	532.2519	46816.95	45941.9
819.5915	534.3999	47173.8	46297.15
819.7357	536.5472	47334.75	46460.65
819.88	538.694	46835.65	45965.4
820.0243	540.8401	47240.15	46363.85
820.1686	542.9856	47374.2	46493.35
820.3129	545.1305	47587.65	46701.65
820.4572	547.2748	47139.75	46254.85
820.6016	549.4185	47008.25	46120.05
820.7459	551.5615	47314.15	46426.35
820.8902	553.704	47176.7	46291.15
821.0346	555.8458	46982.85	46100.25
821.1789	557.987	47079	46198.4
821.3233	560.1276	47331.85	46446.15
821.4677	562.2675	47349.1	46464.1
821.6121	564.4069	47609.85	46724.95
821.7565	566.5456	47947.05	47066.5
821.9009	568.6837	47527.15	46644.7
822.0453	570.8212	47449	46567.75
822.1897	572.958	46624.25	45741.85
822.3342	575.0942	46868.45	45985.8
822.4786	577.2299	46372.35	45490
822.6231	579.3648	46169.85	45299.05
822.7675	581.4992	46071.1	45204.45
822.912	583.6329	46003.1	45137.7
823.0565	585.766	46125.65	45254.25
823.201	587.8985	46271.8	45397.8
823.3454	590.0304	45670.6	44781.45
823.4899	592.1616	46095.6	45209.4
823.6345	594.2922	45757.6	44868.55
823.779	596.4222	45364.8	44476.7
823.9235	598.5515	45394.35	44502.1
824.068	600.6802	45563.55	44673.7
824.2126	602.8083	45015.75	44128.1
824.3571	604.9358	44941.5	44050.6
824.5017	607.0626	45338.3	44446.9
824.6462	609.1888	44796.1	43900.2
824.7908	611.3144	45219.5	44324.25
824.9354	613.4393	45001.05	44107
825.08	615.5636	44817.9	43925.35
825.2246	617.6873	45110.6	44216.25
825.3692	619.8103	44718.3	43824.65
825.5138	621.9327	44995.35	44107.05
825.6584	624.0544	44931.65	44040.75
825.803	626.1756	44665.5	43777.1
825.9477	628.2961	44574.45	43681.8
826.0923	630.4159	44356.9	43463.05
826.237	632.5351	44268.85	43374.35
826.3816	634.6537	44849.1	43954.4
826.5263	636.7716	44178.8	43277.6
826.6709	638.8889	44282.3	43379.15
826.8156	641.0056	44270.3	43371.65
826.9603	643.1216	44326.5	43426.3
827.105	645.237	44397.05	43497.05
827.2497	647.3518	44008.8	43116.35
827.3944	649.4659	44085.8	43196.45
827.5391	651.5793	44098.65	43206.5
827.6838	653.6922	44135.35	43242.4
827.8285	655.8043	43651.85	42758.65
827.9733	657.9159	44244.3	43350.05
828.118	660.0268	43214.7	42314.65
828.2627	662.137	43728.65	42830.55
828.4075	664.2466	43857.25	42955.3
828.5522	666.3556	43647.85	42748.9
828.697	668.4639	43690.1	42787.85
828.8418	670.5716	43489.35	42595.85
828.9865	672.6786	43636.55	42738.95
829.1313	674.785	43271.1	42368.55
829.2761	676.8907	43287.5	42389.4
829.4209	678.9958	43370.1	42474.9
829.5657	681.1002	43402.15	42504.2
829.7105	683.204	43086.45	42179.65
829.8553	685.3072	42951.05	42047.1
830.0001	687.4097	42977.75	42073.85
830.1449	689.5115	42896.75	41990.5
830.2898	691.6127	43151.55	42248.55
830.4346	693.7132	42849.2	41950.1
830.5794	695.8131	42947.85	42032.7
830.7243	697.9123	43019.25	42111.65
830.8691	700.0109	43075.1	42169.05
831.014	702.1089	42710.35	41805.5
831.1588	704.2061	42809.8	41903.6
831.3037	706.3028	42820.65	41913.5
831.4486	708.3987	42824.3	41917.6
831.5935	710.4941	42714.35	41808.55
831.7383	712.5887	42929.9	42024.35
831.8832	714.6827	42785.75	41878
832.0281	716.7761	43023.45	42119.25
832.173	718.8688	43070.3	42165.4
832.3179	720.9608	42894.75	41982.85
832.4628	723.0522	42985.95	42069.9
832.6077	725.1429	42747.05	41838.4
832.7527	727.233	43372.05	42462.1
832.8976	729.3224	42598.15	41693.1
833.0425	731.4112	42798.65	41889.65
833.1874	733.4993	42687.05	41776.4
833.3324	735.5867	42530.6	41621.05
833.4773	737.6735	42266.35	41353.85
833.6222	739.7596	41998.6	41086.65
833.7672	741.845	41929	41019.3
833.9122	743.9298	41983.45	41074.65
834.0571	746.014	41794.8	40884.1
834.2021	748.0974	41625.8	40709.95
834.347	750.1802	41858	40943.35
834.492	752.2624	41386.15	40474.6
834.637	754.3439	41466.6	40551.7
834.782	756.4247	41534.2	40613.15
834.9269	758.5048	41344.45	40429.95
835.0719	760.5843	41532.2	40618.5
835.2169	762.6631	41763.2	40850.15
835.3619	764.7413	41965.9	41051.75
835.5069	766.8188	42294.5	41378.85
835.6519	768.8956	42591.7	41678.6
835.7969	770.9718	42722.35	41809.2
835.9419	773.0473	42486.95	41574.6
836.0869	775.1221	42208.45	41295.45
836.232	777.1962	42032.6	41117.1
836.377	779.2697	41747.05	40823.45
836.522	781.3426	41910.2	40980.25
836.667	783.4147	41963.8	41046.7
836.8121	785.4862	41897.05	40983.8
836.9571	787.557	41644.6	40729.45
837.1021	789.6271	41494.75	40579.1
837.2472	791.6966	40973.8	40056.65
837.3922	793.7654	40521.8	39605.7
837.5373	795.8335	40318.2	39401.05
837.6823	797.901	40103.25	39186.5
837.8274	799.9678	39914	38993.15
837.9724	802.0339	39868.05	38947.1
838.1175	804.0993	39804.4	38876.85
838.2626	806.1641	39642	38721.25
838.4076	808.2282	39505	38589.45
838.5527	810.2916	39484.85	38567.95
838.6978	812.3544	39428.55	38513.85
838.8428	814.4164	39198.5	38283.75
838.9879	816.4778	39271.45	38352.2
839.133	818.5385	39218.9	38298.85
839.2781	820.5986	39224	38305.3
839.4232	822.658	39379.7	38461.5
839.5682	824.7166	39471.65	38553.05
839.7133	826.7747	39685.35	38764.8
839.8584	828.832	39921.55	39001.9
840.0035	830.8886	40145.8	39224
840.1486	832.9446	40192.15	39270.6
840.2937	834.9999	39757.2	38838.05
840.4388	837.0545	39748.7	38821.85
840.5839	839.1085	39511.75	38593.15
840.729	841.1618	39309.75	38386.3
840.8741	843.2143	39015.6	38097.1
841.0192	845.2662	38867.2	37949.15
841.1643	847.3175	38838.95	37918.75
841.3095	849.368	38584.95	37663.6
841.4546	851.4179	38575.05	37652.9
841.5997	853.467	38367.75	37449.5
841.7448	855.5155	38282.75	37363.55
841.8899	857.5633	38147.35	37225
842.0351	859.6105	38019.65	37097.9
842.1802	861.6569	37992.95	37071.9
842.3253	863.7027	37812.85	36889
842.4704	865.7478	37797.55	36875.05
842.6156	867.7922	37768.4	36843.55
842.7607	869.8359	37748.7	36826.2
842.9058	871.8789	37628.4	36701.55
843.0509	873.9212	37712.3	36757.05
843.1961	875.9629	37609.6	36684.3
843.3412	878.0039	37656.8	36733.6
843.4863	880.0441	37624.2	36703.8
843.6315	882.0837	37588.8	36667.45
843.7766	884.1226	37556.2	36627.05
843.9218	886.1609	37535.15	36612.7
844.0669	888.1984	37597.85	36673.45
844.212	890.2352	37788.5	36864.9
844.3572	892.2714	37584.9	36656.9
844.5023	894.3069	37582	36659.2
844.6475	896.3416	37353.15	36428.45
844.7926	898.3757	37159.85	36238.6
844.9377	900.4091	37072.7	36148.4
845.0829	902.4418	37002.8	36073.15
845.228	904.4739	36912.35	35987.75
845.3732	906.5052	36923.2	35998.3
845.5183	908.5358	36867.5	35941.3
845.6635	910.5658	36726.95	35798.6
845.8086	912.595	36584.25	35657.55
845.9538	914.6236	36346.15	35420.75
846.0989	916.6515	36303.65	35375.75
846.2441	918.6786	36095.85	35167.85
846.3892	920.7051	36094.9	35167
846.5344	922.7309	36089.95	35163.5
846.6795	924.756	35973.85	35049.35
846.8246	926.7804	35971.45	35048.3
846.9698	928.8041	35728.75	34801.35
847.1149	930.8272	35797.25	34873.1
847.2601	932.8495	35622.6	34696.25
847.4052	934.8711	35575.3	34647.35
847.5504	936.892	35423.55	34496.2
847.6955	938.9123	35330.5	34403.7
847.8407	940.9318	35342.1	34414.6
847.9858	942.9506	35195.4	34264.35
848.131	944.9688	35031.55	34104.2
848.2761	946.9862	34950.95	34025.35
848.4213	949.003	34723.55	33795.95
848.5664	951.019	34605.4	33676.15
848.7115	953.0344	34552.7	33625.1
848.8567	955.0491	34440.5	33514.35
849.0018	957.063	34471.65	33546.65
849.147	959.0763	34535.2	33601.3
849.2921	961.0888	34341.4	33413.65
849.4373	963.1007	34408.8	33481.55
849.5824	965.1119	34371.4	33451.7
849.7275	967.1223	34286.55	33369.9
849.8727	969.1321	34251.8	33334.6
850.0178	971.1412	34154.8	33234.6
850.1629	973.1495	34047.5	33121.3
850.3081	975.1572	34064.55	33117.8
850.4532	977.1641	33966.75	33041.9
850.5983	979.1704	33895.5	32965.1
850.7435	981.1759	33789.35	32858.4
850.8886	983.1808	33762.55	32833.45
851.0337	985.1849	33704.15	32766.2
851.1788	987.1884	33638.7	32710.8
851.324	989.1911	33631.3	32702.55
851.4691	991.1932	33541.1	32614.5
851.6142	993.1945	33486.6	32560.45
851.7593	995.1951	33354.4	32425.9
851.9045	997.1951	33294.8	32363.1
852.0496	999.1943	33127.6	32201.5
852.1947	1001.1928	33006.55	32077.35
852.3398	1003.1906	32971.85	32043.1
852.4849	1005.1877	32913.65	31987.7
852.63	1007.1841	32801.65	31873.25
852.7751	1009.1798	32725.55	31799.85
852.9202	1011.1748	32609.7	31683.4
853.0653	1013.1691	32444.2	31514.25
853.2104	1015.1627	32155	31226.35
853.3555	1017.1556	31926.4	31000.95
853.5006	1019.1477	31797.55	30872.85
853.6457	1021.1392	31500.25	30578.95
853.7908	1023.1299	31371.95	30452.65
853.9359	1025.12	31365.35	30447.2
854.081	1027.1093	31232.9	30324
854.2261	1029.0979	31183.65	30273.8
854.3712	1031.0859	31160.2	30248
854.5163	1033.0731	31074.45	30156.95
854.6613	1035.0596	30972.2	30050.5
854.8064	1037.0454	30748.35	29826.55
854.9515	1039.0304	30643.55	29719.15
855.0965	1041.0148	30353.1	29428.75
855.2416	1042.9985	30272.15	29345.4
855.3867	1044.9814	30270.6	29344.8
855.5317	1046.9636	30097.45	29171
855.6768	1048.9452	29978.05	29055.2
855.8219	1050.926	29963.6	29037
855.9669	1052.9061	29920.25	28997.05
856.112	1054.8855	29833.65	28908
856.257	1056.8642	29841.5	28919.8
856.4021	1058.8421	29835	28905.45
856.5471	1060.8194	29770.15	28840.3
856.6921	1062.7959	29697.15	28771.1
856.8372	1064.7717	29683.75	28755.85
856.9822	1066.7469	29683.2	28758.1
857.1272	1068.7213	29702.15	28776.35
857.2723	1070.695	29696.75	28768.85
857.4173	1072.6679	29533.4	28607.7
857.5623	1074.6402	29542.1	28616.55
857.7073	1076.6117	29494	28563
857.8523	1078.5826	29376.25	28446.35
857.9973	1080.5527	29184.25	28258.15
858.1423	1082.5221	29037.4	28111.4
858.2873	1084.4908	28972.65	28049.05
858.4323	1086.4587	28979	28052.9
858.5773	1088.426	28893.5	27963.45
858.7223	1090.3925	28814.2	27884.05
858.8673	1092.3584	28792.9	27865.8
859.0123	1094.3235	28641.4	27716.3
859.1573	1096.2879	28620.6	27692.8
859.3022	1098.2515	28677.55	27751.1
859.4472	1100.2145	28754.95	27830.25
859.5922	1102.1767	28767.95	27839.15
859.7371	1104.1382	28884.7	27962.7
859.8821	1106.099	28966.4	28038.6
860.027	1108.0591	29043.55	28117.9
860.172	1110.0185	29044.35	28117.2
860.3169	1111.9771	29043.65	28119.6
860.4619	1113.9351	28895.85	27970.75
860.6068	1115.8923	28764.85	27838.7
860.7517	1117.8488	28544.45	27618.6
860.8967	1119.8045	28302.15	27378.25
861.0416	1121.7596	28251.8	27325.2
861.1865	1123.7139	28076.4	27151.5
861.3314	1125.6675	27934.35	27007.2
861.4763	1127.6204	28005.6	27077.85
861.6212	1129.5726	27881.4	26957.45
861.7661	1131.524	27754.15	26828.5
861.911	1133.4748	27667.3	26745.25
862.0559	1135.4248	27490.65	26564.35
862.2008	1137.3741	27319.8	26393.3
862.3457	1139.3226	27190.9	26263.35
862.4905	1141.2705	27140.65	26215.65
862.6354	1143.2176	26958.8	26029.15
862.7803	1145.164	26932.6	26004.8
862.9251	1147.1097	26836.5	25911.8
863.07	1149.0546	26708.5	25782.85
863.2148	1150.9989	26642.05	25716.75
863.3597	1152.9424	26529.2	25603.2
863.5045	1154.8852	26399.55	25472.1
863.6493	1156.8272	26363.35	25437.4
863.7942	1158.7686	26352.55	25419.8
863.939	1160.7092	26228.1	25303.5
864.0838	1162.6491	26149.85	25222.65
864.2286	1164.5883	26203.65	25279.8
864.3734	1166.5267	26221.3	25297.7
864.5182	1168.4644	26303.25	25377.05
864.663	1170.4014	26393.9	25467.2
864.8078	1172.3377	26538.65	25619.1
864.9526	1174.2732	26657.7	25731.35
865.0974	1176.2081	26890.85	25966.1
865.2421	1178.1421	27135.25	26208.05
865.3869	1180.0755	27479.8	26556
