Software Version:	3.9.2.0
Unit SN:	10000200
Spectrometer SN:	6960
Date:	3/26/2024 2:20:43 PM
Data Line Index:	25
Spectral Points:	2048
Integration time (ms):	125
Averages:	20
Delay (ms):	30000
Sequence Number:	1
Processing:	dark subtract
Laser Power (mW):	300
Laser Current (mA):	820
Laser Diode Temp (C):	25.1
Laser Case Temp (C):	27.6
System Temp (C):	27.6
Spectrometer Temp (C):	25.5
CCD Temp (C):	0.001
Secondary Temp (C):	20.011
Heatsink Temp (C):	22.983
CCDPCB Temp (C):	36.774
SecondaryPCB Temp (C):	34.695

Wavelength	RamanShift	Raw Counts	Dark Subtracted
787.061	30.1047	694.5	283.65
787.2016	32.3739	704.15	294.2
787.3422	34.6426	718.5	308.65
787.4828	36.9109	740.3	327.2
787.6235	39.1787	769.4	352.45
787.7642	41.4461	795.05	373.7
787.9049	43.7131	822.25	397.5
788.0456	45.9796	850.1	421.3
788.1863	48.2456	883.85	451.7
788.3271	50.5112	909.7	473.85
788.4679	52.7764	941.45	503.2
788.6087	55.0411	977.05	535.35
788.7496	57.3054	1013.5	566.9
788.8904	59.5692	1053.95	604.3
789.0313	61.8326	1098.75	647.15
789.1722	64.0955	1153.6	698.4
789.3132	66.3579	1207.45	744.2
789.4541	68.6199	1266.2	803.1
789.5951	70.8815	1384.45	917.4
789.7361	73.1426	1622.3	1151.05
789.8771	75.4032	2214.1	1737.55
790.0181	77.6634	3708.7	3225.2
790.1592	79.9231	7442.95	6949.75
790.3003	82.1824	16078.8	15568.8
790.4414	84.4412	40040.9	39499.85
790.5825	86.6995	65483.65	64899
790.7237	88.9574	65535	64910.5
790.8648	91.2148	65535	64884.05
791.006	93.4717	65535	64861
791.1472	95.7282	65535	64849.3
791.2885	97.9842	65535	64846.25
791.4297	100.2398	65535	64841.1
791.571	102.4949	65535	64844.05
791.7123	104.7495	65535	64835.15
791.8536	107.0036	65535	64832.85
791.9949	109.2573	65535	64838.3
792.1363	111.5105	65535	64834.95
792.2777	113.7632	65535	64833.15
792.4191	116.0154	65535	64823.85
792.5605	118.2672	65535	64828.65
792.7019	120.5185	65535	64831.6
792.8434	122.7693	65535	64827.15
792.9849	125.0197	65535	64816.55
793.1264	127.2696	65535	64818.45
793.2679	129.519	65535	64813
793.4094	131.7679	65535	64812.3
793.551	134.0163	65535	64803.05
793.6926	136.2642	65535	64807.5
793.8342	138.5117	65535	64799.9
793.9758	140.7587	65535	64798.7
794.1175	143.0052	65535	64800.5
794.2591	145.2512	65535	64800.65
794.4008	147.4967	65535	64799.85
794.5425	149.7417	65535	64795.8
794.6842	151.9863	65535	64793.5
794.826	154.2304	65535	64788.75
794.9677	156.4739	65535	64784.1
795.1095	158.717	65535	64785.1
795.2513	160.9596	65535	64778.55
795.3931	163.2017	65535	64777.95
795.535	165.4433	65535	64774.8
795.6768	167.6844	65535	64773.1
795.8187	169.925	65535	64772.1
795.9606	172.1651	65535	64774.6
796.1025	174.4047	65535	64769.25
796.2445	176.6439	65535	64770.15
796.3864	178.8825	65535	64765.05
796.5284	181.1206	65535	64760.55
796.6704	183.3582	65535	64753
796.8124	185.5954	65535	64752.45
796.9544	187.832	65535	64749.75
797.0965	190.0681	65535	64747.55
797.2386	192.3037	65535	64745.1
797.3806	194.5388	65535	64742.85
797.5228	196.7734	65535	64736.8
797.6649	199.0075	65535	64736.1
797.807	201.2411	65535	64736.6
797.9492	203.4742	65535	64732.75
798.0914	205.7068	65535	64730
798.2336	207.9389	65535	64729.75
798.3758	210.1704	65535	64724.95
798.518	212.4015	65535	64724.15
798.6603	214.632	65535	64734
798.8025	216.862	65535	64739.15
798.9448	219.0915	65535	64745.3
799.0871	221.3205	65535	64740.4
799.2294	223.549	65535	64748.35
799.3718	225.777	65535	64745.95
799.5141	228.0044	65535	64746
799.6565	230.2314	65535	64742.65
799.7989	232.4578	65535	64744.8
799.9413	234.6837	65535	64735.5
800.0837	236.909	65535	64739.75
800.2262	239.1339	65535	64709.45
800.3687	241.3582	65535	64724.75
800.5111	243.582	65535	64691.35
800.6536	245.8053	65535	64702.35
800.7961	248.0281	65535	64712.95
800.9387	250.2503	65535	64708.05
801.0812	252.472	65535	64700.2
801.2238	254.6932	65535	64703.1
801.3664	256.9139	65535	64705.45
801.509	259.134	65535	64698.9
801.6516	261.3536	65535	64701.1
801.7942	263.5727	65535	64695.5
801.9369	265.7912	65535	64697.7
802.0795	268.0092	65535	64697.25
802.2222	270.2267	65535	64696.1
802.3649	272.4436	65535	64699.1
802.5076	274.6601	65535	64691.85
802.6504	276.8759	65535	64696.4
802.7931	279.0913	65535	64688.4
802.9359	281.3061	65535	64690
803.0787	283.5204	65535	64689.25
803.2215	285.7341	65535	64684.05
803.3643	287.9473	65535	64674.45
803.5071	290.16	65535	64678.4
803.6499	292.3721	65535	64685
803.7928	294.5837	65535	64683.25
803.9357	296.7947	65535	64681
804.0786	299.0052	65535	64684.35
804.2215	301.2152	65535	64679.7
804.3644	303.4246	65535	64687.35
804.5074	305.6334	65535	64686
804.6503	307.8418	65535	64680.25
804.7933	310.0495	65535	64678.2
804.9363	312.2568	65535	64681.25
805.0793	314.4635	65535	64677.4
805.2223	316.6696	65535	64674.45
805.3653	318.8752	65535	64669
805.5084	321.0802	65535	64674.95
805.6514	323.2847	65535	64676.95
805.7945	325.4887	65535	64673.6
805.9376	327.692	65535	64674
806.0807	329.8949	65535	64671.8
806.2238	332.0972	65535	64674.55
806.367	334.2989	65535	64665.4
806.5101	336.5001	65535	64667.85
806.6533	338.7007	65535	64666.35
806.7965	340.9008	65535	64662.7
806.9397	343.1003	65535	64663.6
807.0829	345.2992	65535	64662.1
807.2261	347.4976	65535	64657.8
807.3693	349.6955	65535	64657.05
807.5126	351.8927	65535	64656.55
807.6559	354.0895	65535	64643.7
807.7991	356.2856	65535	64653.4
807.9424	358.4812	65535	64654.5
808.0857	360.6763	65535	64653.7
808.2291	362.8707	65535	64651.25
808.3724	365.0646	65535	64653.1
808.5158	367.258	65535	64649.15
808.6591	369.4508	65535	64648.65
808.8025	371.643	65535	64648.4
808.9459	373.8346	65535	64648.65
809.0893	376.0257	65535	64644.6
809.2327	378.2162	65535	64644.1
809.3762	380.4062	65535	64645.35
809.5196	382.5956	65535	64641.2
809.6631	384.7844	65535	64647.2
809.8066	386.9726	65535	64641.6
809.9501	389.1603	65535	64645.7
810.0936	391.3474	65535	64609.35
810.2371	393.5339	65535	64647
810.3806	395.7199	65535	64647.75
810.5241	397.9052	65535	64649.45
810.6677	400.09	65535	64649.45
810.8113	402.2743	65535	64649.15
810.9548	404.4579	65535	64652.5
811.0984	406.641	65535	64653
811.2421	408.8235	65535	64650.2
811.3857	411.0054	65535	64648.15
811.5293	413.1868	65535	64644.5
811.673	415.3675	65535	64643.8
811.8166	417.5477	65535	64642.1
811.9603	419.7273	65535	64637.4
812.104	421.9064	65535	64634.4
812.2477	424.0848	65535	64638.7
812.3914	426.2627	65535	64638.55
812.5351	428.4399	65535	64636.35
812.6788	430.6166	65535	64631.3
812.8226	432.7928	65535	64633.2
812.9663	434.9683	65535	64640.55
813.1101	437.1432	65535	64636.8
813.2539	439.3176	65535	64640.5
813.3977	441.4914	65535	64639.1
813.5415	443.6645	65535	64636.4
813.6853	445.8371	65535	64637.1
813.8291	448.0091	65535	64635.8
813.973	450.1806	65535	64637.35
814.1168	452.3514	65535	64638.8
814.2607	454.5216	65535	64631.9
814.4046	456.6913	65535	64633.05
814.5485	458.8603	65535	64634.1
814.6924	461.0288	65535	64639.5
814.8363	463.1967	65535	64639.8
814.9802	465.3639	65535	64636.8
815.1241	467.5306	65535	64634.45
815.2681	469.6967	65535	64632.1
815.412	471.8622	65535	64636.5
815.556	474.0271	65535	64635.85
815.7	476.1914	65535	64629.6
815.844	478.3551	65535	64634.95
815.988	480.5182	65535	64640.9
816.132	482.6807	65535	64640.85
816.276	484.8426	65535	64648.15
816.4201	487.0039	65535	64637.9
816.5641	489.1647	65535	64633.65
816.7082	491.3248	65535	64631.45
816.8522	493.4843	65535	64637.05
816.9963	495.6432	65535	64640.1
817.1404	497.8015	65535	64627.1
817.2845	499.9592	65535	64628.1
817.4286	502.1163	65535	64625
817.5727	504.2728	65535	64631.75
817.7168	506.4287	65535	64637.35
817.861	508.5839	65535	64634.6
818.0051	510.7386	65535	64632.1
818.1493	512.8927	65535	64621.6
818.2935	515.0461	65535	64627.6
818.4377	517.199	65535	64627.45
818.5818	519.3512	65535	64623.45
818.726	521.5029	65535	64622.8
818.8703	523.6539	65535	64624.7
819.0145	525.8043	65535	64624.9
819.1587	527.9541	65535	64623.2
819.303	530.1033	65535	64624
819.4472	532.2519	65535	64624.25
819.5915	534.3999	65535	64622.9
819.7357	536.5472	65535	64626.3
819.88	538.694	65535	64630.85
820.0243	540.8401	65535	64624.8
820.1686	542.9856	65535	64618.55
820.3129	545.1305	65535	64613
820.4572	547.2748	65535	64609.65
820.6016	549.4185	65535	64610.8
820.7459	551.5615	65535	64610.7
820.8902	553.704	65535	64612.4
821.0346	555.8458	65535	64614.4
821.1789	557.987	65535	64616.8
821.3233	560.1276	65535	64613.95
821.4677	562.2675	65535	64615.25
821.6121	564.4069	65535	64613.25
821.7565	566.5456	65535	64617.9
821.9009	568.6837	65535	64617.5
822.0453	570.8212	65535	64617.85
822.1897	572.958	65535	64614.6
822.3342	575.0942	65535	64616.75
822.4786	577.2299	65535	64619.75
822.6231	579.3648	65535	64628.85
822.7675	581.4992	65535	64635.75
822.912	583.6329	65535	64635.45
823.0565	585.766	65535	64634.9
823.201	587.8985	65535	64631.3
823.3454	590.0304	65535	64611.5
823.4899	592.1616	65535	64617.25
823.6345	594.2922	65535	64612
823.779	596.4222	65535	64612.2
823.9235	598.5515	65535	64610
824.068	600.6802	65535	64614.4
824.2126	602.8083	65535	64616.8
824.3571	604.9358	65535	64616.05
824.5017	607.0626	65535	64609.95
824.6462	609.1888	65535	64606.9
824.7908	611.3144	65535	64606.05
824.9354	613.4393	65535	64609.55
825.08	615.5636	65535	64610.65
825.2246	617.6873	65535	64610.6
825.3692	619.8103	65535	64608.9
825.5138	621.9327	65535	64611
825.6584	624.0544	65535	64616
825.803	626.1756	65535	64611.75
825.9477	628.2961	65535	64608.65
826.0923	630.4159	65535	64605
826.237	632.5351	65535	64608.4
826.3816	634.6537	65535	64607.05
826.5263	636.7716	65535	64602.8
826.6709	638.8889	65535	64602.4
826.8156	641.0056	65535	64602.7
826.9603	643.1216	65535	64604.6
827.105	645.237	65535	64600.25
827.2497	647.3518	65535	64613
827.3944	649.4659	65535	64615.1
827.5391	651.5793	65535	64616.6
827.6838	653.6922	65535	64611.7
827.8285	655.8043	65535	64609.15
827.9733	657.9159	65535	64604.35
828.118	660.0268	65535	64607.05
828.2627	662.137	65535	64605.75
828.4075	664.2466	65535	64600.6
828.5522	666.3556	65535	64603.15
828.697	668.4639	65535	64606.25
828.8418	670.5716	65535	64612.05
828.9865	672.6786	65535	64604.05
829.1313	674.785	65535	64602.85
829.2761	676.8907	65535	64604.9
829.4209	678.9958	65535	64614.3
829.5657	681.1002	65535	64606.95
829.7105	683.204	65535	64596.6
829.8553	685.3072	65535	64605.05
830.0001	687.4097	65535	64602.65
830.1449	689.5115	65535	64601
830.2898	691.6127	65535	64605.9
830.4346	693.7132	65535	64609.25
830.5794	695.8131	65535	64588.75
830.7243	697.9123	65535	64600.15
830.8691	700.0109	65535	64598.9
831.014	702.1089	65535	64602.2
831.1588	704.2061	65535	64604.25
831.3037	706.3028	65535	64596.9
831.4486	708.3987	65535	64598.7
831.5935	710.4941	65535	64600.35
831.7383	712.5887	65535	64605.65
831.8832	714.6827	65535	64600.3
832.0281	716.7761	65535	64604.9
832.173	718.8688	65535	64605.25
832.3179	720.9608	65535	64594.35
832.4628	723.0522	65535	64590
832.6077	725.1429	65535	64596.7
832.7527	727.233	65535	64597.3
832.8976	729.3224	65535	64600.75
833.0425	731.4112	65535	64599.65
833.1874	733.4993	65535	64599.6
833.3324	735.5867	65535	64599.7
833.4773	737.6735	65535	64599.25
833.6222	739.7596	65535	64596.05
833.7672	741.845	65535	64598.45
833.9122	743.9298	65535	64596.95
834.0571	746.014	65535	64599.85
834.2021	748.0974	65535	64595.15
834.347	750.1802	65535	64594
834.492	752.2624	65535	64595
834.637	754.3439	65535	64591.7
834.782	756.4247	65535	64588.5
834.9269	758.5048	65535	64596.85
835.0719	760.5843	65535	64592.35
835.2169	762.6631	65535	64595.05
835.3619	764.7413	65535	64598.95
835.5069	766.8188	65535	64592.9
835.6519	768.8956	65535	64596.95
835.7969	770.9718	65535	64598.3
835.9419	773.0473	65535	64599.75
836.0869	775.1221	65535	64597.75
836.232	777.1962	65535	64592.45
836.377	779.2697	65535	64593.75
836.522	781.3426	65535	64573.15
836.667	783.4147	65535	64590.5
836.8121	785.4862	65535	64596.4
836.9571	787.557	65535	64595.1
837.1021	789.6271	65535	64591.85
837.2472	791.6966	65535	64592.75
837.3922	793.7654	65535	64592.6
837.5373	795.8335	65535	64595.8
837.6823	797.901	65535	64596.65
837.8274	799.9678	65535	64593.05
837.9724	802.0339	65535	64593.65
838.1175	804.0993	65535	64585.6
838.2626	806.1641	65535	64592.3
838.4076	808.2282	65535	64596.75
838.5527	810.2916	65535	64593.8
838.6978	812.3544	65535	64596.2
838.8428	814.4164	65535	64592.75
838.9879	816.4778	65535	64588.8
839.133	818.5385	65535	64594.45
839.2781	820.5986	65535	64592.65
839.4232	822.658	65535	64587.2
839.5682	824.7166	65535	64592
839.7133	826.7747	65535	64593
839.8584	828.832	65535	64592.4
840.0035	830.8886	65535	64590.45
840.1486	832.9446	65535	64593.3
840.2937	834.9999	65535	64594.1
840.4388	837.0545	65535	64587.75
840.5839	839.1085	65535	64592.25
840.729	841.1618	65535	64589.35
840.8741	843.2143	65535	64595.25
841.0192	845.2662	65535	64594.7
841.1643	847.3175	65535	64590.75
841.3095	849.368	65535	64591.75
841.4546	851.4179	65535	64592.5
841.5997	853.467	65535	64592.05
841.7448	855.5155	65535	64590.9
841.8899	857.5633	65535	64591.75
842.0351	859.6105	65535	64591.55
842.1802	861.6569	65535	64592.2
842.3253	863.7027	65535	64589.15
842.4704	865.7478	65535	64592.2
842.6156	867.7922	65535	64592.8
842.7607	869.8359	65535	64589.35
842.9058	871.8789	65535	64593.3
843.0509	873.9212	65535	64556.85
843.1961	875.9629	65535	64589.5
843.3412	878.0039	65535	64591.55
843.4863	880.0441	65535	64594.85
843.6315	882.0837	65535	64591.8
843.7766	884.1226	65535	64587.95
843.9218	886.1609	65535	64594.4
844.0669	888.1984	65535	64587.8
844.212	890.2352	65535	64588.5
844.3572	892.2714	65535	64591.45
844.5023	894.3069	65535	64588.35
844.6475	896.3416	65535	64589.7
844.7926	898.3757	65535	64588.9
844.9377	900.4091	65535	64586.3
845.0829	902.4418	65535	64582.55
845.228	904.4739	65535	64585.7
845.3732	906.5052	65535	64585.3
845.5183	908.5358	65535	64587.9
845.6635	910.5658	65535	64587.7
845.8086	912.595	65535	64589.75
845.9538	914.6236	65535	64590.4
846.0989	916.6515	65535	64591.1
846.2441	918.6786	65535	64587.15
846.3892	920.7051	65535	64584.1
846.5344	922.7309	65535	64590.45
846.6795	924.756	65535	64585.6
846.8246	926.7804	65535	64589.55
846.9698	928.8041	65535	64587.6
847.1149	930.8272	65535	64592.65
847.2601	932.8495	65535	64585.35
847.4052	934.8711	65535	64587.35
847.5504	936.892	65535	64585.55
847.6955	938.9123	65535	64589.2
847.8407	940.9318	65535	64588.75
847.9858	942.9506	65535	64589.05
848.131	944.9688	65535	64586.8
848.2761	946.9862	65535	64588.95
848.4213	949.003	65535	64590.45
848.5664	951.019	65535	64587.15
848.7115	953.0344	65535	64591.5
848.8567	955.0491	65535	64584.25
849.0018	957.063	65535	64591
849.147	959.0763	65535	64581.05
849.2921	961.0888	65529.95	64581.7
849.4373	963.1007	65535	64589.95
849.5824	965.1119	65535	64597.25
849.7275	967.1223	65528.4	64593.05
849.8727	969.1321	65535	64599.35
850.0178	971.1412	65513.7	64574.85
850.1629	973.1495	65488.05	64547.15
850.3081	975.1572	65528.15	64527.85
850.4532	977.1641	65486.85	64541.6
850.5983	979.1704	65504.1	64558.05
850.7435	981.1759	65499.85	64551.2
850.8886	983.1808	65462.9	64513.1
851.0337	985.1849	65473.5	64516.05
851.1788	987.1884	65491.35	64548.75
851.324	989.1911	65513.4	64566.5
851.4691	991.1932	65328.1	64382.8
851.6142	993.1945	65432.75	64489.4
851.7593	995.1951	65478.85	64533.05
851.9045	997.1951	65340.5	64389.3
852.0496	999.1943	65299.95	64352.5
852.1947	1001.1928	65178.5	64230.9
852.3398	1003.1906	65286.05	64343.4
852.4849	1005.1877	64849.1	63902.75
852.63	1007.1841	64782.7	63838.9
852.7751	1009.1798	64817.15	63874.8
852.9202	1011.1748	64749.8	63807.2
853.0653	1013.1691	64675.15	63731.6
853.2104	1015.1627	62745	61801.1
853.3555	1017.1556	63917.5	62974.35
853.5006	1019.1477	64033.85	63091.25
853.6457	1021.1392	63180.55	62245.7
853.7908	1023.1299	61906.6	60970.45
853.9359	1025.12	62907.5	61973.35
854.081	1027.1093	62259.15	61338.3
854.2261	1029.0979	62194.8	61274.7
854.3712	1031.0859	62003.25	61077.95
854.5163	1033.0731	61013	60077.6
854.6613	1035.0596	61528.1	60588
854.8064	1037.0454	61223.4	60281.5
854.9515	1039.0304	60725.25	59784
855.0965	1041.0148	59496.7	58555.25
855.2416	1042.9985	59792.3	58850.4
855.3867	1044.9814	60503.3	59562.3
855.5317	1046.9636	59250.35	58308.1
855.6768	1048.9452	59429.35	58489.95
855.8219	1050.926	59117.25	58180.35
855.9669	1052.9061	59130.1	58191.2
856.112	1054.8855	59172.65	58231.5
856.257	1056.8642	58569.4	57629.45
856.4021	1058.8421	58198.55	57257.35
856.5471	1060.8194	58251.5	57310.9
856.6921	1062.7959	57799.65	56858.1
856.8372	1064.7717	58305.2	57360.95
856.9822	1066.7469	57898.45	56956.35
857.1272	1068.7213	57890.35	56945.6
857.2723	1070.695	57466.45	56523.9
857.4173	1072.6679	56838.1	55895.8
857.5623	1074.6402	57123.35	56184
857.7073	1076.6117	56607.9	55661.15
857.8523	1078.5826	56637.05	55695.25
857.9973	1080.5527	56715.8	55767.65
858.1423	1082.5221	56420	55477.5
858.2873	1084.4908	56712.8	55773.3
858.4323	1086.4587	56605.5	55662.7
858.5773	1088.426	56655.3	55715.45
858.7223	1090.3925	56464.1	55517.8
858.8673	1092.3584	56274.4	55332.2
859.0123	1094.3235	55641.25	54698.8
859.1573	1096.2879	55502.9	54558.6
859.3022	1098.2515	55457.35	54515
859.4472	1100.2145	55205.8	54266.8
859.5922	1102.1767	55062.15	54119.65
859.7371	1104.1382	55248.75	54310.85
859.8821	1106.099	55130.65	54187.45
860.027	1108.0591	55081.45	54140.25
860.172	1110.0185	54629.3	53688.3
860.3169	1111.9771	55025.8	54083.55
860.4619	1113.9351	54453.5	53511.65
860.6068	1115.8923	53915.3	52970.95
860.7517	1117.8488	53413.85	52473.25
860.8967	1119.8045	52768.8	51830
861.0416	1121.7596	52702.35	51761.3
861.1865	1123.7139	52277.65	51338.9
861.3314	1125.6675	52218.75	51279.45
861.4763	1127.6204	52227.9	51292.35
861.6212	1129.5726	51866.05	50924.7
861.7661	1131.524	51941.45	50998.85
861.911	1133.4748	52043.1	51104.85
862.0559	1135.4248	51772.35	50831.85
862.2008	1137.3741	51713.75	50775.85
862.3457	1139.3226	51529.55	50587.1
862.4905	1141.2705	51433.5	50495.55
862.6354	1143.2176	51100.15	50156.6
862.7803	1145.164	50956.7	50014.8
862.9251	1147.1097	50816.9	49876.2
863.07	1149.0546	50757.85	49815.35
863.2148	1150.9989	50655.8	49716.55
863.3597	1152.9424	50334.45	49394.4
863.5045	1154.8852	50056.65	49117.4
863.6493	1156.8272	49748.2	48809.7
863.7942	1158.7686	49676.75	48730.5
863.939	1160.7092	49308.7	48365.55
864.0838	1162.6491	49049.05	48106.9
864.2286	1164.5883	49151.1	48212.5
864.3734	1166.5267	49014.05	48072.45
864.5182	1168.4644	49079.65	48139.85
864.663	1170.4014	49097.4	48151.05
864.8078	1172.3377	49310.05	48372.9
864.9526	1174.2732	49469.25	48530.65
865.0974	1176.2081	49399	48459.9
865.2421	1178.1421	49401	48460.4
865.3869	1180.0755	49583.05	48643
865.5317	1182.0082	49257.75	48317.9
865.6764	1183.9401	49119	48182.45
865.8212	1185.8713	48700.95	47770.35
865.9659	1187.8017	48406.75	47482.95
866.1106	1189.7315	48079.95	47157.45
866.2554	1191.6605	47537	46613.75
866.4001	1193.5888	47172.6	46246.95
866.5448	1195.5163	47015.7	46083.1
866.6895	1197.4432	46738.25	45804.7
866.8342	1199.3693	46501.15	45566.95
866.9789	1201.2947	46200	45256.95
867.1236	1203.2193	46034.85	45096.75
867.2683	1205.1432	45916.2	44980.7
867.413	1207.0664	45824.4	44887.5
867.5576	1208.9889	45713.45	44773.85
867.7023	1210.9106	45561.75	44626.7
867.847	1212.8316	45475.8	44541.25
867.9916	1214.7519	45529.4	44584.15
868.1363	1216.6715	45283.45	44344.05
868.2809	1218.5903	45249.45	44315.55
868.4255	1220.5084	45005.6	44067.65
868.5701	1222.4257	44936.75	44001.45
868.7148	1224.3424	44547.45	43613.6
868.8594	1226.2583	44509.3	43573.4
869.004	1228.1735	44463.55	43529.05
869.1486	1230.0879	44359.3	43424.1
869.2932	1232.0016	44355.3	43421.15
869.4377	1233.9146	44233.5	43295.5
