Software Version:	3.9.2.0
Unit SN:	10000200
Spectrometer SN:	6960
Date:	3/26/2024 2:36:29 PM
Data Line Index:	25
Spectral Points:	2048
Integration time (ms):	125
Averages:	20
Delay (ms):	30000
Sequence Number:	1
Processing:	dark subtract
Laser Power (mW):	305
Laser Current (mA):	821
Laser Diode Temp (C):	25
Laser Case Temp (C):	27.8
System Temp (C):	27.9
Spectrometer Temp (C):	25.8
CCD Temp (C):	0.004
Secondary Temp (C):	20.01
Heatsink Temp (C):	23.531
CCDPCB Temp (C):	37.23
SecondaryPCB Temp (C):	34.284

Wavelength	RamanShift	Raw Counts	Dark Subtracted
787.061	30.1047	672.25	262.65
787.2016	32.3739	684.75	275.7
787.3422	34.6426	707.9	297.5
787.4828	36.9109	723.6	311.4
787.6235	39.1787	745.3	329.05
787.7642	41.4461	778.1	357.3
787.9049	43.7131	806.7	381.8
788.0456	45.9796	831.75	404.45
788.1863	48.2456	861.15	429.8
788.3271	50.5112	891.05	455.65
788.4679	52.7764	915.95	478.2
788.6087	55.0411	955.1	512.95
788.7496	57.3054	989.75	540.35
788.8904	59.5692	1025.7	575.35
789.0313	61.8326	1067.85	614.7
789.1722	64.0955	1111.9	654.15
789.3132	66.3579	1171.65	708.85
789.4541	68.6199	1237.45	772.75
789.5951	70.8815	1342.65	876.4
789.7361	73.1426	1570.25	1098.55
789.8771	75.4032	2131.7	1654.3
790.0181	77.6634	3568.8	3085
790.1592	79.9231	7164.6	6672
790.3003	82.1824	15466.65	14955.6
790.4414	84.4412	37323.9	36781.6
790.5825	86.6995	64681.9	64094.9
790.7237	88.9574	65535	64907.2
790.8648	91.2148	65535	64874.65
791.006	93.4717	65535	64855.55
791.1472	95.7282	65535	64848.9
791.2885	97.9842	65535	64841.75
791.4297	100.2398	65535	64841.95
791.571	102.4949	65535	64837.6
791.7123	104.7495	65535	64834.8
791.8536	107.0036	65535	64832.35
791.9949	109.2573	65535	64832.9
792.1363	111.5105	65535	64830.15
792.2777	113.7632	65535	64829.55
792.4191	116.0154	65535	64819.85
792.5605	118.2672	65535	64823.95
792.7019	120.5185	65535	64824.75
792.8434	122.7693	65535	64818.4
792.9849	125.0197	65535	64820.2
793.1264	127.2696	65535	64816.6
793.2679	129.519	65535	64809.95
793.4094	131.7679	65535	64807.1
793.551	134.0163	65535	64801.65
793.6926	136.2642	65535	64800.95
793.8342	138.5117	65535	64796.6
793.9758	140.7587	65535	64797.55
794.1175	143.0052	65535	64793.4
794.2591	145.2512	65535	64794.3
794.4008	147.4967	65535	64794.95
794.5425	149.7417	65535	64793.65
794.6842	151.9863	65535	64789.3
794.826	154.2304	65535	64784.05
794.9677	156.4739	65535	64781.55
795.1095	158.717	65535	64784.45
795.2513	160.9596	65535	64778.3
795.3931	163.2017	65535	64772.4
795.535	165.4433	65535	64769.95
795.6768	167.6844	65535	64768.1
795.8187	169.925	65535	64766.9
795.9606	172.1651	65535	64772.55
796.1025	174.4047	65535	64769.4
796.2445	176.6439	65535	64768.9
796.3864	178.8825	65535	64758.25
796.5284	181.1206	65535	64755.15
796.6704	183.3582	65535	64750.05
796.8124	185.5954	65535	64747.95
796.9544	187.832	65535	64747.95
797.0965	190.0681	65535	64739.95
797.2386	192.3037	65535	64742.6
797.3806	194.5388	65535	64736.95
797.5228	196.7734	65535	64734.05
797.6649	199.0075	65535	64734.15
797.807	201.2411	65535	64728.95
797.9492	203.4742	65535	64730
798.0914	205.7068	65535	64729.15
798.2336	207.9389	65535	64725.85
798.3758	210.1704	65535	64724.9
798.518	212.4015	65535	64721.35
798.6603	214.632	65535	64724.55
798.8025	216.862	65535	64736.4
798.9448	219.0915	65535	64740.75
799.0871	221.3205	65535	64745.35
799.2294	223.549	65535	64742.85
799.3718	225.777	65535	64745.4
799.5141	228.0044	65535	64742.85
799.6565	230.2314	65535	64747.5
799.7989	232.4578	65535	64742.3
799.9413	234.6837	65535	64736.85
800.0837	236.909	65535	64738.2
800.2262	239.1339	65535	64709.35
800.3687	241.3582	65535	64719.1
800.5111	243.582	65535	64688.25
800.6536	245.8053	65535	64708.95
800.7961	248.0281	65535	64705.9
800.9387	250.2503	65535	64703.9
801.0812	252.472	65535	64701.15
801.2238	254.6932	65535	64699.75
801.3664	256.9139	65535	64703.75
801.509	259.134	65535	64693.3
801.6516	261.3536	65535	64695.6
801.7942	263.5727	65535	64692.8
801.9369	265.7912	65535	64696.05
802.0795	268.0092	65535	64692.7
802.2222	270.2267	65535	64695.9
802.3649	272.4436	65535	64693.75
802.5076	274.6601	65535	64684.4
802.6504	276.8759	65535	64691.6
802.7931	279.0913	65535	64690.25
802.9359	281.3061	65535	64685.2
803.0787	283.5204	65535	64687.15
803.2215	285.7341	65535	64679.4
803.3643	287.9473	65535	64672.15
803.5071	290.16	65535	64677.1
803.6499	292.3721	65535	64680.3
803.7928	294.5837	65535	64676.35
803.9357	296.7947	65535	64677.5
804.0786	299.0052	65535	64681.15
804.2215	301.2152	65535	64677.5
804.3644	303.4246	65535	64682.6
804.5074	305.6334	65535	64685.4
804.6503	307.8418	65535	64679.8
804.7933	310.0495	65535	64678.95
804.9363	312.2568	65535	64677.15
805.0793	314.4635	65535	64673.55
805.2223	316.6696	65535	64675.7
805.3653	318.8752	65535	64667.7
805.5084	321.0802	65535	64670.1
805.6514	323.2847	65535	64672.55
805.7945	325.4887	65535	64675.4
805.9376	327.692	65535	64666.35
806.0807	329.8949	65535	64667.45
806.2238	332.0972	65535	64668.75
806.367	334.2989	65535	64665.8
806.5101	336.5001	65535	64665.6
806.6533	338.7007	65535	64663.2
806.7965	340.9008	65535	64663.55
806.9397	343.1003	65535	64661.1
807.0829	345.2992	65535	64656.65
807.2261	347.4976	65535	64659.1
807.3693	349.6955	65535	64653.7
807.5126	351.8927	65535	64655.15
807.6559	354.0895	65535	64641.3
807.7991	356.2856	65535	64654.25
807.9424	358.4812	65535	64653.75
808.0857	360.6763	65535	64652.65
808.2291	362.8707	65535	64653.55
808.3724	365.0646	65535	64647.65
808.5158	367.258	65535	64647.65
808.6591	369.4508	65535	64647.8
808.8025	371.643	65535	64645.8
808.9459	373.8346	65535	64638.45
809.0893	376.0257	65535	64638.85
809.2327	378.2162	65535	64639.85
809.3762	380.4062	65535	64640.7
809.5196	382.5956	65535	64639.5
809.6631	384.7844	65535	64642.7
809.8066	386.9726	65535	64637.7
809.9501	389.1603	65535	64642.45
810.0936	391.3474	65535	64597.65
810.2371	393.5339	65535	64641.7
810.3806	395.7199	65535	64645.05
810.5241	397.9052	65535	64649.9
810.6677	400.09	65535	64647.15
810.8113	402.2743	65535	64650.85
810.9548	404.4579	65535	64654.3
811.0984	406.641	65535	64647.85
811.2421	408.8235	65535	64650.6
811.3857	411.0054	65535	64644
811.5293	413.1868	65535	64643.85
811.673	415.3675	65535	64645.95
811.8166	417.5477	65535	64643.3
811.9603	419.7273	65535	64640.25
812.104	421.9064	65535	64634.45
812.2477	424.0848	65535	64639.8
812.3914	426.2627	65535	64636.1
812.5351	428.4399	65535	64636.05
812.6788	430.6166	65535	64629.35
812.8226	432.7928	65535	64631.05
812.9663	434.9683	65535	64636.45
813.1101	437.1432	65535	64634.5
813.2539	439.3176	65535	64638.75
813.3977	441.4914	65535	64638.8
813.5415	443.6645	65535	64635.1
813.6853	445.8371	65535	64629.8
813.8291	448.0091	65535	64629.85
813.973	450.1806	65535	64636.4
814.1168	452.3514	65535	64634.85
814.2607	454.5216	65535	64629.85
814.4046	456.6913	65535	64633.85
814.5485	458.8603	65535	64637.75
814.6924	461.0288	65535	64636
814.8363	463.1967	65535	64637.4
814.9802	465.3639	65535	64633.6
815.1241	467.5306	65535	64633.65
815.2681	469.6967	65535	64634.75
815.412	471.8622	65535	64637.45
815.556	474.0271	65535	64634.1
815.7	476.1914	65535	64628.65
815.844	478.3551	65535	64630.3
815.988	480.5182	65535	64635.9
816.132	482.6807	65535	64638.7
816.276	484.8426	65535	64644.4
816.4201	487.0039	65535	64635.65
816.5641	489.1647	65535	64632.95
816.7082	491.3248	65535	64627.6
816.8522	493.4843	65535	64632.6
816.9963	495.6432	65535	64631.05
817.1404	497.8015	65535	64626.2
817.2845	499.9592	65535	64621.9
817.4286	502.1163	65535	64622.6
817.5727	504.2728	65535	64628.9
817.7168	506.4287	65535	64638.9
817.861	508.5839	65535	64637.3
818.0051	510.7386	65535	64630.45
818.1493	512.8927	65535	64617.05
818.2935	515.0461	65535	64627.25
818.4377	517.199	65535	64618.75
818.5818	519.3512	65535	64622.7
818.726	521.5029	65535	64620.25
818.8703	523.6539	65535	64627.1
819.0145	525.8043	65535	64625
819.1587	527.9541	65535	64618
819.303	530.1033	65535	64624.1
819.4472	532.2519	65535	64623.9
819.5915	534.3999	65535	64621.3
819.7357	536.5472	65535	64625.4
819.88	538.694	65535	64624.45
820.0243	540.8401	65535	64618
820.1686	542.9856	65535	64612.85
820.3129	545.1305	65535	64609.4
820.4572	547.2748	65535	64606.75
820.6016	549.4185	65535	64607.5
820.7459	551.5615	65535	64604.4
820.8902	553.704	65535	64611.25
821.0346	555.8458	65535	64613.3
821.1789	557.987	65535	64616.35
821.3233	560.1276	65535	64610
821.4677	562.2675	65535	64607.35
821.6121	564.4069	65535	64612.3
821.7565	566.5456	65535	64612.85
821.9009	568.6837	65535	64616
822.0453	570.8212	65535	64616.7
822.1897	572.958	65535	64615.75
822.3342	575.0942	65535	64621.5
822.4786	577.2299	65535	64624.35
822.6231	579.3648	65535	64631.5
822.7675	581.4992	65535	64638.05
822.912	583.6329	65535	64637.75
823.0565	585.766	65535	64633.55
823.201	587.8985	65535	64627.85
823.3454	590.0304	65535	64596.25
823.4899	592.1616	65535	64616.3
823.6345	594.2922	65535	64614.5
823.779	596.4222	65535	64612.2
823.9235	598.5515	65535	64613.65
824.068	600.6802	65535	64609.85
824.2126	602.8083	65535	64615.8
824.3571	604.9358	65535	64612.6
824.5017	607.0626	65535	64611.15
824.6462	609.1888	65535	64599.7
824.7908	611.3144	65535	64603.1
824.9354	613.4393	65535	64601.85
825.08	615.5636	65535	64601.7
825.2246	617.6873	65535	64610.9
825.3692	619.8103	65535	64607.1
825.5138	621.9327	65535	64611.45
825.6584	624.0544	65535	64612.6
825.803	626.1756	65535	64613.8
825.9477	628.2961	65535	64608.15
826.0923	630.4159	65535	64607.1
826.237	632.5351	65535	64608.55
826.3816	634.6537	65535	64607.7
826.5263	636.7716	65535	64602.75
826.6709	638.8889	65535	64602.75
826.8156	641.0056	65535	64598.5
826.9603	643.1216	65535	64601.3
827.105	645.237	65535	64601.75
827.2497	647.3518	65535	64607.3
827.3944	649.4659	65535	64614.85
827.5391	651.5793	65535	64610.65
827.6838	653.6922	65535	64612.55
827.8285	655.8043	65535	64610.65
827.9733	657.9159	65535	64609.5
828.118	660.0268	65535	64607.35
828.2627	662.137	65535	64606.55
828.4075	664.2466	65535	64600.4
828.5522	666.3556	65535	64604.55
828.697	668.4639	65535	64605.65
828.8418	670.5716	65535	64608.95
828.9865	672.6786	65535	64602.65
829.1313	674.785	65535	64598.8
829.2761	676.8907	65535	64607.3
829.4209	678.9958	65535	64609.7
829.5657	681.1002	65535	64610
829.7105	683.204	65535	64597.15
829.8553	685.3072	65535	64598.65
830.0001	687.4097	65535	64604.85
830.1449	689.5115	65535	64598.4
830.2898	691.6127	65535	64606.25
830.4346	693.7132	65535	64603.8
830.5794	695.8131	65535	64584.7
830.7243	697.9123	65535	64601.55
830.8691	700.0109	65535	64596.6
831.014	702.1089	65535	64602
831.1588	704.2061	65535	64601
831.3037	706.3028	65535	64596.9
831.4486	708.3987	65535	64599.8
831.5935	710.4941	65535	64602.55
831.7383	712.5887	65535	64603.35
831.8832	714.6827	65535	64596.45
832.0281	716.7761	65535	64602
832.173	718.8688	65535	64601.05
832.3179	720.9608	65535	64593.45
832.4628	723.0522	65535	64593.95
832.6077	725.1429	65535	64599.6
832.7527	727.233	65535	64597.5
832.8976	729.3224	65535	64596.75
833.0425	731.4112	65535	64599.15
833.1874	733.4993	65535	64595.5
833.3324	735.5867	65535	64599.95
833.4773	737.6735	65535	64599.15
833.6222	739.7596	65535	64594.9
833.7672	741.845	65535	64597.45
833.9122	743.9298	65535	64593.7
834.0571	746.014	65535	64599.15
834.2021	748.0974	65535	64595.8
834.347	750.1802	65535	64594
834.492	752.2624	65535	64590.25
834.637	754.3439	65535	64593.7
834.782	756.4247	65535	64584.8
834.9269	758.5048	65535	64593.9
835.0719	760.5843	65535	64596.45
835.2169	762.6631	65535	64592.55
835.3619	764.7413	65535	64595.6
835.5069	766.8188	65535	64592.65
835.6519	768.8956	65535	64591.55
835.7969	770.9718	65535	64595.75
835.9419	773.0473	65535	64597.4
836.0869	775.1221	65535	64595.65
836.232	777.1962	65535	64597.7
836.377	779.2697	65535	64591.95
836.522	781.3426	65535	64572.95
836.667	783.4147	65535	64592.55
836.8121	785.4862	65535	64596.4
836.9571	787.557	65535	64594.8
837.1021	789.6271	65535	64590.45
837.2472	791.6966	65535	64592.15
837.3922	793.7654	65535	64593
837.5373	795.8335	65535	64595.65
837.6823	797.901	65535	64595.1
837.8274	799.9678	65535	64590.6
837.9724	802.0339	65535	64595.45
838.1175	804.0993	65535	64581.25
838.2626	806.1641	65535	64593.35
838.4076	808.2282	65535	64594.75
838.5527	810.2916	65535	64591.75
838.6978	812.3544	65535	64597.4
838.8428	814.4164	65535	64595.9
838.9879	816.4778	65535	64585.4
839.133	818.5385	65535	64594.05
839.2781	820.5986	65535	64593.8
839.4232	822.658	65535	64590.7
839.5682	824.7166	65535	64594.95
839.7133	826.7747	65535	64592.35
839.8584	828.832	65535	64590.95
840.0035	830.8886	65535	64591.95
840.1486	832.9446	65535	64588.9
840.2937	834.9999	65535	64592.95
840.4388	837.0545	65535	64586.9
840.5839	839.1085	65535	64589.4
840.729	841.1618	65535	64589.7
840.8741	843.2143	65535	64591.25
841.0192	845.2662	65535	64589.4
841.1643	847.3175	65535	64594.3
841.3095	849.368	65535	64591.55
841.4546	851.4179	65535	64588.25
841.5997	853.467	65535	64591.4
841.7448	855.5155	65535	64588.55
841.8899	857.5633	65535	64590.85
842.0351	859.6105	65535	64591.65
842.1802	861.6569	65535	64590.9
842.3253	863.7027	65535	64591.15
842.4704	865.7478	65535	64587.6
842.6156	867.7922	65535	64593.6
842.7607	869.8359	65535	64588.5
842.9058	871.8789	65535	64591.35
843.0509	873.9212	65535	64557.6
843.1961	875.9629	65535	64588
843.3412	878.0039	65535	64587.8
843.4863	880.0441	65535	64594.85
843.6315	882.0837	65535	64591.6
843.7766	884.1226	65535	64588.7
843.9218	886.1609	65535	64593.55
844.0669	888.1984	65535	64590.5
844.212	890.2352	65535	64590
844.3572	892.2714	65535	64584.6
844.5023	894.3069	65535	64586.9
844.6475	896.3416	65535	64585.9
844.7926	898.3757	65535	64589.7
844.9377	900.4091	65519.7	64576.15
845.0829	902.4418	65535	64583.35
845.228	904.4739	65534.35	64585.95
845.3732	906.5052	65534.55	64588.75
845.5183	908.5358	65523.05	64571.65
845.6635	910.5658	65518.85	64571
845.8086	912.595	65519.3	64570.95
845.9538	914.6236	65450.45	64500
846.0989	916.6515	65533.95	64587.35
846.2441	918.6786	65440.9	64492.05
846.3892	920.7051	65485.7	64533.1
846.5344	922.7309	65448	64500.7
846.6795	924.756	65480.6	64533.75
846.8246	926.7804	65441.55	64494.35
846.9698	928.8041	65224.35	64275.1
847.1149	930.8272	65405.15	64457.2
847.2601	932.8495	65404.85	64461.45
847.4052	934.8711	65236.6	64285.55
847.5504	936.892	65023.4	64076.95
847.6955	938.9123	65170.45	64218.35
847.8407	940.9318	64972.7	64026.85
847.9858	942.9506	64915.15	63965.85
848.131	944.9688	64953.3	64005.8
848.2761	946.9862	64274.7	63329.35
848.4213	949.003	64626	63680.15
848.5664	951.019	63902.95	62955.9
848.7115	953.0344	64072.35	63125.7
848.8567	955.0491	63966.55	63020
849.0018	957.063	64264.7	63319.6
849.147	959.0763	64338.25	63387.1
849.2921	961.0888	63606.25	62656.45
849.4373	963.1007	64141	63195.4
849.5824	965.1119	64138.35	63196.95
849.7275	967.1223	63610.6	62674.75
849.8727	969.1321	64214.35	63280.55
850.0178	971.1412	63385.8	62447.75
850.1629	973.1495	63106.45	62162.25
850.3081	975.1572	63521.85	62538.85
850.4532	977.1641	63141.5	62192.45
850.5983	979.1704	63046.05	62098.7
850.7435	981.1759	63126.4	62173.45
850.8886	983.1808	62618.3	61675.65
851.0337	985.1849	62687.6	61731.95
851.1788	987.1884	62897.05	61950.05
851.324	989.1911	63341.35	62395.7
851.4691	991.1932	62055.75	61111.7
851.6142	993.1945	62398.6	61452.45
851.7593	995.1951	62736.6	61790.15
851.9045	997.1951	61972.1	61020.6
852.0496	999.1943	61706.1	60761.7
852.1947	1001.1928	61495.4	60550.85
852.3398	1003.1906	61708.45	60764.65
852.4849	1005.1877	60677.6	59730.95
852.63	1007.1841	60392.75	59448.6
852.7751	1009.1798	60380.15	59435.6
852.9202	1011.1748	60250.15	59303.6
853.0653	1013.1691	59973.8	59028.9
853.2104	1015.1627	58278.9	57333.8
853.3555	1017.1556	58739.45	57796.2
853.5006	1019.1477	58976.8	58031.8
853.6457	1021.1392	58175.95	57239.1
853.7908	1023.1299	57243.4	56306.9
853.9359	1025.12	57761.55	56828.6
854.081	1027.1093	57259.4	56337.55
854.2261	1029.0979	57238.9	56316.7
854.3712	1031.0859	57124.7	56200.05
854.5163	1033.0731	56299.15	55364.85
854.6613	1035.0596	56431.2	55493.95
854.8064	1037.0454	56215.2	55276.6
854.9515	1039.0304	55709.5	54769.35
855.0965	1041.0148	55025.8	54084.9
855.2416	1042.9985	55064.1	54119.65
855.3867	1044.9814	55203.9	54262.95
855.5317	1046.9636	54535.75	53590.65
855.6768	1048.9452	54477.8	53537.25
855.8219	1050.926	54342.45	53401.5
855.9669	1052.9061	54284.75	53342.65
856.112	1054.8855	54251.9	53311.7
856.257	1056.8642	53768.65	52827.75
856.4021	1058.8421	53638.3	52687.9
856.5471	1060.8194	53588.6	52646.6
856.6921	1062.7959	53379.2	52440.1
856.8372	1064.7717	53437.95	52496.9
856.9822	1066.7469	53175.3	52233.4
857.1272	1068.7213	53100.2	52156.05
857.2723	1070.695	52827.65	51883.45
857.4173	1072.6679	52341.25	51400.4
857.5623	1074.6402	52425.55	51485
857.7073	1076.6117	52191.05	51242.7
857.8523	1078.5826	52123.15	51178.05
857.9973	1080.5527	52036.7	51092.8
858.1423	1082.5221	51947.05	51004.2
858.2873	1084.4908	52095.75	51158.15
858.4323	1086.4587	52119.3	51177.1
858.5773	1088.426	52106.1	51163.15
858.7223	1090.3925	51932.45	50986.3
858.8673	1092.3584	51759	50815.1
859.0123	1094.3235	51240.05	50299.3
859.1573	1096.2879	50982	50041.95
859.3022	1098.2515	50838.95	49898
859.4472	1100.2145	50775	49835.85
859.5922	1102.1767	50580.3	49635.45
859.7371	1104.1382	50673.35	49735.4
859.8821	1106.099	50675.6	49730.85
860.027	1108.0591	50632.3	49692.55
860.172	1110.0185	50465.1	49520.55
860.3169	1111.9771	50506.3	49566.25
860.4619	1113.9351	50027.15	49082.65
860.6068	1115.8923	49440.65	48498.55
860.7517	1117.8488	48996.3	48053.5
860.8967	1119.8045	48419.85	47481.8
861.0416	1121.7596	48300.95	47361.7
861.1865	1123.7139	48029.25	47090.55
861.3314	1125.6675	47940.6	47003.1
861.4763	1127.6204	47930.85	46991.5
861.6212	1129.5726	47727.6	46784.55
861.7661	1131.524	47690.3	46748.05
861.911	1133.4748	47717.05	46778
862.0559	1135.4248	47544.05	46604.8
862.2008	1137.3741	47448.45	46507.7
862.3457	1139.3226	47284.35	46345.05
862.4905	1141.2705	47165.4	46224.55
862.6354	1143.2176	46868.65	45923.25
862.7803	1145.164	46762.7	45820.25
862.9251	1147.1097	46697.15	45758.6
863.07	1149.0546	46611.45	45666.2
863.2148	1150.9989	46466.65	45527.9
863.3597	1152.9424	46248.85	45312.3
863.5045	1154.8852	45895.05	44954.15
863.6493	1156.8272	45659	44719.45
863.7942	1158.7686	45563.25	44615.3
863.939	1160.7092	45226.65	44283.5
864.0838	1162.6491	45046.85	44104.2
864.2286	1164.5883	45060.25	44118.5
864.3734	1166.5267	44961.35	44021.5
864.5182	1168.4644	44989.95	44050.3
864.663	1170.4014	45075.8	44132.35
864.8078	1172.3377	45265.45	44328.65
864.9526	1174.2732	45341.05	44403.4
865.0974	1176.2081	45464.55	44526.55
865.2421	1178.1421	45530.6	44587.8
865.3869	1180.0755	45513.8	44577.25
865.5317	1182.0082	45329.85	44393.9
865.6764	1183.9401	45139.25	44201.85
865.8212	1185.8713	44757.85	43823.05
865.9659	1187.8017	44411.7	43482.35
866.1106	1189.7315	44137.55	43216.6
866.2554	1191.6605	43597.2	42676.95
866.4001	1193.5888	43240.95	42315.45
866.5448	1195.5163	43025.4	42097
866.6895	1197.4432	42772.6	41838.5
866.8342	1199.3693	42700.1	41766.3
866.9789	1201.2947	42377.1	41433.75
867.1236	1203.2193	42163.15	41229.4
867.2683	1205.1432	42124.5	41186.75
867.413	1207.0664	41992.4	41058.15
867.5576	1208.9889	41996.15	41060.2
867.7023	1210.9106	41846.25	40908.35
867.847	1212.8316	41724.4	40787.95
867.9916	1214.7519	41732.6	40790.2
868.1363	1216.6715	41594.95	40660.55
868.2809	1218.5903	41474.25	40538.75
868.4255	1220.5084	41304.75	40370.15
868.5701	1222.4257	41263.1	40331.65
868.7148	1224.3424	40854.3	39923.55
868.8594	1226.2583	40820.9	39884
869.004	1228.1735	40808.45	39870.95
