Software Version:	3.9.2.0
Unit SN:	10000200
Spectrometer SN:	6960
Date:	3/26/2024 1:24:25 PM
Data Line Index:	25
Spectral Points:	2048
Integration time (ms):	125
Averages:	20
Delay (ms):	30000
Sequence Number:	1
Processing:	dark subtract
Laser Power (mW):	300
Laser Current (mA):	821
Laser Diode Temp (C):	25.1
Laser Case Temp (C):	26.7
System Temp (C):	26.6
Spectrometer Temp (C):	24.4
CCD Temp (C):	0.007
Secondary Temp (C):	20.013
Heatsink Temp (C):	22.177
CCDPCB Temp (C):	36.451
SecondaryPCB Temp (C):	33.817

Wavelength	RamanShift	Raw Counts	Dark Subtracted
787.061	30.1047	477.4	65
787.2016	32.3739	478.2	68.55
787.3422	34.6426	486.15	75.85
787.4828	36.9109	492	79
787.6235	39.1787	500.5	85
787.7642	41.4461	510.85	90.3
787.9049	43.7131	520.2	95.8
788.0456	45.9796	529.05	101.45
788.1863	48.2456	539.05	107.15
788.3271	50.5112	550.35	116.2
788.4679	52.7764	557.15	118.65
788.6087	55.0411	568.15	125.85
788.7496	57.3054	583.3	137.05
788.8904	59.5692	593.75	145.55
789.0313	61.8326	606.55	155.55
789.1722	64.0955	620.35	164.15
789.3132	66.3579	643.15	181.65
789.4541	68.6199	660.5	196.65
789.5951	70.8815	694.95	227.25
789.7361	73.1426	768.1	299.35
789.8771	75.4032	953.55	478.85
790.0181	77.6634	1417.25	935.9
790.1592	79.9231	2501.8	2017.5
790.3003	82.1824	4882.45	4392.05
790.4414	84.4412	9240.7	8740.85
790.5825	86.6995	15387.05	14872.75
790.7237	88.9574	21531.2	21008.3
790.8648	91.2148	26109.55	25576.45
791.006	93.4717	28580.7	28043.4
791.1472	95.7282	29542.6	28999.35
791.2885	97.9842	29987.45	29443.25
791.4297	100.2398	29979.65	29431.3
791.571	102.4949	29928.15	29378.6
791.7123	104.7495	29783.4	29228.4
791.8536	107.0036	29543.3	28989.45
791.9949	109.2573	29453.45	28899.55
792.1363	111.5105	29330	28773
792.2777	113.7632	29166.55	28609.2
792.4191	116.0154	29111.55	28542
792.5605	118.2672	29145.7	28582.25
792.7019	120.5185	29115	28552.3
792.8434	122.7693	29131.15	28561
792.9849	125.0197	29132	28562.75
793.1264	127.2696	29086.8	28513.8
793.2679	129.519	29170.55	28595.8
793.4094	131.7679	29144.95	28566.95
793.551	134.0163	29170.55	28584.6
793.6926	136.2642	29103.3	28516.05
793.8342	138.5117	29055.75	28457.45
793.9758	140.7587	28944	28355.35
794.1175	143.0052	28965.05	28370.7
794.2591	145.2512	28801.85	28207.65
794.4008	147.4967	28752.95	28158.3
794.5425	149.7417	28699.25	28103.7
794.6842	151.9863	28620.1	28021.05
794.826	154.2304	28650.6	28047.45
794.9677	156.4739	28470.8	27860.75
795.1095	158.717	28500.25	27892.8
795.2513	160.9596	28467.2	27850.65
795.3931	163.2017	28368.5	27749.2
795.535	165.4433	28318.95	27702.65
795.6768	167.6844	28197.7	27577
795.8187	169.925	28165.45	27541.05
795.9606	172.1651	27981.1	27352.55
796.1025	174.4047	27994.45	27365.35
796.2445	176.6439	27895.55	27262.3
796.3864	178.8825	27814.3	27177.15
796.5284	181.1206	27828.05	27190
796.6704	183.3582	27810.9	27169.05
796.8124	185.5954	27760.05	27116.45
796.9544	187.832	27771.55	27123.9
797.0965	190.0681	27784	27133.3
797.2386	192.3037	27863.45	27208.7
797.3806	194.5388	27811.95	27154.6
797.5228	196.7734	27867.35	27207.2
797.6649	199.0075	27876.9	27214.3
797.807	201.2411	27980.8	27314.85
797.9492	203.4742	28001.45	27340
798.0914	205.7068	28134.65	27469.3
798.2336	207.9389	28098.25	27429.75
798.3758	210.1704	28196.6	27524.65
798.518	212.4015	28167.35	27492.3
798.6603	214.632	28233.35	27561.3
798.8025	216.862	28251.8	27587.6
798.9448	219.0915	28243.05	27588.7
799.0871	221.3205	28290.6	27633.45
799.2294	223.549	28336.55	27685.1
799.3718	225.777	28372.85	27720.15
799.5141	228.0044	28358	27703.25
799.6565	230.2314	28459.75	27804.95
799.7989	232.4578	28405.95	27751.4
799.9413	234.6837	28430.15	27766.4
800.0837	236.909	28508.5	27841.4
800.2262	239.1339	28522.95	27833.3
800.3687	241.3582	28529.85	27855.1
800.5111	243.582	28461.65	27754.3
800.6536	245.8053	28483.35	27788.4
800.7961	248.0281	28432.8	27743.75
800.9387	250.2503	28436.3	27745.05
801.0812	252.472	28467	27767.05
801.2238	254.6932	28473.7	27772.35
801.3664	256.9139	28451.4	27749.25
801.509	259.134	28448.1	27743.2
801.6516	261.3536	28443.55	27740.25
801.7942	263.5727	28554.1	27849.55
801.9369	265.7912	28519.15	27815.6
802.0795	268.0092	28603.8	27899.45
802.2222	270.2267	28634.95	27928.65
802.3649	272.4436	28675.85	27968.1
802.5076	274.6601	28665	27949.65
802.6504	276.8759	28623.65	27912.5
802.7931	279.0913	28644.85	27930.2
802.9359	281.3061	28609.35	27891.85
803.0787	283.5204	28665.75	27945.35
803.2215	285.7341	28643.45	27922.2
803.3643	287.9473	28650.05	27917.75
803.5071	290.16	28671.85	27944.85
803.6499	292.3721	28593.5	27868.55
803.7928	294.5837	28645.8	27923.2
803.9357	296.7947	28604.2	27881.7
804.0786	299.0052	28615.25	27890.65
804.2215	301.2152	28600.15	27873.1
804.3644	303.4246	28595.65	27872.7
804.5074	305.6334	28498.95	27777.65
804.6503	307.8418	28415.2	27689.55
804.7933	310.0495	28359.7	27631.65
804.9363	312.2568	28217.7	27488.5
805.0793	314.4635	28073.45	27345.7
805.2223	316.6696	27971.4	27236.5
805.3653	318.8752	27803.25	27062.8
805.5084	321.0802	27720.75	26987.45
805.6514	323.2847	27781.25	27047.85
805.7945	325.4887	27747.85	27012.55
805.9376	327.692	27659.8	26920.8
806.0807	329.8949	27780.4	27041.05
806.2238	332.0972	27697.65	26958.15
806.367	334.2989	27683.9	26940.65
806.5101	336.5001	27546.35	26801.8
806.6533	338.7007	27552.8	26809.2
806.7965	340.9008	27522.55	26773.6
806.9397	343.1003	27453.45	26706.1
807.0829	345.2992	27440.35	26691.7
807.2261	347.4976	27401.9	26651.95
807.3693	349.6955	27320.35	26564.85
807.5126	351.8927	27360.95	26607.3
807.6559	354.0895	27253.5	26488.6
807.7991	356.2856	27266.3	26506.4
807.9424	358.4812	27225.65	26469.5
808.0857	360.6763	27243.75	26484.8
808.2291	362.8707	27166.85	26405
808.3724	365.0646	27248.2	26487.4
808.5158	367.258	27194	26432.7
808.6591	369.4508	27098.95	26330.9
808.8025	371.643	27136.35	26369.55
808.9459	373.8346	27089.35	26318.25
809.0893	376.0257	27057.6	26282.3
809.2327	378.2162	27020	26247.2
809.3762	380.4062	27016.35	26240.4
809.5196	382.5956	26966.15	26188.85
809.6631	384.7844	26898.65	26120.3
809.8066	386.9726	26793.5	26014.6
809.9501	389.1603	26741.5	25965.9
810.0936	391.3474	26712.4	25903.35
810.2371	393.5339	26709	25934.2
810.3806	395.7199	26629.15	25859.5
810.5241	397.9052	26599.8	25827.95
810.6677	400.09	26579.05	25810.9
810.8113	402.2743	26574.35	25806.7
810.9548	404.4579	26545.65	25776.5
811.0984	406.641	26643	25873.1
811.2421	408.8235	26657.35	25887.95
811.3857	411.0054	26709.6	25936.7
811.5293	413.1868	26798.05	26022.1
811.673	415.3675	26829.95	26049.45
811.8166	417.5477	26793.3	26013.7
811.9603	419.7273	26756.75	25971.8
812.104	421.9064	26623.4	25835.05
812.2477	424.0848	26535.7	25751.35
812.3914	426.2627	26408.2	25621.05
812.5351	428.4399	26388.15	25600.85
812.6788	430.6166	26286.05	25494.1
812.8226	432.7928	26164.75	25373.15
812.9663	434.9683	26021.9	25231.05
813.1101	437.1432	25898	25101.95
813.2539	439.3176	25820.5	25027.75
813.3977	441.4914	25698.4	24904.15
813.5415	443.6645	25696.05	24899.3
813.6853	445.8371	25579.55	24778.35
813.8291	448.0091	25511.5	24716.3
813.973	450.1806	25416.15	24621.7
814.1168	452.3514	25380.25	24580.25
814.2607	454.5216	25387.35	24581.8
814.4046	456.6913	25248.1	24450.25
814.5485	458.8603	25266.5	24466.25
814.6924	461.0288	25263.7	24466.35
814.8363	463.1967	25239.25	24441.75
814.9802	465.3639	25256.7	24453
815.1241	467.5306	25189.9	24385.3
815.2681	469.6967	25141.8	24340.95
815.412	471.8622	25053.25	24250.85
815.556	474.0271	25068.6	24265.9
815.7	476.1914	25019.9	24211.45
815.844	478.3551	25017.25	24213.2
815.988	480.5182	25073	24267.6
816.132	482.6807	25046	24239.9
816.276	484.8426	25098	24293.35
816.4201	487.0039	25198.5	24393.25
816.5641	489.1647	25267.95	24460.1
816.7082	491.3248	25363.5	24555.65
816.8522	493.4843	25302.8	24496.4
816.9963	495.6432	25320.65	24515
817.1404	497.8015	25195.45	24381.65
817.2845	499.9592	25213.65	24402.2
817.4286	502.1163	25143.65	24332.15
817.5727	504.2728	24993.85	24178.7
817.7168	506.4287	24999.95	24191.8
817.861	508.5839	24836.4	24027.45
818.0051	510.7386	24811.75	24000.05
818.1493	512.8927	24788.4	23966.7
818.2935	515.0461	24842.3	24027.2
818.4377	517.199	24778.6	23964.85
818.5818	519.3512	24779.05	23962.5
818.726	521.5029	24846.95	24025.7
818.8703	523.6539	24837.3	24019.3
819.0145	525.8043	24865.05	24047.6
819.1587	527.9541	24853.1	24033.95
819.303	530.1033	24756.3	23936.6
819.4472	532.2519	24650.1	23832.8
819.5915	534.3999	24606.95	23784.6
819.7357	536.5472	24639.2	23818.1
819.88	538.694	24683.25	23866.25
820.0243	540.8401	24724.3	23901.55
820.1686	542.9856	24787	23963.55
820.3129	545.1305	24776.65	23950.5
820.4572	547.2748	24768.05	23943.2
820.6016	549.4185	24728.05	23899.6
820.7459	551.5615	24637.15	23811.6
820.8902	553.704	24619.9	23792.35
821.0346	555.8458	24563.75	23739.6
821.1789	557.987	24604.65	23779.6
821.3233	560.1276	24635.05	23807.15
821.4677	562.2675	24713.3	23886.85
821.6121	564.4069	24778	23951.25
821.7565	566.5456	24850.45	24025.25
821.9009	568.6837	24870.9	24041.8
822.0453	570.8212	24731.85	23903.5
822.1897	572.958	24521	23690.3
822.3342	575.0942	24382.45	23555.65
822.4786	577.2299	24227.3	23397.25
822.6231	579.3648	24114.2	23288
822.7675	581.4992	24001.45	23174.9
822.912	583.6329	23953.15	23127.15
823.0565	585.766	23954.8	23126.85
823.201	587.8985	23967.25	23139.9
823.3454	590.0304	23912.4	23072.3
823.4899	592.1616	23921.5	23087.3
823.6345	594.2922	23846.35	23011.3
823.779	596.4222	23741.5	22909.4
823.9235	598.5515	23680.1	22845.45
824.068	600.6802	23597.7	22763.8
824.2126	602.8083	23441.3	22608.7
824.3571	604.9358	23446.85	22613.15
824.5017	607.0626	23398.8	22562.15
824.6462	609.1888	23404.75	22565.25
824.7908	611.3144	23398.2	22559.85
824.9354	613.4393	23388.1	22549.15
825.08	615.5636	23420.1	22582.8
825.2246	617.6873	23411.05	22574.2
825.3692	619.8103	23397.6	22556.9
825.5138	621.9327	23301.4	22459.75
825.6584	624.0544	23242.8	22404.9
825.803	626.1756	23188.05	22350.65
825.9477	628.2961	23139	22299.8
826.0923	630.4159	23062.1	22220.75
826.237	632.5351	23109.3	22269.05
826.3816	634.6537	23044.3	22203.25
826.5263	636.7716	23072.65	22229
826.6709	638.8889	23042.95	22197.1
826.8156	641.0056	23091.55	22247.4
826.9603	643.1216	23006.1	22161.6
827.105	645.237	23059.1	22213.6
827.2497	647.3518	22980.95	22136.55
827.3944	649.4659	22972.9	22129.15
827.5391	651.5793	22900.4	22058.6
827.6838	653.6922	22872.4	22028.15
827.8285	655.8043	22823.25	21980.65
827.9733	657.9159	22812.3	21966.4
828.118	660.0268	22756.1	21907.25
828.2627	662.137	22705.6	21858.9
828.4075	664.2466	22710.6	21860.2
828.5522	666.3556	22685.55	21836.75
828.697	668.4639	22593.9	21745.2
828.8418	670.5716	22606.3	21760.6
828.9865	672.6786	22600.1	21751.75
829.1313	674.785	22477.1	21627
829.2761	676.8907	22438.75	21589.55
829.4209	678.9958	22424.3	21576
829.5657	681.1002	22350.8	21501.2
829.7105	683.204	22324.95	21471.5
829.8553	685.3072	22300.85	21446.45
830.0001	687.4097	22281.65	21428.15
830.1449	689.5115	22283.05	21429.5
830.2898	691.6127	22220.45	21369.15
830.4346	693.7132	22191.55	21341.75
830.5794	695.8131	22219.05	21343.05
830.7243	697.9123	22227.1	21371.85
830.8691	700.0109	22149.35	21294.7
831.014	702.1089	22164	21308.05
831.1588	704.2061	22146.65	21290.8
831.3037	706.3028	22122.35	21265.3
831.4486	708.3987	22124.4	21268.65
831.5935	710.4941	22093.95	21239.2
831.7383	712.5887	22096.6	21240.65
831.8832	714.6827	22081.7	21221.35
832.0281	716.7761	22084.4	21230.25
832.173	718.8688	22069.45	21212
832.3179	720.9608	22040.7	21179.5
832.4628	723.0522	22080.35	21221.3
832.6077	725.1429	22050.15	21191.7
832.7527	727.233	22057.35	21200.2
832.8976	729.3224	22062.45	21204.9
833.0425	731.4112	21985.2	21126.25
833.1874	733.4993	21958.3	21098.15
833.3324	735.5867	21823.5	20962.5
833.4773	737.6735	21750.05	20888.6
833.6222	739.7596	21666.3	20804.75
833.7672	741.845	21607.15	20749.7
833.9122	743.9298	21533.9	20672.65
834.0571	746.014	21517.2	20657.15
834.2021	748.0974	21559.2	20693.55
834.347	750.1802	21452.45	20588.9
834.492	752.2624	21347.7	20484.5
834.637	754.3439	21289.15	20425.45
834.782	756.4247	21277.8	20406.3
834.9269	758.5048	21217.15	20354.9
835.0719	760.5843	21245.75	20382.2
835.2169	762.6631	21238.3	20373.65
835.3619	764.7413	21269.95	20407.1
835.5069	766.8188	21421	20556.2
835.6519	768.8956	21437.9	20571.55
835.7969	770.9718	21563.9	20701.4
835.9419	773.0473	21509	20644.6
836.0869	775.1221	21424.85	20559.65
836.232	777.1962	21296.65	20431.9
836.377	779.2697	21260.95	20394.6
836.522	781.3426	21215.95	20332.9
836.667	783.4147	21190.7	20322
836.8121	785.4862	21250.35	20382.2
836.9571	787.557	21132.45	20265.9
837.1021	789.6271	21014.2	20147.8
837.2472	791.6966	20818.8	19949.55
837.3922	793.7654	20641.15	19774.55
837.5373	795.8335	20508.4	19643.3
837.6823	797.901	20388.6	19523.75
837.8274	799.9678	20310.2	19438.35
837.9724	802.0339	20256.55	19389.55
838.1175	804.0993	20235.55	19357.6
838.2626	806.1641	20107.95	19241.1
838.4076	808.2282	20059.2	19189.85
838.5527	810.2916	20041.1	19171.45
838.6978	812.3544	20011.75	19143.6
838.8428	814.4164	19922.7	19054.4
838.9879	816.4778	19950.2	19083.55
839.133	818.5385	19906.45	19034.95
839.2781	820.5986	19937	19068.6
839.4232	822.658	19932.05	19062.45
839.5682	824.7166	19936.15	19068.7
839.7133	826.7747	20061.6	19192.15
839.8584	828.832	20122.7	19252.45
840.0035	830.8886	20108	19235.15
840.1486	832.9446	20136.3	19262.7
840.2937	834.9999	20096.65	19228.2
840.4388	837.0545	20017.45	19142.1
840.5839	839.1085	19928.05	19057.3
840.729	841.1618	19826.05	18950.75
840.8741	843.2143	19727.5	18860.2
841.0192	845.2662	19580.5	18709.45
841.1643	847.3175	19560.55	18690.45
841.3095	849.368	19468.1	18596.7
841.4546	851.4179	19419.9	18548.7
841.5997	853.467	19325.05	18452.7
841.7448	855.5155	19297.25	18424.05
841.8899	857.5633	19228.4	18356.1
842.0351	859.6105	19123.85	18250.55
842.1802	861.6569	19115.75	18243.4
842.3253	863.7027	19062.9	18189.1
842.4704	865.7478	19053.3	18179.3
842.6156	867.7922	18991.8	18119.45
842.7607	869.8359	18950	18075.15
842.9058	871.8789	18884.35	18010.35
843.0509	873.9212	18893.4	17985.6
843.1961	875.9629	18826.15	17950.55
843.3412	878.0039	18818.4	17941.45
843.4863	880.0441	18838.45	17963.1
843.6315	882.0837	18847.25	17971.3
843.7766	884.1226	18797.95	17920.3
843.9218	886.1609	18810.85	17937.1
844.0669	888.1984	18815.75	17941.45
844.212	890.2352	18833.1	17957.3
844.3572	892.2714	18811.15	17932.55
844.5023	894.3069	18790.2	17913.45
844.6475	896.3416	18620.85	17744.3
844.7926	898.3757	18610.35	17735.9
844.9377	900.4091	18514.25	17634.8
845.0829	902.4418	18496.5	17617.05
845.228	904.4739	18452.65	17574.45
845.3732	906.5052	18415.15	17536.15
845.5183	908.5358	18367.35	17488.25
845.6635	910.5658	18319.85	17439.85
845.8086	912.595	18236.85	17357.2
845.9538	914.6236	18125.7	17247.55
846.0989	916.6515	18116.75	17239.1
846.2441	918.6786	17971.65	17092.5
846.3892	920.7051	17980.35	17100.7
846.5344	922.7309	17971.85	17093.35
846.6795	924.756	17875.5	16997.1
846.8246	926.7804	17870	16990.2
846.9698	928.8041	17741.65	16860.1
847.1149	930.8272	17759.8	16884.1
847.2601	932.8495	17693.5	16814
847.4052	934.8711	17644.75	16761.7
847.5504	936.892	17566.25	16684.5
847.6955	938.9123	17543.35	16663.95
847.8407	940.9318	17527	16649.45
847.9858	942.9506	17451.6	16569.55
848.131	944.9688	17392.4	16514.55
848.2761	946.9862	17331.55	16449.8
848.4213	949.003	17218.55	16334.65
848.5664	951.019	17125.85	16245.85
848.7115	953.0344	17083.2	16204.45
848.8567	955.0491	17038.2	16155.55
849.0018	957.063	17043.6	16163.75
849.147	959.0763	17047.8	16161.45
849.2921	961.0888	16975.3	16094.2
849.4373	963.1007	16961.05	16081.25
849.5824	965.1119	16933.9	16053.05
849.7275	967.1223	16920.05	16040.85
849.8727	969.1321	16851	15972.05
850.0178	971.1412	16802.85	15923.3
850.1629	973.1495	16739.3	15858.85
850.3081	975.1572	16752	15852.9
850.4532	977.1641	16689.15	15809.05
850.5983	979.1704	16629.1	15749.3
850.7435	981.1759	16566.25	15679.3
850.8886	983.1808	16568.2	15686.05
851.0337	985.1849	16541	15650.45
851.1788	987.1884	16447.65	15561.4
851.324	989.1911	16439.25	15554.35
851.4691	991.1932	16408.75	15523.95
851.6142	993.1945	16346.25	15464.35
851.7593	995.1951	16254.4	15369.1
851.9045	997.1951	16235.6	15345.7
852.0496	999.1943	16150.7	15269.65
852.1947	1001.1928	16069.9	15185.85
852.3398	1003.1906	16033.4	15149.2
852.4849	1005.1877	16027.8	15145.15
852.63	1007.1841	16004.85	15123
852.7751	1009.1798	15972.2	15092.1
852.9202	1011.1748	15860.4	14976.95
853.0653	1013.1691	15797.65	14913.35
853.2104	1015.1627	15726	14842
853.3555	1017.1556	15556.75	14674.15
853.5006	1019.1477	15484.85	14600.15
853.6457	1021.1392	15372.6	14492.9
853.7908	1023.1299	15292.2	14411.7
853.9359	1025.12	15229.65	14348.55
854.081	1027.1093	15169.35	14292
854.2261	1029.0979	15152	14274.3
854.3712	1031.0859	15126.6	14249.8
854.5163	1033.0731	15122.6	14239.85
854.6613	1035.0596	15061.65	14179.95
854.8064	1037.0454	14953.45	14070.25
854.9515	1039.0304	14902.95	14019.65
855.0965	1041.0148	14801.85	13918.75
855.2416	1042.9985	14714.3	13828.2
855.3867	1044.9814	14664	13782.95
855.5317	1046.9636	14621.75	13737.85
855.6768	1048.9452	14562.8	13682.45
855.8219	1050.926	14521.8	13638.05
855.9669	1052.9061	14476.6	13593.8
856.112	1054.8855	14473.5	13589.5
856.257	1056.8642	14445.3	13561.4
856.4021	1058.8421	14429.9	13540.6
856.5471	1060.8194	14364.95	13480
856.6921	1062.7959	14342.45	13458.75
856.8372	1064.7717	14304.65	13419.3
856.9822	1066.7469	14273.55	13387.95
857.1272	1068.7213	14282.5	13395.6
857.2723	1070.695	14272.15	13389.75
857.4173	1072.6679	14203.85	13319.45
857.5623	1074.6402	14180.8	13294.6
857.7073	1076.6117	14216.4	13327.1
857.8523	1078.5826	14141.45	13254.35
857.9973	1080.5527	14060.6	13172.7
858.1423	1082.5221	13967.15	13080.8
858.2873	1084.4908	13943.4	13057
858.4323	1086.4587	13867.15	12980.05
858.5773	1088.426	13849.7	12964.2
858.7223	1090.3925	13784.6	12892.25
858.8673	1092.3584	13797.5	12912.75
859.0123	1094.3235	13702.15	12818
859.1573	1096.2879	13671.95	12786.4
859.3022	1098.2515	13671.7	12785.85
859.4472	1100.2145	13723.55	12840
859.5922	1102.1767	13711.4	12823.9
859.7371	1104.1382	13685.3	12798.25
859.8821	1106.099	13709.05	12821.2
860.027	1108.0591	13716.15	12828.55
860.172	1110.0185	13765.35	12878.15
860.3169	1111.9771	13740.8	12853.85
860.4619	1113.9351	13703.7	12817.5
860.6068	1115.8923	13651.65	12765.65
860.7517	1117.8488	13567.6	12680.55
860.8967	1119.8045	13479.35	12592.1
861.0416	1121.7596	13419.8	12532.6
861.1865	1123.7139	13313	12426.95
861.3314	1125.6675	13235.55	12349.5
861.4763	1127.6204	13239.25	12352.25
861.6212	1129.5726	13183.75	12297.1
861.7661	1131.524	13166.75	12280.2
861.911	1133.4748	13128.6	12241.45
862.0559	1135.4248	13015.05	12128
862.2008	1137.3741	12937.55	12051.4
862.3457	1139.3226	12899.4	12010.75
862.4905	1141.2705	12846.8	11958.65
862.6354	1143.2176	12787.2	11894.95
862.7803	1145.164	12763.05	11874.4
862.9251	1147.1097	12710.1	11823.35
863.07	1149.0546	12664.5	11777.7
863.2148	1150.9989	12608.75	11721.05
863.3597	1152.9424	12582.35	11693.65
863.5045	1154.8852	12506.55	11619.55
863.6493	1156.8272	12498.5	11610.3
863.7942	1158.7686	12462.4	11567.05
863.939	1160.7092	12404.15	11514.3
864.0838	1162.6491	12356.3	11466.35
864.2286	1164.5883	12380.8	11493.75
864.3734	1166.5267	12347.4	11459.95
864.5182	1168.4644	12385.4	11499.55
864.663	1170.4014	12425.35	11533.45
864.8078	1172.3377	12429	11542.85
864.9526	1174.2732	12480.25	11594.85
865.0974	1176.2081	12552.95	11667.3
865.2421	1178.1421	12638.55	11745.15
865.3869	1180.0755	12723.15	11837.45
865.5317	1182.0082	12786.4	11899.2
865.6764	1183.9401	12818.45	11931.15
