Software Version:	3.9.2.0
Unit SN:	10000200
Spectrometer SN:	6960
Date:	3/26/2024 2:44:21 PM
Data Line Index:	25
Spectral Points:	2048
Integration time (ms):	125
Averages:	20
Delay (ms):	30000
Sequence Number:	1
Processing:	dark subtract
Laser Power (mW):	300
Laser Current (mA):	821
Laser Diode Temp (C):	25.1
Laser Case Temp (C):	27.9
System Temp (C):	28
Spectrometer Temp (C):	25.9
CCD Temp (C):	0
Secondary Temp (C):	20.003
Heatsink Temp (C):	23.283
CCDPCB Temp (C):	37.596
SecondaryPCB Temp (C):	34.573

Wavelength	RamanShift	Raw Counts	Dark Subtracted
787.061	30.1047	634.85	225.85
787.2016	32.3739	643.05	234.35
787.3422	34.6426	657.4	249.15
787.4828	36.9109	681	270.2
787.6235	39.1787	701.75	288.6
787.7642	41.4461	725.1	306.15
787.9049	43.7131	749.4	327.25
788.0456	45.9796	770.65	343.95
788.1863	48.2456	799.85	368
788.3271	50.5112	822.95	388.9
788.4679	52.7764	851.3	414.8
788.6087	55.0411	881.25	440.25
788.7496	57.3054	906	461.4
788.8904	59.5692	949.5	500.35
789.0313	61.8326	974.7	521.15
789.1722	64.0955	1015.05	559.05
789.3132	66.3579	1067.2	605.7
789.4541	68.6199	1120.7	656.7
789.5951	70.8815	1219.95	751.1
789.7361	73.1426	1411.9	938.55
789.8771	75.4032	1921.55	1443.8
790.0181	77.6634	3169.75	2686.25
790.1592	79.9231	6321.95	5829
790.3003	82.1824	13538.8	13026.65
790.4414	84.4412	29849.45	29305.9
790.5825	86.6995	57240.35	56648.7
790.7237	88.9574	65515.4	64879.3
790.8648	91.2148	65535	64867.25
791.006	93.4717	65535	64850.7
791.1472	95.7282	65535	64845.9
791.2885	97.9842	65535	64832.9
791.4297	100.2398	65535	64836.1
791.571	102.4949	65535	64835.95
791.7123	104.7495	65535	64823.45
791.8536	107.0036	65535	64831.6
791.9949	109.2573	65535	64829.15
792.1363	111.5105	65535	64826.85
792.2777	113.7632	65535	64825
792.4191	116.0154	65535	64814.5
792.5605	118.2672	65535	64814.35
792.7019	120.5185	65535	64820.1
792.8434	122.7693	65535	64813.6
792.9849	125.0197	65535	64809.2
793.1264	127.2696	65535	64805.75
793.2679	129.519	65535	64802.4
793.4094	131.7679	65535	64798.85
793.551	134.0163	65535	64798.9
793.6926	136.2642	65535	64795.4
793.8342	138.5117	65535	64788.45
793.9758	140.7587	65535	64792.35
794.1175	143.0052	65535	64789.5
794.2591	145.2512	65535	64794.6
794.4008	147.4967	65535	64788.4
794.5425	149.7417	65535	64786
794.6842	151.9863	65535	64782.65
794.826	154.2304	65535	64778.4
794.9677	156.4739	65535	64770.4
795.1095	158.717	65535	64774.55
795.2513	160.9596	65535	64765
795.3931	163.2017	65535	64768.85
795.535	165.4433	65535	64764.8
795.6768	167.6844	65535	64764.25
795.8187	169.925	65535	64760.6
795.9606	172.1651	65535	64762.5
796.1025	174.4047	65535	64757.85
796.2445	176.6439	65535	64756.05
796.3864	178.8825	65535	64754.3
796.5284	181.1206	65535	64746.3
796.6704	183.3582	65535	64742.25
796.8124	185.5954	65535	64741.8
796.9544	187.832	65535	64740.9
797.0965	190.0681	65535	64737.1
797.2386	192.3037	65535	64734.25
797.3806	194.5388	65535	64733.65
797.5228	196.7734	65535	64724.85
797.6649	199.0075	65535	64724.15
797.807	201.2411	65535	64722.8
797.9492	203.4742	65535	64721.2
798.0914	205.7068	65535	64721.1
798.2336	207.9389	65535	64720.15
798.3758	210.1704	65535	64714.35
798.518	212.4015	65535	64716.9
798.6603	214.632	65535	64725.2
798.8025	216.862	65535	64729.85
798.9448	219.0915	65535	64733.05
799.0871	221.3205	65535	64733.7
799.2294	223.549	65535	64736.15
799.3718	225.777	65535	64737.25
799.5141	228.0044	65535	64732.7
799.6565	230.2314	65535	64737.3
799.7989	232.4578	65535	64739.15
799.9413	234.6837	65535	64726.8
800.0837	236.909	65535	64725.25
800.2262	239.1339	65535	64701.15
800.3687	241.3582	65535	64713.85
800.5111	243.582	65535	64685.25
800.6536	245.8053	65535	64696.7
800.7961	248.0281	65535	64702.5
800.9387	250.2503	65535	64699
801.0812	252.472	65535	64691.4
801.2238	254.6932	65535	64695.45
801.3664	256.9139	65535	64691.25
801.509	259.134	65535	64680.05
801.6516	261.3536	65535	64690.3
801.7942	263.5727	65535	64689.9
801.9369	265.7912	65535	64684.5
802.0795	268.0092	65535	64684.95
802.2222	270.2267	65535	64684.8
802.3649	272.4436	65535	64688.15
802.5076	274.6601	65535	64676
802.6504	276.8759	65535	64685.95
802.7931	279.0913	65535	64681.55
802.9359	281.3061	65535	64678.5
803.0787	283.5204	65535	64678.15
803.2215	285.7341	65535	64675.05
803.3643	287.9473	65535	64663.15
803.5071	290.16	65535	64668.25
803.6499	292.3721	65535	64674.35
803.7928	294.5837	65535	64669.2
803.9357	296.7947	65535	64675
804.0786	299.0052	65535	64669.45
804.2215	301.2152	65535	64670.15
804.3644	303.4246	65535	64674.25
804.5074	305.6334	65535	64675.8
804.6503	307.8418	65535	64671.25
804.7933	310.0495	65535	64672.1
804.9363	312.2568	65535	64670
805.0793	314.4635	65535	64670.1
805.2223	316.6696	65535	64665.95
805.3653	318.8752	65535	64655.3
805.5084	321.0802	65535	64666.4
805.6514	323.2847	65535	64660.4
805.7945	325.4887	65535	64666.15
805.9376	327.692	65535	64662.5
806.0807	329.8949	65535	64662.25
806.2238	332.0972	65535	64660.25
806.367	334.2989	65535	64657
806.5101	336.5001	65535	64659.3
806.6533	338.7007	65535	64657.05
806.7965	340.9008	65535	64654.55
806.9397	343.1003	65535	64658.15
807.0829	345.2992	65535	64652.7
807.2261	347.4976	65535	64649.05
807.3693	349.6955	65535	64646.55
807.5126	351.8927	65535	64649.75
807.6559	354.0895	65535	64632.7
807.7991	356.2856	65535	64644.75
807.9424	358.4812	65535	64649
808.0857	360.6763	65535	64647.45
808.2291	362.8707	65535	64644.65
808.3724	365.0646	65535	64648.05
808.5158	367.258	65535	64640.55
808.6591	369.4508	65535	64638.05
808.8025	371.643	65535	64634.65
808.9459	373.8346	65535	64634.75
809.0893	376.0257	65535	64632.75
809.2327	378.2162	65535	64637
809.3762	380.4062	65535	64635.65
809.5196	382.5956	65535	64634.6
809.6631	384.7844	65535	64632.8
809.8066	386.9726	65535	64635.9
809.9501	389.1603	65535	64632.75
810.0936	391.3474	65535	64595.3
810.2371	393.5339	65535	64634.15
810.3806	395.7199	65535	64637.75
810.5241	397.9052	65535	64640.15
810.6677	400.09	65535	64640.95
810.8113	402.2743	65535	64643.05
810.9548	404.4579	65535	64644.25
811.0984	406.641	65535	64641.6
811.2421	408.8235	65535	64642.8
811.3857	411.0054	65535	64640.65
811.5293	413.1868	65535	64639
811.673	415.3675	65535	64636.2
811.8166	417.5477	65535	64634.3
811.9603	419.7273	65535	64632.1
812.104	421.9064	65535	64628.2
812.2477	424.0848	65535	64633.5
812.3914	426.2627	65535	64630.7
812.5351	428.4399	65535	64629
812.6788	430.6166	65535	64627
812.8226	432.7928	65535	64624.65
812.9663	434.9683	65535	64627.55
813.1101	437.1432	65535	64627.9
813.2539	439.3176	65535	64635.15
813.3977	441.4914	65535	64630.7
813.5415	443.6645	65535	64628.6
813.6853	445.8371	65535	64627.75
813.8291	448.0091	65535	64630.25
813.973	450.1806	65535	64629.95
814.1168	452.3514	65535	64629.05
814.2607	454.5216	65535	64622.6
814.4046	456.6913	65535	64628.1
814.5485	458.8603	65535	64627.25
814.6924	461.0288	65535	64635.5
814.8363	463.1967	65535	64634.3
814.9802	465.3639	65535	64630
815.1241	467.5306	65535	64629.2
815.2681	469.6967	65535	64631
815.412	471.8622	65535	64633.2
815.556	474.0271	65535	64627.9
815.7	476.1914	65535	64628.45
815.844	478.3551	65535	64626.2
815.988	480.5182	65535	64630.8
816.132	482.6807	65535	64633.45
816.276	484.8426	65535	64638.95
816.4201	487.0039	65535	64636.5
816.5641	489.1647	65535	64624.95
816.7082	491.3248	65535	64624.8
816.8522	493.4843	65535	64628.9
816.9963	495.6432	65535	64632.9
817.1404	497.8015	65535	64622.55
817.2845	499.9592	65535	64614.45
817.4286	502.1163	65535	64617.35
817.5727	504.2728	65535	64623.4
817.7168	506.4287	65535	64633.4
817.861	508.5839	65535	64633.6
818.0051	510.7386	65535	64629.05
818.1493	512.8927	65535	64615
818.2935	515.0461	65535	64619.55
818.4377	517.199	65535	64615.05
818.5818	519.3512	65535	64618.45
818.726	521.5029	65535	64615.7
818.8703	523.6539	65535	64618
819.0145	525.8043	65535	64616.35
819.1587	527.9541	65535	64613.85
819.303	530.1033	65535	64615.25
819.4472	532.2519	65535	64616.7
819.5915	534.3999	65535	64614.05
819.7357	536.5472	65535	64615.05
819.88	538.694	65535	64618.35
820.0243	540.8401	65535	64616.6
820.1686	542.9856	65535	64607.6
820.3129	545.1305	65535	64603
820.4572	547.2748	65535	64602.35
820.6016	549.4185	65535	64600.95
820.7459	551.5615	65535	64605.55
820.8902	553.704	65535	64604.05
821.0346	555.8458	65535	64610.1
821.1789	557.987	65535	64607.25
821.3233	560.1276	65535	64607.75
821.4677	562.2675	65535	64605.1
821.6121	564.4069	65535	64608.5
821.7565	566.5456	65535	64606.85
821.9009	568.6837	65535	64609.65
822.0453	570.8212	65535	64609.85
822.1897	572.958	65535	64612.55
822.3342	575.0942	65535	64611.35
822.4786	577.2299	65535	64621.3
822.6231	579.3648	65535	64629.25
822.7675	581.4992	65535	64634
822.912	583.6329	65535	64634.6
823.0565	585.766	65535	64628.55
823.201	587.8985	65535	64627.7
823.3454	590.0304	65535	64591.95
823.4899	592.1616	65535	64609.2
823.6345	594.2922	65535	64604.95
823.779	596.4222	65535	64604.85
823.9235	598.5515	65535	64599.45
824.068	600.6802	65535	64607.35
824.2126	602.8083	65535	64609.65
824.3571	604.9358	65535	64603.8
824.5017	607.0626	65535	64602.7
824.6462	609.1888	65535	64599.2
824.7908	611.3144	65535	64600
824.9354	613.4393	65535	64598
825.08	615.5636	65535	64597.55
825.2246	617.6873	65535	64598.1
825.3692	619.8103	65535	64600.75
825.5138	621.9327	65535	64605.55
825.6584	624.0544	65535	64610.75
825.803	626.1756	65535	64606.4
825.9477	628.2961	65535	64605.7
826.0923	630.4159	65535	64601.65
826.237	632.5351	65535	64601.4
826.3816	634.6537	65535	64598.85
826.5263	636.7716	65535	64594.7
826.6709	638.8889	65535	64595.5
826.8156	641.0056	65535	64594.85
826.9603	643.1216	65535	64596.15
827.105	645.237	65535	64600.45
827.2497	647.3518	65535	64601.55
827.3944	649.4659	65535	64607.7
827.5391	651.5793	65535	64611.95
827.6838	653.6922	65535	64604.1
827.8285	655.8043	65535	64603.75
827.9733	657.9159	65535	64603.5
828.118	660.0268	65535	64599.5
828.2627	662.137	65535	64602.3
828.4075	664.2466	65535	64593.05
828.5522	666.3556	65535	64595.45
828.697	668.4639	65535	64600.9
828.8418	670.5716	65535	64603.7
828.9865	672.6786	65535	64599.65
829.1313	674.785	65535	64593.35
829.2761	676.8907	65535	64605.2
829.4209	678.9958	65535	64604.9
829.5657	681.1002	65535	64598.8
829.7105	683.204	65535	64593.35
829.8553	685.3072	65535	64594.45
830.0001	687.4097	65535	64597.55
830.1449	689.5115	65535	64591.55
830.2898	691.6127	65535	64598
830.4346	693.7132	65535	64597.8
830.5794	695.8131	65535	64578.85
830.7243	697.9123	65535	64592.95
830.8691	700.0109	65535	64593.35
831.014	702.1089	65533.35	64593.05
831.1588	704.2061	65535	64595.4
831.3037	706.3028	65535	64586.65
831.4486	708.3987	65535	64591.95
831.5935	710.4941	65535	64595.75
831.7383	712.5887	65535	64599.75
831.8832	714.6827	65535	64593.95
832.0281	716.7761	65535	64598.2
832.173	718.8688	65535	64593.95
832.3179	720.9608	65535	64589.65
832.4628	723.0522	65535	64584.5
832.6077	725.1429	65534.75	64591.6
832.7527	727.233	65535	64594.6
832.8976	729.3224	65446.65	64504.05
833.0425	731.4112	65519.85	64578.45
833.1874	733.4993	65522.85	64576.65
833.3324	735.5867	65521.7	64582
833.4773	737.6735	65479.4	64535.8
833.6222	739.7596	65398.45	64451.9
833.7672	741.845	65384.8	64445.55
833.9122	743.9298	65512.25	64570.8
834.0571	746.014	65382.9	64441.65
834.2021	748.0974	65250.05	64302.4
834.347	750.1802	65487.4	64538.9
834.492	752.2624	65188.8	64241.15
834.637	754.3439	65233.35	64287.95
834.782	756.4247	65325.95	64371.4
834.9269	758.5048	65191.4	64246.4
835.0719	760.5843	65274.95	64326.2
835.2169	762.6631	65363.35	64411.85
835.3619	764.7413	65312.2	64366.6
835.5069	766.8188	65363.65	64417.1
835.6519	768.8956	65487.75	64540.65
835.7969	770.9718	65484	64539.65
835.9419	773.0473	65439.3	64492.3
836.0869	775.1221	65151.35	64204.5
836.232	777.1962	65132.85	64190.25
836.377	779.2697	64818.45	63872.9
836.522	781.3426	65085.1	64126.7
836.667	783.4147	65226.35	64276.4
836.8121	785.4862	65218	64274.75
836.9571	787.557	64883.3	63935.9
837.1021	789.6271	65152.15	64201.25
837.2472	791.6966	64784.1	63838.45
837.3922	793.7654	64334.3	63385.35
837.5373	795.8335	64346.45	63401.9
837.6823	797.901	64444.35	63497.05
837.8274	799.9678	64216.25	63265.7
837.9724	802.0339	64176.4	63225.25
838.1175	804.0993	64217.55	63254.1
838.2626	806.1641	64085.45	63135.1
838.4076	808.2282	64004.95	63060.8
838.5527	810.2916	63851.95	62903.05
838.6978	812.3544	64080.1	63134
838.8428	814.4164	63573.85	62631.2
838.9879	816.4778	63595.8	62644.8
839.133	818.5385	63653	62702.2
839.2781	820.5986	63585.4	62633.05
839.4232	822.658	63682.8	62732.8
839.5682	824.7166	63682.55	62733.3
839.7133	826.7747	63133.05	62183.15
839.8584	828.832	63358	62410.45
840.0035	830.8886	63670.95	62719.95
840.1486	832.9446	63685.95	62733.2
840.2937	834.9999	62885.3	61933.95
840.4388	837.0545	63360.25	62407.6
840.5839	839.1085	63618.55	62666.35
840.729	841.1618	63455.9	62500.5
840.8741	843.2143	62829.45	61879.8
841.0192	845.2662	62810.2	61863.1
841.1643	847.3175	63009.05	62057
841.3095	849.368	62206.85	61255.9
841.4546	851.4179	62773.95	61821.4
841.5997	853.467	62244.05	61294.55
841.7448	855.5155	62429.8	61478.85
841.8899	857.5633	61923.15	60975.4
842.0351	859.6105	61630.6	60680.3
842.1802	861.6569	61944.55	60992.4
842.3253	863.7027	61265.5	60316.75
842.4704	865.7478	61506.15	60556.05
842.6156	867.7922	61309.25	60362.35
842.7607	869.8359	61692.5	60742.65
842.9058	871.8789	60979.3	60027
843.0509	873.9212	61442.05	60459.2
843.1961	875.9629	61492.05	60539.55
843.3412	878.0039	61469.05	60516.45
843.4863	880.0441	61221.8	60274.85
843.6315	882.0837	61206.1	60254.45
843.7766	884.1226	61079.75	60129
843.9218	886.1609	60886.7	59936.3
844.0669	888.1984	60474.95	59526.35
844.212	890.2352	60897.45	59950
844.3572	892.2714	60062	59105.35
844.5023	894.3069	60385.7	59431.9
844.6475	896.3416	59996.45	59043.2
844.7926	898.3757	59883.8	58933.5
844.9377	900.4091	59031.1	58077.05
845.0829	902.4418	60091.5	59131.8
845.228	904.4739	59381.8	58424
845.3732	906.5052	59434.65	58479.25
845.5183	908.5358	59051.35	58100.55
845.6635	910.5658	58678.15	57721.9
845.8086	912.595	58595.3	57639.85
845.9538	914.6236	57786.2	56831.75
846.0989	916.6515	58891.4	57935.75
846.2441	918.6786	57561.55	56607.45
846.3892	920.7051	57879.8	56923.5
846.5344	922.7309	57807	56852.75
846.6795	924.756	58034.4	57082.9
846.8246	926.7804	57626.95	56673.05
846.9698	928.8041	56878.55	55924.2
847.1149	930.8272	57326.45	56374.3
847.2601	932.8495	57284	56328.75
847.4052	934.8711	56573	55617.8
847.5504	936.892	56144.7	55191.85
847.6955	938.9123	56201.15	55246.95
847.8407	940.9318	55711.1	54757.4
847.9858	942.9506	55486.95	54533.15
848.131	944.9688	55429.3	54482.35
848.2761	946.9862	54580.65	53627.5
848.4213	949.003	54829.7	53874.9
848.5664	951.019	54197.5	53244
848.7115	953.0344	54331.85	53378.5
848.8567	955.0491	54217.7	53265.25
849.0018	957.063	54421.2	53468.7
849.147	959.0763	54446.85	53486.65
849.2921	961.0888	54086.45	53133.7
849.4373	963.1007	54375.95	53426.1
849.5824	965.1119	54220.2	53274.25
849.7275	967.1223	53975.75	53035.55
849.8727	969.1321	54169.75	53226.15
850.0178	971.1412	53758.55	52815.5
850.1629	973.1495	53538.7	52590
850.3081	975.1572	53611.25	52626.55
850.4532	977.1641	53489.65	52535.1
850.5983	979.1704	53264.3	52312.45
850.7435	981.1759	53242.95	52287.85
850.8886	983.1808	53020.25	52070.15
851.0337	985.1849	52961.35	51995.85
851.1788	987.1884	53101	52147.8
851.324	989.1911	53413	52459.85
851.4691	991.1932	52938.5	51988.5
851.6142	993.1945	52955.95	52008.7
851.7593	995.1951	52864.8	51912.95
851.9045	997.1951	52564.2	51607.55
852.0496	999.1943	52243.55	51293.85
852.1947	1001.1928	52013.65	51060.15
852.3398	1003.1906	51898.15	50945.1
852.4849	1005.1877	51566.05	50611.75
852.63	1007.1841	51329.95	50378.2
852.7751	1009.1798	51100.7	50150.85
852.9202	1011.1748	50697	49746.55
853.0653	1013.1691	50431.4	49482.9
853.2104	1015.1627	49839.9	48890.05
853.3555	1017.1556	49436.15	48490.3
853.5006	1019.1477	49378.35	48431.65
853.6457	1021.1392	48901.1	47959.6
853.7908	1023.1299	48596.4	47655.4
853.9359	1025.12	48558.3	47621.65
854.081	1027.1093	48326.7	47399.5
854.2261	1029.0979	48265.8	47342.35
854.3712	1031.0859	48106.75	47176.6
854.5163	1033.0731	47902.5	46964.15
854.6613	1035.0596	47675	46733.95
854.8064	1037.0454	47324.75	46378.45
854.9515	1039.0304	47067.55	46122.55
855.0965	1041.0148	46725.45	45777.65
855.2416	1042.9985	46532.7	45582.4
855.3867	1044.9814	46484.6	45538.2
855.5317	1046.9636	46199.2	45254.75
855.6768	1048.9452	45947.25	45000.1
855.8219	1050.926	45899.05	44951.75
855.9669	1052.9061	45744.2	44796.6
856.112	1054.8855	45604.55	44655.8
856.257	1056.8642	45468.05	44518.65
856.4021	1058.8421	45427.95	44475.65
856.5471	1060.8194	45342.25	44390.4
856.6921	1062.7959	45178.85	44231.15
856.8372	1064.7717	45049.5	44097.95
856.9822	1066.7469	44935.05	43984.95
857.1272	1068.7213	44755.35	43803.6
857.2723	1070.695	44643.9	43699.7
857.4173	1072.6679	44303.65	43357.05
857.5623	1074.6402	44173.95	43226.65
857.7073	1076.6117	44115.95	43160.45
857.8523	1078.5826	44046.4	43098.3
857.9973	1080.5527	43951.85	43001.55
858.1423	1082.5221	44003.8	43055.1
858.2873	1084.4908	44063.65	43116.9
858.4323	1086.4587	44193.2	43244.7
858.5773	1088.426	44216.75	43269.9
858.7223	1090.3925	44049.35	43097.15
858.8673	1092.3584	43899.7	42952.35
859.0123	1094.3235	43506.4	42563.3
859.1573	1096.2879	43261.95	42313.35
859.3022	1098.2515	43069.3	42124.6
859.4472	1100.2145	43070.9	42125.45
859.5922	1102.1767	42921	41972.1
859.7371	1104.1382	42923.35	41977.6
859.8821	1106.099	42971.55	42022.3
860.027	1108.0591	43079.65	42134.8
860.172	1110.0185	43080.8	42135.15
860.3169	1111.9771	43059.4	42114.1
860.4619	1113.9351	42653.4	41705.85
860.6068	1115.8923	42136.4	41191.8
860.7517	1117.8488	41670	40722.3
860.8967	1119.8045	41168	40222.3
861.0416	1121.7596	40984.7	40041.55
861.1865	1123.7139	40730.25	39786.1
861.3314	1125.6675	40602.25	39659.1
861.4763	1127.6204	40713.7	39769.8
861.6212	1129.5726	40558.05	39610
861.7661	1131.524	40565.75	39620.65
861.911	1133.4748	40510.5	39565.95
862.0559	1135.4248	40369.55	39419.7
862.2008	1137.3741	40386	39440
862.3457	1139.3226	40197.1	39249.3
862.4905	1141.2705	40177.85	39230.75
862.6354	1143.2176	39785.45	38834.6
862.7803	1145.164	39794.85	38848.05
862.9251	1147.1097	39721.85	38772.75
863.07	1149.0546	39647	38700.45
863.2148	1150.9989	39448.7	38503.7
863.3597	1152.9424	39305.55	38359.3
863.5045	1154.8852	38990.3	38043.5
863.6493	1156.8272	38736	37792.5
863.7942	1158.7686	38640.15	37687.95
863.939	1160.7092	38427.4	37480.95
864.0838	1162.6491	38224.4	37280.9
864.2286	1164.5883	38245.4	37300.45
864.3734	1166.5267	38224.85	37276.95
864.5182	1168.4644	38247.85	37303.45
864.663	1170.4014	38392.85	37446
864.8078	1172.3377	38567.35	37627.1
864.9526	1174.2732	38657.75	37715.85
865.0974	1176.2081	38788.9	37845.6
865.2421	1178.1421	38846.45	37899.25
865.3869	1180.0755	38948.95	38006.35
865.5317	1182.0082	38722.9	37778.85
865.6764	1183.9401	38597.9	37657.4
865.8212	1185.8713	38255.5	37316.6
865.9659	1187.8017	37902	36966.4
866.1106	1189.7315	37597	36670.3
866.2554	1191.6605	37093.25	36168.15
866.4001	1193.5888	36875.1	35945.75
866.5448	1195.5163	36642.45	35704.3
866.6895	1197.4432	36464	35521.8
866.8342	1199.3693	36269.55	35328.95
866.9789	1201.2947	36062.65	35111.95
867.1236	1203.2193	35852.95	34913.6
867.2683	1205.1432	35883.15	34941.75
867.413	1207.0664	35766.45	34826.2
867.5576	1208.9889	35783	34837.8
867.7023	1210.9106	35717.95	34777.1
867.847	1212.8316	35630.3	34690.6
867.9916	1214.7519	35648.3	34699.4
868.1363	1216.6715	35547.2	34608.5
868.2809	1218.5903	35461.25	34520.45
868.4255	1220.5084	35226	34283.45
