Software Version:	3.9.2.0
Unit SN:	10000200
Spectrometer SN:	6960
Date:	3/26/2024 2:26:14 PM
Data Line Index:	25
Spectral Points:	2048
Integration time (ms):	125
Averages:	20
Delay (ms):	30000
Sequence Number:	1
Processing:	dark subtract
Laser Power (mW):	305
Laser Current (mA):	820
Laser Diode Temp (C):	25
Laser Case Temp (C):	27.7
System Temp (C):	27.7
Spectrometer Temp (C):	25.6
CCD Temp (C):	0.001
Secondary Temp (C):	20.007
Heatsink Temp (C):	23.392
CCDPCB Temp (C):	37.352
SecondaryPCB Temp (C):	34.617

Wavelength	RamanShift	Raw Counts	Dark Subtracted
787.061	30.1047	668.95	257.75
787.2016	32.3739	678.75	270.7
787.3422	34.6426	696.45	284.5
787.4828	36.9109	719	306.05
787.6235	39.1787	737.7	321.95
787.7642	41.4461	767.4	344.5
787.9049	43.7131	795.35	371.9
788.0456	45.9796	816.1	388.25
788.1863	48.2456	848.05	416.5
788.3271	50.5112	873.9	438.3
788.4679	52.7764	903.35	465.1
788.6087	55.0411	936.55	493.95
788.7496	57.3054	972.8	526.65
788.8904	59.5692	1012.35	564.95
789.0313	61.8326	1046.15	593.9
789.1722	64.0955	1093.3	636.6
789.3132	66.3579	1140.65	677.85
789.4541	68.6199	1207.35	742.6
789.5951	70.8815	1315.35	847.7
789.7361	73.1426	1535.7	1063.2
789.8771	75.4032	2078.45	1600.25
790.0181	77.6634	3471.45	2987.9
790.1592	79.9231	6921.9	6428.35
790.3003	82.1824	14946.75	14436.15
790.4414	84.4412	35424.6	34878.3
790.5825	86.6995	62920.7	62326.65
790.7237	88.9574	65535	64898.65
790.8648	91.2148	65535	64871.35
791.006	93.4717	65535	64844.8
791.1472	95.7282	65535	64834.45
791.2885	97.9842	65535	64828
791.4297	100.2398	65535	64831.1
791.571	102.4949	65535	64821.3
791.7123	104.7495	65535	64823.6
791.8536	107.0036	65535	64825.35
791.9949	109.2573	65535	64827.8
792.1363	111.5105	65535	64820.45
792.2777	113.7632	65535	64821.2
792.4191	116.0154	65535	64811.45
792.5605	118.2672	65535	64810.45
792.7019	120.5185	65535	64817.05
792.8434	122.7693	65535	64815.2
792.9849	125.0197	65535	64809.05
793.1264	127.2696	65535	64809.95
793.2679	129.519	65535	64799.45
793.4094	131.7679	65535	64798.35
793.551	134.0163	65535	64791.1
793.6926	136.2642	65535	64787.9
793.8342	138.5117	65535	64786.85
793.9758	140.7587	65535	64789.15
794.1175	143.0052	65535	64782.95
794.2591	145.2512	65535	64788.05
794.4008	147.4967	65535	64788
794.5425	149.7417	65535	64783.1
794.6842	151.9863	65535	64783.1
794.826	154.2304	65535	64772.85
794.9677	156.4739	65535	64771.4
795.1095	158.717	65535	64771.55
795.2513	160.9596	65535	64764.65
795.3931	163.2017	65535	64761.9
795.535	165.4433	65535	64760.15
795.6768	167.6844	65535	64760.4
795.8187	169.925	65535	64760.4
795.9606	172.1651	65535	64762.45
796.1025	174.4047	65535	64754.65
796.2445	176.6439	65535	64752.2
796.3864	178.8825	65535	64751.4
796.5284	181.1206	65535	64740.25
796.6704	183.3582	65535	64735.2
796.8124	185.5954	65535	64742.65
796.9544	187.832	65535	64739.05
797.0965	190.0681	65535	64735.05
797.2386	192.3037	65535	64731.15
797.3806	194.5388	65535	64727.75
797.5228	196.7734	65535	64726.95
797.6649	199.0075	65535	64717.7
797.807	201.2411	65535	64722
797.9492	203.4742	65535	64718.6
798.0914	205.7068	65535	64716.9
798.2336	207.9389	65535	64715.65
798.3758	210.1704	65535	64714.8
798.518	212.4015	65535	64714.75
798.6603	214.632	65535	64711.95
798.8025	216.862	65535	64724.3
798.9448	219.0915	65535	64727.35
799.0871	221.3205	65535	64729.05
799.2294	223.549	65535	64735.3
799.3718	225.777	65535	64735.55
799.5141	228.0044	65535	64732.45
799.6565	230.2314	65535	64734.3
799.7989	232.4578	65535	64732.05
799.9413	234.6837	65535	64726.85
800.0837	236.909	65535	64721.95
800.2262	239.1339	65535	64697.7
800.3687	241.3582	65535	64712.05
800.5111	243.582	65535	64679.85
800.6536	245.8053	65535	64695.2
800.7961	248.0281	65535	64697.65
800.9387	250.2503	65535	64696.5
801.0812	252.472	65535	64687.95
801.2238	254.6932	65535	64690.6
801.3664	256.9139	65535	64686.9
801.509	259.134	65535	64685.15
801.6516	261.3536	65535	64686.4
801.7942	263.5727	65535	64683.95
801.9369	265.7912	65535	64688.45
802.0795	268.0092	65535	64685.35
802.2222	270.2267	65535	64684.3
802.3649	272.4436	65535	64681.05
802.5076	274.6601	65535	64673.8
802.6504	276.8759	65535	64684.3
802.7931	279.0913	65535	64677.25
802.9359	281.3061	65535	64676.25
803.0787	283.5204	65535	64669.9
803.2215	285.7341	65535	64666.3
803.3643	287.9473	65535	64653.8
803.5071	290.16	65535	64663.85
803.6499	292.3721	65535	64669.35
803.7928	294.5837	65535	64669.15
803.9357	296.7947	65535	64673.1
804.0786	299.0052	65535	64670.25
804.2215	301.2152	65535	64667
804.3644	303.4246	65535	64674.3
804.5074	305.6334	65535	64674.7
804.6503	307.8418	65535	64667.25
804.7933	310.0495	65535	64665.3
804.9363	312.2568	65535	64665.1
805.0793	314.4635	65535	64662.3
805.2223	316.6696	65535	64663.7
805.3653	318.8752	65535	64654.2
805.5084	321.0802	65535	64659.35
805.6514	323.2847	65535	64651.6
805.7945	325.4887	65535	64660.25
805.9376	327.692	65535	64654.75
806.0807	329.8949	65535	64657.4
806.2238	332.0972	65535	64657.35
806.367	334.2989	65535	64648.8
806.5101	336.5001	65535	64650.3
806.6533	338.7007	65535	64650.4
806.7965	340.9008	65535	64651.8
806.9397	343.1003	65535	64652.1
807.0829	345.2992	65535	64651.6
807.2261	347.4976	65535	64648.75
807.3693	349.6955	65535	64646.1
807.5126	351.8927	65535	64641.75
807.6559	354.0895	65535	64632.95
807.7991	356.2856	65535	64640.6
807.9424	358.4812	65535	64647.2
808.0857	360.6763	65535	64642.25
808.2291	362.8707	65535	64637.9
808.3724	365.0646	65535	64633.6
808.5158	367.258	65535	64635.4
808.6591	369.4508	65535	64637.2
808.8025	371.643	65535	64631.55
808.9459	373.8346	65535	64631.2
809.0893	376.0257	65535	64631.8
809.2327	378.2162	65535	64628
809.3762	380.4062	65535	64626.3
809.5196	382.5956	65535	64631.65
809.6631	384.7844	65535	64628.15
809.8066	386.9726	65535	64631.85
809.9501	389.1603	65535	64626.1
810.0936	391.3474	65535	64599.2
810.2371	393.5339	65535	64631.45
810.3806	395.7199	65535	64637.8
810.5241	397.9052	65535	64640.55
810.6677	400.09	65535	64644.2
810.8113	402.2743	65535	64640.2
810.9548	404.4579	65535	64637
811.0984	406.641	65535	64637.75
811.2421	408.8235	65535	64639.95
811.3857	411.0054	65535	64636.35
811.5293	413.1868	65535	64633.5
811.673	415.3675	65535	64629.9
811.8166	417.5477	65535	64624.1
811.9603	419.7273	65535	64630.75
812.104	421.9064	65535	64623.1
812.2477	424.0848	65535	64625.2
812.3914	426.2627	65535	64630.6
812.5351	428.4399	65535	64625.15
812.6788	430.6166	65535	64617.25
812.8226	432.7928	65535	64618.6
812.9663	434.9683	65535	64623.4
813.1101	437.1432	65535	64621.75
813.2539	439.3176	65535	64628.45
813.3977	441.4914	65535	64632.65
813.5415	443.6645	65535	64627.4
813.6853	445.8371	65535	64625
813.8291	448.0091	65535	64623.5
813.973	450.1806	65535	64623.6
814.1168	452.3514	65535	64628.9
814.2607	454.5216	65535	64618.45
814.4046	456.6913	65535	64623.15
814.5485	458.8603	65535	64627.45
814.6924	461.0288	65535	64627.3
814.8363	463.1967	65535	64629.25
814.9802	465.3639	65535	64623.4
815.1241	467.5306	65535	64624.3
815.2681	469.6967	65535	64628.7
815.412	471.8622	65535	64627.5
815.556	474.0271	65535	64630
815.7	476.1914	65535	64620.9
815.844	478.3551	65535	64622.9
815.988	480.5182	65535	64624.55
816.132	482.6807	65535	64627.85
816.276	484.8426	65535	64635.6
816.4201	487.0039	65535	64635.45
816.5641	489.1647	65535	64623.5
816.7082	491.3248	65535	64619.65
816.8522	493.4843	65535	64627.5
816.9963	495.6432	65535	64624.05
817.1404	497.8015	65535	64616.2
817.2845	499.9592	65535	64615.2
817.4286	502.1163	65535	64612.15
817.5727	504.2728	65535	64621.3
817.7168	506.4287	65535	64629.9
817.861	508.5839	65535	64628.9
818.0051	510.7386	65535	64620.15
818.1493	512.8927	65535	64613.4
818.2935	515.0461	65535	64614.65
818.4377	517.199	65535	64612.9
818.5818	519.3512	65535	64615.55
818.726	521.5029	65535	64611.7
818.8703	523.6539	65535	64615.75
819.0145	525.8043	65535	64612.55
819.1587	527.9541	65535	64609.95
819.303	530.1033	65535	64612.4
819.4472	532.2519	65535	64613.6
819.5915	534.3999	65535	64608.3
819.7357	536.5472	65535	64611.05
819.88	538.694	65535	64618.8
820.0243	540.8401	65535	64610.25
820.1686	542.9856	65535	64601.8
820.3129	545.1305	65535	64594.15
820.4572	547.2748	65535	64595.55
820.6016	549.4185	65535	64594.1
820.7459	551.5615	65535	64597.7
820.8902	553.704	65535	64600.45
821.0346	555.8458	65535	64599.4
821.1789	557.987	65535	64607.3
821.3233	560.1276	65535	64602.15
821.4677	562.2675	65535	64605.4
821.6121	564.4069	65535	64601
821.7565	566.5456	65535	64611.3
821.9009	568.6837	65535	64608
822.0453	570.8212	65535	64609.1
822.1897	572.958	65535	64606.4
822.3342	575.0942	65535	64613.5
822.4786	577.2299	65535	64615.25
822.6231	579.3648	65535	64623.45
822.7675	581.4992	65535	64632.35
822.912	583.6329	65535	64631.75
823.0565	585.766	65535	64622.15
823.201	587.8985	65535	64623.25
823.3454	590.0304	65535	64586.75
823.4899	592.1616	65535	64602.35
823.6345	594.2922	65535	64598.75
823.779	596.4222	65535	64601.7
823.9235	598.5515	65535	64600.4
824.068	600.6802	65535	64603.2
824.2126	602.8083	65535	64608.1
824.3571	604.9358	65535	64603.1
824.5017	607.0626	65535	64599.4
824.6462	609.1888	65535	64592.2
824.7908	611.3144	65535	64594.85
824.9354	613.4393	65535	64592.7
825.08	615.5636	65535	64596.9
825.2246	617.6873	65535	64595.95
825.3692	619.8103	65535	64595.8
825.5138	621.9327	65535	64596.2
825.6584	624.0544	65535	64600.5
825.803	626.1756	65535	64604.75
825.9477	628.2961	65535	64595.75
826.0923	630.4159	65535	64599.8
826.237	632.5351	65535	64597.3
826.3816	634.6537	65535	64596.35
826.5263	636.7716	65535	64591.05
826.6709	638.8889	65535	64592.35
826.8156	641.0056	65535	64584.3
826.9603	643.1216	65535	64589.3
827.105	645.237	65535	64589.8
827.2497	647.3518	65535	64600.3
827.3944	649.4659	65535	64601.55
827.5391	651.5793	65535	64598.1
827.6838	653.6922	65535	64601.4
827.8285	655.8043	65535	64599.95
827.9733	657.9159	65535	64602.7
828.118	660.0268	65535	64594.75
828.2627	662.137	65535	64597
828.4075	664.2466	65535	64589.2
828.5522	666.3556	65535	64593.9
828.697	668.4639	65535	64598.05
828.8418	670.5716	65535	64601.1
828.9865	672.6786	65535	64591.85
829.1313	674.785	65535	64594.45
829.2761	676.8907	65535	64594.05
829.4209	678.9958	65535	64596.5
829.5657	681.1002	65535	64594.55
829.7105	683.204	65535	64583.7
829.8553	685.3072	65535	64588.05
830.0001	687.4097	65535	64590.8
830.1449	689.5115	65535	64588.7
830.2898	691.6127	65535	64593.65
830.4346	693.7132	65535	64599
830.5794	695.8131	65535	64570.95
830.7243	697.9123	65535	64587.3
830.8691	700.0109	65535	64583.65
831.014	702.1089	65535	64589.45
831.1588	704.2061	65535	64593.8
831.3037	706.3028	65535	64588.5
831.4486	708.3987	65535	64588.65
831.5935	710.4941	65535	64592.2
831.7383	712.5887	65535	64589.95
831.8832	714.6827	65535	64587.95
832.0281	716.7761	65535	64596.8
832.173	718.8688	65535	64590.95
832.3179	720.9608	65535	64583.45
832.4628	723.0522	65535	64580.1
832.6077	725.1429	65535	64583.75
832.7527	727.233	65535	64590.95
832.8976	729.3224	65535	64588.45
833.0425	731.4112	65535	64589.65
833.1874	733.4993	65535	64583.5
833.3324	735.5867	65535	64583.25
833.4773	737.6735	65535	64584.3
833.6222	739.7596	65535	64583.6
833.7672	741.845	65535	64585.95
833.9122	743.9298	65535	64587.35
834.0571	746.014	65535	64582.9
834.2021	748.0974	65535	64583.15
834.347	750.1802	65535	64581.1
834.492	752.2624	65535	64581.55
834.637	754.3439	65535	64582.5
834.782	756.4247	65535	64573.5
834.9269	758.5048	65535	64582.5
835.0719	760.5843	65535	64582.25
835.2169	762.6631	65535	64582.95
835.3619	764.7413	65535	64585.3
835.5069	766.8188	65535	64579.2
835.6519	768.8956	65535	64580.95
835.7969	770.9718	65535	64586.95
835.9419	773.0473	65535	64582.8
836.0869	775.1221	65535	64584.45
836.232	777.1962	65535	64580.2
836.377	779.2697	65535	64577.2
836.522	781.3426	65535	64563.1
836.667	783.4147	65535	64581.75
836.8121	785.4862	65535	64584.1
836.9571	787.557	65535	64580.85
837.1021	789.6271	65535	64581.45
837.2472	791.6966	65535	64582.1
837.3922	793.7654	65535	64578.25
837.5373	795.8335	65535	64582.45
837.6823	797.901	65535	64585.45
837.8274	799.9678	65535	64581.1
837.9724	802.0339	65535	64576.75
838.1175	804.0993	65535	64567.35
838.2626	806.1641	65535	64580.05
838.4076	808.2282	65535	64579.55
838.5527	810.2916	65535	64579
838.6978	812.3544	65535	64585.7
838.8428	814.4164	65535	64585.6
838.9879	816.4778	65535	64576.5
839.133	818.5385	65535	64576.65
839.2781	820.5986	65535	64576.65
839.4232	822.658	65535	64576.35
839.5682	824.7166	65535	64581.5
839.7133	826.7747	65535	64581.9
839.8584	828.832	65535	64576.7
840.0035	830.8886	65535	64575.85
840.1486	832.9446	65535	64575.7
840.2937	834.9999	65526.45	64570.55
840.4388	837.0545	65535	64576.05
840.5839	839.1085	65535	64578
840.729	841.1618	65535	64576.4
840.8741	843.2143	65529.15	64576.5
841.0192	845.2662	65526.55	64570
841.1643	847.3175	65533.9	64579.5
841.3095	849.368	65504.9	64547.95
841.4546	851.4179	65531.05	64573.6
841.5997	853.467	65518.75	64563.6
841.7448	855.5155	65522.8	64568.9
841.8899	857.5633	65495	64537.3
842.0351	859.6105	65484.45	64528.85
842.1802	861.6569	65505.85	64550.35
842.3253	863.7027	65436.25	64477.5
842.4704	865.7478	65456.4	64499.6
842.6156	867.7922	65431.5	64472.85
842.7607	869.8359	65466.05	64506.35
842.9058	871.8789	65394.1	64432.6
843.0509	873.9212	65445.85	64456.7
843.1961	875.9629	65477.45	64520.4
843.3412	878.0039	65458.3	64500.3
843.4863	880.0441	65429.95	64475.15
843.6315	882.0837	65442.85	64487.7
843.7766	884.1226	65419	64460.65
843.9218	886.1609	65390.55	64435.55
844.0669	888.1984	65303.35	64348.4
844.212	890.2352	65392.45	64434.35
844.3572	892.2714	65274.35	64313.7
844.5023	894.3069	65342.85	64384
844.6475	896.3416	65256.45	64293.15
844.7926	898.3757	65230	64267.65
844.9377	900.4091	64953	63994.45
845.0829	902.4418	65296.55	64329
845.228	904.4739	65148.5	64189.7
845.3732	906.5052	65152.5	64192
845.5183	908.5358	65019.65	64060.35
845.6635	910.5658	64925.85	63964.6
845.8086	912.595	64921.85	63960.95
845.9538	914.6236	64489.2	63529.15
846.0989	916.6515	65085.9	64125.55
846.2441	918.6786	64491.2	63528.95
846.3892	920.7051	64657.1	63691.15
846.5344	922.7309	64578.55	63617.6
846.6795	924.756	64719.2	63761.85
846.8246	926.7804	64559.65	63601.3
846.9698	928.8041	64101.5	63142.25
847.1149	930.8272	64435.55	63475
847.2601	932.8495	64432.8	63468.45
847.4052	934.8711	64075.55	63116.3
847.5504	936.892	63798.05	62838.2
847.6955	938.9123	63951.55	62990.8
847.8407	940.9318	63684.3	62723
847.9858	942.9506	63582.25	62623.85
848.131	944.9688	63623.2	62663.75
848.2761	946.9862	62895.45	61933.65
848.4213	949.003	63218.4	62257.4
848.5664	951.019	62519.45	61558.65
848.7115	953.0344	62678.9	61720.15
848.8567	955.0491	62621.9	61659.15
849.0018	957.063	62835.35	61876.35
849.147	959.0763	62904	61938.6
849.2921	961.0888	62388.9	61429.85
849.4373	963.1007	62762.85	61805.25
849.5824	965.1119	62748.5	61795.85
849.7275	967.1223	62338.6	61393.6
849.8727	969.1321	62840.85	61895.95
850.0178	971.1412	62142.6	61192.4
850.1629	973.1495	61923.55	60970.8
850.3081	975.1572	62228.75	61218.7
850.4532	977.1641	61949.1	60991.05
850.5983	979.1704	61847.35	60889.55
850.7435	981.1759	61908.1	60945.6
850.8886	983.1808	61492.95	60530.4
851.0337	985.1849	61604.6	60633.85
851.1788	987.1884	61782.1	60823.3
851.324	989.1911	62110.2	61150.15
851.4691	991.1932	61104.5	60148
851.6142	993.1945	61375.7	60420.1
851.7593	995.1951	61608.05	60650.4
851.9045	997.1951	60995.55	60031.05
852.0496	999.1943	60790.3	59832.75
852.1947	1001.1928	60497.65	59538.85
852.3398	1003.1906	60692.7	59737.05
852.4849	1005.1877	59934.9	58974.55
852.63	1007.1841	59637.55	58682.75
852.7751	1009.1798	59592.85	58633.85
852.9202	1011.1748	59431.95	58472.65
853.0653	1013.1691	59187.1	58230.8
853.2104	1015.1627	57681.95	56725.8
853.3555	1017.1556	58076.85	57122.05
853.5006	1019.1477	58245.6	57288.1
853.6457	1021.1392	57508	56563.9
853.7908	1023.1299	56665.8	55718.75
853.9359	1025.12	57120.2	56179.05
854.081	1027.1093	56647.25	55714.7
854.2261	1029.0979	56636.95	55709.35
854.3712	1031.0859	56520.45	55585.05
854.5163	1033.0731	55864.1	54919.65
854.6613	1035.0596	56000.95	55053.3
854.8064	1037.0454	55731.8	54782.15
854.9515	1039.0304	55234.95	54283.8
855.0965	1041.0148	54521	53564.9
855.2416	1042.9985	54509.05	53555.55
855.3867	1044.9814	54727.85	53774.8
855.5317	1046.9636	54120.95	53166.85
855.6768	1048.9452	54020.9	53069.6
855.8219	1050.926	53843.55	52890.6
855.9669	1052.9061	53723.25	52769.95
856.112	1054.8855	53679.8	52723.15
856.257	1056.8642	53217.7	52261.15
856.4021	1058.8421	53121.35	52161.55
856.5471	1060.8194	53036.3	52083.75
856.6921	1062.7959	52868.25	51912.85
856.8372	1064.7717	52979.9	52024.5
856.9822	1066.7469	52702.6	51748.35
857.1272	1068.7213	52619.7	51664.65
857.2723	1070.695	52310	51354.6
857.4173	1072.6679	51865.65	50913.7
857.5623	1074.6402	51953.15	51000.35
857.7073	1076.6117	51706	50746.75
857.8523	1078.5826	51633.15	50675.85
857.9973	1080.5527	51566.05	50605.45
858.1423	1082.5221	51469.9	50512.1
858.2873	1084.4908	51614.9	50659.05
858.4323	1086.4587	51607.8	50651.4
858.5773	1088.426	51702.7	50746.05
858.7223	1090.3925	51539.15	50580.5
858.8673	1092.3584	51358.55	50404.4
859.0123	1094.3235	50791.15	49841.45
859.1573	1096.2879	50567.3	49613.05
859.3022	1098.2515	50470.55	49516.75
859.4472	1100.2145	50321.55	49369.3
859.5922	1102.1767	50189	49230.15
859.7371	1104.1382	50291.45	49335.9
859.8821	1106.099	50321.6	49366.7
860.027	1108.0591	50264.9	49310.2
860.172	1110.0185	50082.3	49130.1
860.3169	1111.9771	50170.55	49214.5
860.4619	1113.9351	49717.15	48765.7
860.6068	1115.8923	49134.3	48181.2
860.7517	1117.8488	48674.35	47721.4
860.8967	1119.8045	48153.5	47203.9
861.0416	1121.7596	47962	47009.5
861.1865	1123.7139	47734.95	46784.7
861.3314	1125.6675	47593.55	46644.9
861.4763	1127.6204	47607.45	46656.7
861.6212	1129.5726	47374.25	46421.05
861.7661	1131.524	47419.35	46467.9
861.911	1133.4748	47415	46462.8
862.0559	1135.4248	47190.85	46235.95
862.2008	1137.3741	47159.45	46208.85
862.3457	1139.3226	47045.45	46091.4
862.4905	1141.2705	46920.4	45968.5
862.6354	1143.2176	46594.2	45635.3
862.7803	1145.164	46534.35	45582.05
862.9251	1147.1097	46370.4	45419.45
863.07	1149.0546	46320.95	45365.65
863.2148	1150.9989	46133.9	45183.4
863.3597	1152.9424	45917.3	44965.85
863.5045	1154.8852	45603.55	44651.4
863.6493	1156.8272	45308.9	44359.95
863.7942	1158.7686	45257.35	44298.6
863.939	1160.7092	44942.7	43991.55
864.0838	1162.6491	44686.95	43736.2
864.2286	1164.5883	44755.2	43803.3
864.3734	1166.5267	44640.1	43689.05
864.5182	1168.4644	44721.85	43772.55
864.663	1170.4014	44826.6	43872.6
864.8078	1172.3377	44997.5	44048.2
864.9526	1174.2732	45077.3	44128.4
865.0974	1176.2081	45216	44265.95
865.2421	1178.1421	45202.3	44249.55
865.3869	1180.0755	45276.4	44327.4
865.5317	1182.0082	45015.05	44068.95
865.6764	1183.9401	44910.55	43962.45
865.8212	1185.8713	44526.35	43583.35
865.9659	1187.8017	44185.3	43247.9
866.1106	1189.7315	43835.75	42903.5
866.2554	1191.6605	43382.75	42451.9
866.4001	1193.5888	43015.6	42079.55
866.5448	1195.5163	42844.9	41905.8
866.6895	1197.4432	42608	41658
866.8342	1199.3693	42351.5	41406.2
866.9789	1201.2947	42105.05	41149.9
867.1236	1203.2193	41891.5	40944.85
867.2683	1205.1432	41919.4	40971.3
867.413	1207.0664	41770.1	40821.4
867.5576	1208.9889	41712.2	40758.25
867.7023	1210.9106	41632.9	40683.95
867.847	1212.8316	41507.45	40559.3
867.9916	1214.7519	41552.95	40597.55
868.1363	1216.6715	41371.3	40429.6
868.2809	1218.5903	41283.75	40339.95
868.4255	1220.5084	41066.15	40119.35
868.5701	1222.4257	40964.65	40018.15
868.7148	1224.3424	40724.45	39784
868.8594	1226.2583	40663.45	39712.35
