Software Version:	3.9.2.0
Unit SN:	10000200
Spectrometer SN:	6960
Date:	3/26/2024 2:15:12 PM
Data Line Index:	25
Spectral Points:	2048
Integration time (ms):	125
Averages:	20
Delay (ms):	30000
Sequence Number:	1
Processing:	dark subtract
Laser Power (mW):	300
Laser Current (mA):	820
Laser Diode Temp (C):	25
Laser Case Temp (C):	27.6
System Temp (C):	27.6
Spectrometer Temp (C):	25.5
CCD Temp (C):	0.004
Secondary Temp (C):	20.001
Heatsink Temp (C):	22.878
CCDPCB Temp (C):	37.041
SecondaryPCB Temp (C):	34.551

Wavelength	RamanShift	Raw Counts	Dark Subtracted
787.061	30.1047	687.05	277.3
787.2016	32.3739	696	288.75
787.3422	34.6426	713.85	304.85
787.4828	36.9109	735.75	324.4
787.6235	39.1787	758	341.55
787.7642	41.4461	789.15	368.95
787.9049	43.7131	814.95	391.95
788.0456	45.9796	840.05	412.15
788.1863	48.2456	877.4	444.95
788.3271	50.5112	912.65	477.95
788.4679	52.7764	939.85	501.8
788.6087	55.0411	968.55	527.85
788.7496	57.3054	1009.65	564.05
788.8904	59.5692	1048.45	597.7
789.0313	61.8326	1094.2	642.15
789.1722	64.0955	1134.6	678.6
789.3132	66.3579	1190.45	729.7
789.4541	68.6199	1257.65	793.3
789.5951	70.8815	1361.3	894.85
789.7361	73.1426	1605.1	1136.2
789.8771	75.4032	2182.4	1703.2
790.0181	77.6634	3633.1	3147
790.1592	79.9231	7308.8	6814.95
790.3003	82.1824	15772.5	15259.8
790.4414	84.4412	38778.7	38227.85
790.5825	86.6995	64733.8	64135.4
790.7237	88.9574	65535	64888.2
790.8648	91.2148	65535	64853.9
791.006	93.4717	65535	64833.55
791.1472	95.7282	65535	64823.5
791.2885	97.9842	65535	64814.9
791.4297	100.2398	65535	64816.8
791.571	102.4949	65535	64815.6
791.7123	104.7495	65535	64811.45
791.8536	107.0036	65535	64807.75
791.9949	109.2573	65535	64809.95
792.1363	111.5105	65535	64802.45
792.2777	113.7632	65535	64805.55
792.4191	116.0154	65535	64792.7
792.5605	118.2672	65535	64798.15
792.7019	120.5185	65535	64799.1
792.8434	122.7693	65535	64793.95
792.9849	125.0197	65535	64795.4
793.1264	127.2696	65535	64791.8
793.2679	129.519	65535	64785.1
793.4094	131.7679	65535	64781.35
793.551	134.0163	65535	64777.55
793.6926	136.2642	65535	64773.75
793.8342	138.5117	65535	64769.7
793.9758	140.7587	65535	64769.15
794.1175	143.0052	65535	64772.9
794.2591	145.2512	65535	64769.95
794.4008	147.4967	65535	64769.6
794.5425	149.7417	65535	64770
794.6842	151.9863	65535	64768.9
794.826	154.2304	65535	64755.85
794.9677	156.4739	65535	64755.5
795.1095	158.717	65535	64752.6
795.2513	160.9596	65535	64750.8
795.3931	163.2017	65535	64745.4
795.535	165.4433	65535	64742.5
795.6768	167.6844	65535	64745.75
795.8187	169.925	65535	64742.75
795.9606	172.1651	65535	64745.95
796.1025	174.4047	65535	64740
796.2445	176.6439	65535	64739.85
796.3864	178.8825	65535	64739.7
796.5284	181.1206	65535	64730.05
796.6704	183.3582	65535	64722.35
796.8124	185.5954	65535	64722.4
796.9544	187.832	65535	64718.25
797.0965	190.0681	65535	64722.2
797.2386	192.3037	65535	64716
797.3806	194.5388	65535	64712.5
797.5228	196.7734	65535	64706.25
797.6649	199.0075	65535	64705.45
797.807	201.2411	65535	64699.4
797.9492	203.4742	65535	64703.5
798.0914	205.7068	65535	64700.1
798.2336	207.9389	65535	64700.4
798.3758	210.1704	65535	64701.2
798.518	212.4015	65535	64694.65
798.6603	214.632	65535	64696.85
798.8025	216.862	65535	64706.95
798.9448	219.0915	65535	64712.15
799.0871	221.3205	65535	64713.7
799.2294	223.549	65535	64714.5
799.3718	225.777	65535	64714.6
799.5141	228.0044	65535	64718.8
799.6565	230.2314	65535	64717.45
799.7989	232.4578	65535	64718.1
799.9413	234.6837	65535	64712.75
800.0837	236.909	65535	64703.95
800.2262	239.1339	65535	64680.55
800.3687	241.3582	65535	64697.45
800.5111	243.582	65535	64661.85
800.6536	245.8053	65535	64679.7
800.7961	248.0281	65535	64679.1
800.9387	250.2503	65535	64679.15
801.0812	252.472	65535	64672.15
801.2238	254.6932	65535	64670.65
801.3664	256.9139	65535	64671.1
801.509	259.134	65535	64667.5
801.6516	261.3536	65535	64663.85
801.7942	263.5727	65535	64661.8
801.9369	265.7912	65535	64668.9
802.0795	268.0092	65535	64671.05
802.2222	270.2267	65535	64665.4
802.3649	272.4436	65535	64664.5
802.5076	274.6601	65535	64657.65
802.6504	276.8759	65535	64668.05
802.7931	279.0913	65535	64661.55
802.9359	281.3061	65535	64663.9
803.0787	283.5204	65535	64655.1
803.2215	285.7341	65535	64654.15
803.3643	287.9473	65535	64642.55
803.5071	290.16	65535	64646.6
803.6499	292.3721	65535	64653.75
803.7928	294.5837	65535	64648.6
803.9357	296.7947	65535	64649.9
804.0786	299.0052	65535	64646.25
804.2215	301.2152	65535	64653.75
804.3644	303.4246	65535	64658.2
804.5074	305.6334	65535	64655.85
804.6503	307.8418	65535	64652.95
804.7933	310.0495	65535	64656.8
804.9363	312.2568	65535	64646.75
805.0793	314.4635	65535	64641.5
805.2223	316.6696	65535	64644.95
805.3653	318.8752	65535	64637.4
805.5084	321.0802	65535	64644.4
805.6514	323.2847	65535	64641
805.7945	325.4887	65535	64640.9
805.9376	327.692	65535	64641.6
806.0807	329.8949	65535	64642.45
806.2238	332.0972	65535	64641.75
806.367	334.2989	65535	64636.95
806.5101	336.5001	65535	64635.4
806.6533	338.7007	65535	64635
806.7965	340.9008	65535	64639.55
806.9397	343.1003	65535	64635.45
807.0829	345.2992	65535	64633.5
807.2261	347.4976	65535	64632.5
807.3693	349.6955	65535	64624.9
807.5126	351.8927	65535	64623.5
807.6559	354.0895	65535	64614.55
807.7991	356.2856	65535	64625
807.9424	358.4812	65535	64627.9
808.0857	360.6763	65535	64621.05
808.2291	362.8707	65535	64619.95
808.3724	365.0646	65535	64623
808.5158	367.258	65535	64622.9
808.6591	369.4508	65535	64622.1
808.8025	371.643	65535	64619.1
808.9459	373.8346	65535	64619.15
809.0893	376.0257	65535	64611.8
809.2327	378.2162	65535	64616.5
809.3762	380.4062	65535	64615.7
809.5196	382.5956	65535	64611.95
809.6631	384.7844	65535	64615.45
809.8066	386.9726	65535	64617.25
809.9501	389.1603	65535	64613.9
810.0936	391.3474	65535	64587.45
810.2371	393.5339	65535	64613.7
810.3806	395.7199	65535	64616.2
810.5241	397.9052	65535	64612.65
810.6677	400.09	65535	64620.15
810.8113	402.2743	65535	64624.3
810.9548	404.4579	65535	64624.6
811.0984	406.641	65535	64623.9
811.2421	408.8235	65535	64624.15
811.3857	411.0054	65535	64621.45
811.5293	413.1868	65535	64613.55
811.673	415.3675	65535	64613.95
811.8166	417.5477	65535	64612.25
811.9603	419.7273	65535	64613.95
812.104	421.9064	65535	64607.5
812.2477	424.0848	65535	64612.15
812.3914	426.2627	65535	64610.8
812.5351	428.4399	65535	64612.7
812.6788	430.6166	65535	64604.4
812.8226	432.7928	65535	64605.25
812.9663	434.9683	65535	64607.1
813.1101	437.1432	65535	64607.75
813.2539	439.3176	65535	64614.15
813.3977	441.4914	65535	64618.95
813.5415	443.6645	65535	64609.4
813.6853	445.8371	65535	64609.6
813.8291	448.0091	65535	64608.95
813.973	450.1806	65535	64611.5
814.1168	452.3514	65535	64615.6
814.2607	454.5216	65535	64607.7
814.4046	456.6913	65535	64610.25
814.5485	458.8603	65535	64612.25
814.6924	461.0288	65535	64615.45
814.8363	463.1967	65535	64615.75
814.9802	465.3639	65535	64609.85
815.1241	467.5306	65535	64609.6
815.2681	469.6967	65535	64616.45
815.412	471.8622	65535	64615.1
815.556	474.0271	65535	64616.2
815.7	476.1914	65535	64609.55
815.844	478.3551	65535	64606.45
815.988	480.5182	65535	64615.9
816.132	482.6807	65535	64619.65
816.276	484.8426	65535	64629.8
816.4201	487.0039	65535	64623.9
816.5641	489.1647	65535	64611.35
816.7082	491.3248	65535	64608.8
816.8522	493.4843	65535	64611.8
816.9963	495.6432	65535	64615
817.1404	497.8015	65535	64599.35
817.2845	499.9592	65535	64597.6
817.4286	502.1163	65535	64598.65
817.5727	504.2728	65535	64605.95
817.7168	506.4287	65535	64620.3
817.861	508.5839	65535	64617.2
818.0051	510.7386	65535	64610.55
818.1493	512.8927	65535	64597.65
818.2935	515.0461	65535	64604.35
818.4377	517.199	65535	64601.35
818.5818	519.3512	65535	64596.95
818.726	521.5029	65535	64600.4
818.8703	523.6539	65535	64602.85
819.0145	525.8043	65535	64600.3
819.1587	527.9541	65535	64598.35
819.303	530.1033	65535	64597.75
819.4472	532.2519	65535	64600.5
819.5915	534.3999	65535	64597.7
819.7357	536.5472	65535	64603.25
819.88	538.694	65535	64607.25
820.0243	540.8401	65535	64599.45
820.1686	542.9856	65535	64590.5
820.3129	545.1305	65535	64578.25
820.4572	547.2748	65535	64576.55
820.6016	549.4185	65535	64574.65
820.7459	551.5615	65535	64581.2
820.8902	553.704	65535	64584.8
821.0346	555.8458	65535	64585.35
821.1789	557.987	65535	64587.6
821.3233	560.1276	65535	64584.05
821.4677	562.2675	65535	64581.05
821.6121	564.4069	65535	64587.55
821.7565	566.5456	65535	64586.3
821.9009	568.6837	65535	64588.75
822.0453	570.8212	65535	64590.6
822.1897	572.958	65535	64596.45
822.3342	575.0942	65535	64599.35
822.4786	577.2299	65535	64603.55
822.6231	579.3648	65535	64612.3
822.7675	581.4992	65535	64625.9
822.912	583.6329	65535	64624.1
823.0565	585.766	65535	64621
823.201	587.8985	65535	64615.25
823.3454	590.0304	65535	64588.35
823.4899	592.1616	65535	64590.8
823.6345	594.2922	65535	64588.6
823.779	596.4222	65535	64588.95
823.9235	598.5515	65535	64584.85
824.068	600.6802	65535	64585.1
824.2126	602.8083	65535	64588.8
824.3571	604.9358	65535	64589.25
824.5017	607.0626	65535	64585.8
824.6462	609.1888	65535	64576.8
824.7908	611.3144	65535	64583.3
824.9354	613.4393	65535	64581.85
825.08	615.5636	65535	64573.7
825.2246	617.6873	65535	64576.85
825.3692	619.8103	65535	64581.85
825.5138	621.9327	65535	64583.25
825.6584	624.0544	65535	64587.8
825.803	626.1756	65535	64591.15
825.9477	628.2961	65535	64584.55
826.0923	630.4159	65535	64582.2
826.237	632.5351	65535	64582.55
826.3816	634.6537	65535	64579.4
826.5263	636.7716	65535	64574.1
826.6709	638.8889	65535	64573.7
826.8156	641.0056	65535	64571.1
826.9603	643.1216	65535	64574.85
827.105	645.237	65535	64574.45
827.2497	647.3518	65535	64588
827.3944	649.4659	65535	64591.2
827.5391	651.5793	65535	64590
827.6838	653.6922	65535	64588.35
827.8285	655.8043	65535	64586.6
827.9733	657.9159	65535	64584.4
828.118	660.0268	65535	64583.4
828.2627	662.137	65535	64579.15
828.4075	664.2466	65535	64573.6
828.5522	666.3556	65535	64575.15
828.697	668.4639	65535	64579.55
828.8418	670.5716	65535	64589.75
828.9865	672.6786	65535	64583.7
829.1313	674.785	65535	64576.8
829.2761	676.8907	65535	64583.05
829.4209	678.9958	65535	64589.15
829.5657	681.1002	65535	64576.65
829.7105	683.204	65535	64572.75
829.8553	685.3072	65535	64570.4
830.0001	687.4097	65535	64579.4
830.1449	689.5115	65535	64575.25
830.2898	691.6127	65535	64579.55
830.4346	693.7132	65535	64584.9
830.5794	695.8131	65535	64559.35
830.7243	697.9123	65535	64570.85
830.8691	700.0109	65535	64571.25
831.014	702.1089	65535	64575.05
831.1588	704.2061	65535	64579.05
831.3037	706.3028	65535	64572.35
831.4486	708.3987	65535	64576.05
831.5935	710.4941	65535	64575.05
831.7383	712.5887	65535	64574.8
831.8832	714.6827	65535	64571.25
832.0281	716.7761	65535	64581.7
832.173	718.8688	65535	64578.35
832.3179	720.9608	65535	64568.85
832.4628	723.0522	65535	64566.95
832.6077	725.1429	65535	64570
832.7527	727.233	65535	64572.4
832.8976	729.3224	65535	64576.3
833.0425	731.4112	65535	64573.3
833.1874	733.4993	65535	64570.55
833.3324	735.5867	65535	64573.05
833.4773	737.6735	65535	64573.6
833.6222	739.7596	65535	64569.95
833.7672	741.845	65535	64577.85
833.9122	743.9298	65535	64573.7
834.0571	746.014	65535	64573.6
834.2021	748.0974	65535	64566.1
834.347	750.1802	65535	64562.9
834.492	752.2624	65535	64567.55
834.637	754.3439	65535	64566.15
834.782	756.4247	65535	64559.6
834.9269	758.5048	65535	64566.3
835.0719	760.5843	65535	64566.75
835.2169	762.6631	65535	64565.85
835.3619	764.7413	65535	64567.2
835.5069	766.8188	65535	64567.05
835.6519	768.8956	65535	64562.2
835.7969	770.9718	65535	64568.35
835.9419	773.0473	65535	64566.15
836.0869	775.1221	65535	64567.85
836.232	777.1962	65535	64569.1
836.377	779.2697	65535	64568.75
836.522	781.3426	65535	64551
836.667	783.4147	65535	64563.6
836.8121	785.4862	65535	64566.5
836.9571	787.557	65535	64565.45
837.1021	789.6271	65535	64558.85
837.2472	791.6966	65535	64567.95
837.3922	793.7654	65535	64563.1
837.5373	795.8335	65535	64566.3
837.6823	797.901	65535	64570.45
837.8274	799.9678	65535	64562.4
837.9724	802.0339	65535	64561.05
838.1175	804.0993	65535	64554.65
838.2626	806.1641	65535	64567.75
838.4076	808.2282	65535	64566.25
838.5527	810.2916	65535	64564
838.6978	812.3544	65535	64570
838.8428	814.4164	65535	64570.3
838.9879	816.4778	65535	64558.65
839.133	818.5385	65535	64555.95
839.2781	820.5986	65535	64559.4
839.4232	822.658	65535	64563.45
839.5682	824.7166	65535	64563.55
839.7133	826.7747	65535	64565.9
839.8584	828.832	65535	64562.95
840.0035	830.8886	65535	64559.65
840.1486	832.9446	65535	64557.75
840.2937	834.9999	65535	64566.4
840.4388	837.0545	65535	64559.25
840.5839	839.1085	65535	64562.25
840.729	841.1618	65535	64558.2
840.8741	843.2143	65535	64561.75
841.0192	845.2662	65535	64562.7
841.1643	847.3175	65535	64564.75
841.3095	849.368	65535	64560.75
841.4546	851.4179	65535	64562.15
841.5997	853.467	65535	64567.05
841.7448	855.5155	65535	64564.45
841.8899	857.5633	65535	64562.35
842.0351	859.6105	65535	64561.85
842.1802	861.6569	65535	64560.9
842.3253	863.7027	65535	64559.6
842.4704	865.7478	65535	64563.9
842.6156	867.7922	65535	64561.15
842.7607	869.8359	65535	64560.6
842.9058	871.8789	65535	64563.65
843.0509	873.9212	65535	64528.65
843.1961	875.9629	65535	64562.75
843.3412	878.0039	65535	64559.6
843.4863	880.0441	65535	64560.3
843.6315	882.0837	65535	64559.35
843.7766	884.1226	65535	64556.45
843.9218	886.1609	65535	64562.05
844.0669	888.1984	65535	64562.1
844.212	890.2352	65535	64561.95
844.3572	892.2714	65535	64559.3
844.5023	894.3069	65535	64561.55
844.6475	896.3416	65535	64560.9
844.7926	898.3757	65535	64562.7
844.9377	900.4091	65535	64561.35
845.0829	902.4418	65535	64557.55
845.228	904.4739	65535	64560.2
845.3732	906.5052	65535	64557.1
845.5183	908.5358	65535	64562.25
845.6635	910.5658	65535	64553.6
845.8086	912.595	65535	64561.35
845.9538	914.6236	65519.85	64544.85
846.0989	916.6515	65535	64559.55
846.2441	918.6786	65519.9	64542.8
846.3892	920.7051	65527.55	64552.4
846.5344	922.7309	65524.85	64550.25
846.6795	924.756	65528.6	64555.3
846.8246	926.7804	65522.8	64545.65
846.9698	928.8041	65478.1	64502.3
847.1149	930.8272	65515.2	64541.85
847.2601	932.8495	65515.85	64541.35
847.4052	934.8711	65477.95	64502.15
847.5504	936.892	65447.95	64473.35
847.6955	938.9123	65478.6	64499.3
847.8407	940.9318	65448.2	64471.8
847.9858	942.9506	65430.55	64453.6
848.131	944.9688	65435.2	64465.25
848.2761	946.9862	65327.25	64354.05
848.4213	949.003	65383.2	64408.7
848.5664	951.019	65256.55	64284
848.7115	953.0344	65290.05	64311.95
848.8567	955.0491	65249.25	64272.45
849.0018	957.063	65311.7	64334.05
849.147	959.0763	65336.55	64355.35
849.2921	961.0888	65173.05	64197.45
849.4373	963.1007	65292.7	64322.7
849.5824	965.1119	65307.6	64343.4
849.7275	967.1223	65188.3	64232.8
849.8727	969.1321	65326.6	64365.65
850.0178	971.1412	65114.75	64153.35
850.1629	973.1495	65041.65	64072.5
850.3081	975.1572	65187.25	64160.2
850.4532	977.1641	65047.8	64073.4
850.5983	979.1704	65045.3	64067.85
850.7435	981.1759	65050.15	64073.15
850.8886	983.1808	64882.5	63909.2
851.0337	985.1849	64912.55	63928.95
851.1788	987.1884	64991.6	64015.8
851.324	989.1911	65104.9	64130.35
851.4691	991.1932	64607.05	63635.85
851.6142	993.1945	64798.05	63825.7
851.7593	995.1951	64965.7	63991.2
851.9045	997.1951	64613.65	63634.85
852.0496	999.1943	64570.6	63599.2
852.1947	1001.1928	64349.3	63373.55
852.3398	1003.1906	64541.8	63569.3
852.4849	1005.1877	63909.05	62936.45
852.63	1007.1841	63806.6	62834.15
852.7751	1009.1798	63826.45	62857.05
852.9202	1011.1748	63754.1	62781.8
853.0653	1013.1691	63610.75	62637.4
853.2104	1015.1627	62096.2	61127.65
853.3555	1017.1556	62857.25	61893.65
853.5006	1019.1477	63036.55	62070.85
853.6457	1021.1392	62378	61415.4
853.7908	1023.1299	61442.35	60484.1
853.9359	1025.12	62128.85	61177.3
854.081	1027.1093	61630.2	60690.3
854.2261	1029.0979	61606.25	60670.7
854.3712	1031.0859	61513.35	60569.2
854.5163	1033.0731	60757.8	59801.6
854.6613	1035.0596	61128.25	60163.05
854.8064	1037.0454	60901.35	59937.75
854.9515	1039.0304	60420.6	59453.3
855.0965	1041.0148	59491.65	58522.45
855.2416	1042.9985	59741.8	58770
855.3867	1044.9814	60225.4	59258.95
855.5317	1046.9636	59270	58302.1
855.6768	1048.9452	59380.25	58418.9
855.8219	1050.926	59138.1	58171.9
855.9669	1052.9061	59101	58136.25
856.112	1054.8855	59131.45	58158.1
856.257	1056.8642	58690.2	57720.8
856.4021	1058.8421	58360.25	57386.3
856.5471	1060.8194	58419.75	57447.15
856.6921	1062.7959	58045.7	57074.95
856.8372	1064.7717	58461.35	57487.8
856.9822	1066.7469	58090.8	57125.5
857.1272	1068.7213	58049.3	57078.25
857.2723	1070.695	57677	56710.75
857.4173	1072.6679	57187.5	56220.45
857.5623	1074.6402	57424.2	56455.25
857.7073	1076.6117	57002.55	56025.35
857.8523	1078.5826	56959.25	55989
857.9973	1080.5527	57043.2	56072.8
858.1423	1082.5221	56758.8	55791.4
858.2873	1084.4908	56999.9	56030.5
858.4323	1086.4587	56905.05	55938.45
858.5773	1088.426	57005.25	56037.1
858.7223	1090.3925	56801	55828.35
858.8673	1092.3584	56663.3	55695.8
859.0123	1094.3235	56036.2	55069.85
859.1573	1096.2879	55887.4	54922.6
859.3022	1098.2515	55898.55	54930.65
859.4472	1100.2145	55629.05	54662.2
859.5922	1102.1767	55492.9	54523.35
859.7371	1104.1382	55696.1	54732.35
859.8821	1106.099	55577.05	54609.9
860.027	1108.0591	55510.25	54545.8
860.172	1110.0185	55086.6	54119.2
860.3169	1111.9771	55503.25	54535.6
860.4619	1113.9351	54974.8	54012.25
860.6068	1115.8923	54451.1	53484.1
860.7517	1117.8488	53893.4	52925.8
860.8967	1119.8045	53335.35	52370.1
861.0416	1121.7596	53308.9	52344.85
861.1865	1123.7139	52968.3	52004.75
861.3314	1125.6675	52979.5	52017
861.4763	1127.6204	52852.75	51886.45
861.6212	1129.5726	52498.6	51534.05
861.7661	1131.524	52696.35	51729.35
861.911	1133.4748	52683.7	51718.1
862.0559	1135.4248	52351.7	51383.5
862.2008	1137.3741	52303.55	51339.15
862.3457	1139.3226	52130.75	51164.25
862.4905	1141.2705	52047.4	51083.3
862.6354	1143.2176	51761.05	50789.3
862.7803	1145.164	51528.65	50559.3
862.9251	1147.1097	51472.8	50509.75
863.07	1149.0546	51492.55	50520.5
863.2148	1150.9989	51398.8	50437.05
863.3597	1152.9424	50945.85	49981.15
863.5045	1154.8852	50788.35	49824.85
863.6493	1156.8272	50389.6	49427.05
863.7942	1158.7686	50479.4	49510.55
863.939	1160.7092	49918.1	48951.95
864.0838	1162.6491	49818.2	48853.3
864.2286	1164.5883	49857.2	48893.6
864.3734	1166.5267	49663.75	48696.25
864.5182	1168.4644	49820.75	48854.1
864.663	1170.4014	49803.95	48834.2
864.8078	1172.3377	50063.45	49105.65
864.9526	1174.2732	50165.85	49205.75
865.0974	1176.2081	50061.2	49095.6
865.2421	1178.1421	50036.6	49072.5
865.3869	1180.0755	50266.5	49303.9
865.5317	1182.0082	49926.6	48964.75
865.6764	1183.9401	49844.25	48886.1
865.8212	1185.8713	49432.5	48475.45
865.9659	1187.8017	49057.85	48109.6
866.1106	1189.7315	48810.5	47872.65
866.2554	1191.6605	48335.95	47395.25
866.4001	1193.5888	47901.45	46956.3
866.5448	1195.5163	47693	46741.3
866.6895	1197.4432	47423	46466.9
866.8342	1199.3693	47271.5	46311.5
866.9789	1201.2947	47003.55	46034.5
867.1236	1203.2193	46853.8	45896.7
867.2683	1205.1432	46670.55	45712.05
867.413	1207.0664	46545.55	45583.2
867.5576	1208.9889	46475.35	45513.8
867.7023	1210.9106	46423.15	45466.2
867.847	1212.8316	46285	45330.5
867.9916	1214.7519	46267.1	45298.35
868.1363	1216.6715	46093.3	45138.6
868.2809	1218.5903	46005.2	45046.7
868.4255	1220.5084	45753.5	44794.65
868.5701	1222.4257	45683.4	44726.05
868.7148	1224.3424	45324.15	44369.4
868.8594	1226.2583	45306.8	44348.75
869.004	1228.1735	45298.7	44338.5
