Software Version:	3.9.2.0
Unit SN:	10000200
Spectrometer SN:	6960
Date:	3/26/2024 2:30:58 PM
Data Line Index:	25
Spectral Points:	2048
Integration time (ms):	125
Averages:	20
Delay (ms):	30000
Sequence Number:	1
Processing:	dark subtract
Laser Power (mW):	305
Laser Current (mA):	818
Laser Diode Temp (C):	25
Laser Case Temp (C):	27.8
System Temp (C):	27.8
Spectrometer Temp (C):	25.7
CCD Temp (C):	0.007
Secondary Temp (C):	20.004
Heatsink Temp (C):	23.453
CCDPCB Temp (C):	37.207
SecondaryPCB Temp (C):	34.651

Wavelength	RamanShift	Raw Counts	Dark Subtracted
787.061	30.1047	665.95	253.7
787.2016	32.3739	675.95	266.65
787.3422	34.6426	694.6	282.05
787.4828	36.9109	709.6	297.7
787.6235	39.1787	740.2	324.25
787.7642	41.4461	762	340.8
787.9049	43.7131	789.9	367.05
788.0456	45.9796	813.5	386.5
788.1863	48.2456	839.7	408.3
788.3271	50.5112	878.1	443.3
788.4679	52.7764	899	460.45
788.6087	55.0411	939.35	498.05
788.7496	57.3054	966.85	519.95
788.8904	59.5692	1010.65	560.5
789.0313	61.8326	1047.45	593.05
789.1722	64.0955	1085.15	628.35
789.3132	66.3579	1143.9	681.9
789.4541	68.6199	1202.85	740.2
789.5951	70.8815	1309.25	839.35
789.7361	73.1426	1528.65	1056.25
789.8771	75.4032	2079.15	1599.65
790.0181	77.6634	3442.45	2958.25
790.1592	79.9231	6922.8	6428.9
790.3003	82.1824	14861.9	14351.35
790.4414	84.4412	34988.6	34444.4
790.5825	86.6995	62883.65	62294.55
790.7237	88.9574	65535	64900.85
790.8648	91.2148	65535	64874.15
791.006	93.4717	65535	64848.75
791.1472	95.7282	65535	64845.15
791.2885	97.9842	65535	64836.1
791.4297	100.2398	65535	64835.55
791.571	102.4949	65535	64830.7
791.7123	104.7495	65535	64831.85
791.8536	107.0036	65535	64827.9
791.9949	109.2573	65535	64832.2
792.1363	111.5105	65535	64824.1
792.2777	113.7632	65535	64823.5
792.4191	116.0154	65535	64810.7
792.5605	118.2672	65535	64824.2
792.7019	120.5185	65535	64817
792.8434	122.7693	65535	64815.35
792.9849	125.0197	65535	64813.1
793.1264	127.2696	65535	64810.5
793.2679	129.519	65535	64805.25
793.4094	131.7679	65535	64797.05
793.551	134.0163	65535	64797.95
793.6926	136.2642	65535	64798.9
793.8342	138.5117	65535	64793.9
793.9758	140.7587	65535	64790.05
794.1175	143.0052	65535	64790.85
794.2591	145.2512	65535	64788.15
794.4008	147.4967	65535	64792.35
794.5425	149.7417	65535	64785.8
794.6842	151.9863	65535	64782.65
794.826	154.2304	65535	64774.8
794.9677	156.4739	65535	64778.55
795.1095	158.717	65535	64774.95
795.2513	160.9596	65535	64767.15
795.3931	163.2017	65535	64768
795.535	165.4433	65535	64765.2
795.6768	167.6844	65535	64768.1
795.8187	169.925	65535	64763
795.9606	172.1651	65535	64760.95
796.1025	174.4047	65535	64760.1
796.2445	176.6439	65535	64754.65
796.3864	178.8825	65535	64750.65
796.5284	181.1206	65535	64750.35
796.6704	183.3582	65535	64744.7
796.8124	185.5954	65535	64746.15
796.9544	187.832	65535	64739
797.0965	190.0681	65535	64737.8
797.2386	192.3037	65535	64734.1
797.3806	194.5388	65535	64731.3
797.5228	196.7734	65535	64726.55
797.6649	199.0075	65535	64725.1
797.807	201.2411	65535	64721.4
797.9492	203.4742	65535	64720.95
798.0914	205.7068	65535	64720.85
798.2336	207.9389	65535	64722.1
798.3758	210.1704	65535	64720.35
798.518	212.4015	65535	64721.4
798.6603	214.632	65535	64719.7
798.8025	216.862	65535	64729.1
798.9448	219.0915	65535	64735.4
799.0871	221.3205	65535	64735.15
799.2294	223.549	65535	64737.2
799.3718	225.777	65535	64740.2
799.5141	228.0044	65535	64737.95
799.6565	230.2314	65535	64739.5
799.7989	232.4578	65535	64736.55
799.9413	234.6837	65535	64729.25
800.0837	236.909	65535	64727.05
800.2262	239.1339	65535	64703
800.3687	241.3582	65535	64719.55
800.5111	243.582	65535	64685.8
800.6536	245.8053	65535	64699.85
800.7961	248.0281	65535	64702.9
800.9387	250.2503	65535	64694.15
801.0812	252.472	65535	64692.8
801.2238	254.6932	65535	64692.95
801.3664	256.9139	65535	64694.85
801.509	259.134	65535	64686.85
801.6516	261.3536	65535	64688.55
801.7942	263.5727	65535	64688.5
801.9369	265.7912	65535	64691.95
802.0795	268.0092	65535	64689.25
802.2222	270.2267	65535	64688.45
802.3649	272.4436	65535	64689.6
802.5076	274.6601	65535	64682.4
802.6504	276.8759	65535	64686.45
802.7931	279.0913	65535	64684.3
802.9359	281.3061	65535	64683.55
803.0787	283.5204	65535	64678.1
803.2215	285.7341	65535	64672.45
803.3643	287.9473	65535	64663.45
803.5071	290.16	65535	64671.75
803.6499	292.3721	65535	64677
803.7928	294.5837	65535	64675.75
803.9357	296.7947	65535	64674.75
804.0786	299.0052	65535	64674.55
804.2215	301.2152	65535	64672.35
804.3644	303.4246	65535	64680.35
804.5074	305.6334	65535	64681.3
804.6503	307.8418	65535	64674.35
804.7933	310.0495	65535	64670.6
804.9363	312.2568	65535	64673.85
805.0793	314.4635	65535	64670.15
805.2223	316.6696	65535	64669.25
805.3653	318.8752	65535	64658.05
805.5084	321.0802	65535	64665.2
805.6514	323.2847	65535	64661.95
805.7945	325.4887	65535	64666.4
805.9376	327.692	65535	64662.65
806.0807	329.8949	65535	64663.4
806.2238	332.0972	65535	64659.4
806.367	334.2989	65535	64662.6
806.5101	336.5001	65535	64657.7
806.6533	338.7007	65535	64657.5
806.7965	340.9008	65535	64655.8
806.9397	343.1003	65535	64658.2
807.0829	345.2992	65535	64651.8
807.2261	347.4976	65535	64650.25
807.3693	349.6955	65535	64646.35
807.5126	351.8927	65535	64648.1
807.6559	354.0895	65535	64633.75
807.7991	356.2856	65535	64650
807.9424	358.4812	65535	64650.65
808.0857	360.6763	65535	64646.65
808.2291	362.8707	65535	64643.35
808.3724	365.0646	65535	64646.6
808.5158	367.258	65535	64643.4
808.6591	369.4508	65535	64638.9
808.8025	371.643	65535	64636.55
808.9459	373.8346	65535	64635.75
809.0893	376.0257	65535	64633.2
809.2327	378.2162	65535	64634.3
809.3762	380.4062	65535	64632.35
809.5196	382.5956	65535	64635
809.6631	384.7844	65535	64635.55
809.8066	386.9726	65535	64632.55
809.9501	389.1603	65535	64640.15
810.0936	391.3474	65535	64597
810.2371	393.5339	65535	64641.4
810.3806	395.7199	65535	64637
810.5241	397.9052	65535	64646.8
810.6677	400.09	65535	64641.85
810.8113	402.2743	65535	64646.2
810.9548	404.4579	65535	64644.6
811.0984	406.641	65535	64640.4
811.2421	408.8235	65535	64640.1
811.3857	411.0054	65535	64644
811.5293	413.1868	65535	64637.15
811.673	415.3675	65535	64634.55
811.8166	417.5477	65535	64634.25
811.9603	419.7273	65535	64634.3
812.104	421.9064	65535	64624.65
812.2477	424.0848	65535	64632.5
812.3914	426.2627	65535	64627.45
812.5351	428.4399	65535	64628.3
812.6788	430.6166	65535	64623.45
812.8226	432.7928	65535	64625.05
812.9663	434.9683	65535	64626.1
813.1101	437.1432	65535	64626.05
813.2539	439.3176	65535	64627.85
813.3977	441.4914	65535	64633.3
813.5415	443.6645	65535	64631.15
813.6853	445.8371	65535	64627
813.8291	448.0091	65535	64628.15
813.973	450.1806	65535	64633.05
814.1168	452.3514	65535	64630.75
814.2607	454.5216	65535	64622.25
814.4046	456.6913	65535	64621.4
814.5485	458.8603	65535	64627.95
814.6924	461.0288	65535	64629.95
814.8363	463.1967	65535	64637.15
814.9802	465.3639	65535	64634.35
815.1241	467.5306	65535	64627.8
815.2681	469.6967	65535	64631.25
815.412	471.8622	65535	64628.85
815.556	474.0271	65535	64631.4
815.7	476.1914	65535	64624.2
815.844	478.3551	65535	64623.9
815.988	480.5182	65535	64630.45
816.132	482.6807	65535	64638.35
816.276	484.8426	65535	64637.45
816.4201	487.0039	65535	64631.1
816.5641	489.1647	65535	64628.25
816.7082	491.3248	65535	64621.9
816.8522	493.4843	65535	64627.6
816.9963	495.6432	65535	64630.8
817.1404	497.8015	65535	64619.5
817.2845	499.9592	65535	64616.7
817.4286	502.1163	65535	64615.4
817.5727	504.2728	65535	64623.15
817.7168	506.4287	65535	64635.3
817.861	508.5839	65535	64632.45
818.0051	510.7386	65535	64625.8
818.1493	512.8927	65535	64615.75
818.2935	515.0461	65535	64618.85
818.4377	517.199	65535	64619.8
818.5818	519.3512	65535	64615.65
818.726	521.5029	65535	64616.15
818.8703	523.6539	65535	64618.3
819.0145	525.8043	65535	64619.3
819.1587	527.9541	65535	64613
819.303	530.1033	65535	64618
819.4472	532.2519	65535	64613.9
819.5915	534.3999	65535	64612.7
819.7357	536.5472	65535	64620.5
819.88	538.694	65535	64623.75
820.0243	540.8401	65535	64619.1
820.1686	542.9856	65535	64605.3
820.3129	545.1305	65535	64600.6
820.4572	547.2748	65535	64599.5
820.6016	549.4185	65535	64598.2
820.7459	551.5615	65535	64601.35
820.8902	553.704	65535	64599.95
821.0346	555.8458	65535	64607.55
821.1789	557.987	65535	64608.55
821.3233	560.1276	65535	64608.4
821.4677	562.2675	65535	64607.65
821.6121	564.4069	65535	64608.15
821.7565	566.5456	65535	64608.4
821.9009	568.6837	65535	64609.7
822.0453	570.8212	65535	64609.2
822.1897	572.958	65535	64605
822.3342	575.0942	65535	64614.1
822.4786	577.2299	65535	64616.9
822.6231	579.3648	65535	64625.6
822.7675	581.4992	65535	64633.2
822.912	583.6329	65535	64637
823.0565	585.766	65535	64630.15
823.201	587.8985	65535	64625.85
823.3454	590.0304	65535	64593.35
823.4899	592.1616	65535	64609.3
823.6345	594.2922	65535	64606.6
823.779	596.4222	65535	64604.45
823.9235	598.5515	65535	64604.75
824.068	600.6802	65535	64606.7
824.2126	602.8083	65535	64609.7
824.3571	604.9358	65535	64608.35
824.5017	607.0626	65535	64605.45
824.6462	609.1888	65535	64598.85
824.7908	611.3144	65535	64597.75
824.9354	613.4393	65535	64597.95
825.08	615.5636	65535	64598.25
825.2246	617.6873	65535	64603.8
825.3692	619.8103	65535	64597.4
825.5138	621.9327	65535	64600.9
825.6584	624.0544	65535	64608.65
825.803	626.1756	65535	64608.25
825.9477	628.2961	65535	64604.55
826.0923	630.4159	65535	64605.85
826.237	632.5351	65535	64603.05
826.3816	634.6537	65535	64601.35
826.5263	636.7716	65535	64593.95
826.6709	638.8889	65535	64594.95
826.8156	641.0056	65535	64594.8
826.9603	643.1216	65535	64597.9
827.105	645.237	65535	64596.75
827.2497	647.3518	65535	64608.35
827.3944	649.4659	65535	64608.3
827.5391	651.5793	65535	64606.9
827.6838	653.6922	65535	64606.85
827.8285	655.8043	65535	64602.7
827.9733	657.9159	65535	64599.7
828.118	660.0268	65535	64600.7
828.2627	662.137	65535	64598.25
828.4075	664.2466	65535	64593.9
828.5522	666.3556	65535	64596.95
828.697	668.4639	65535	64596.1
828.8418	670.5716	65535	64607.9
828.9865	672.6786	65535	64597.2
829.1313	674.785	65535	64593.75
829.2761	676.8907	65535	64600.6
829.4209	678.9958	65535	64600.8
829.5657	681.1002	65535	64595.75
829.7105	683.204	65535	64591.35
829.8553	685.3072	65535	64596.3
830.0001	687.4097	65535	64596.85
830.1449	689.5115	65535	64593.55
830.2898	691.6127	65535	64595.45
830.4346	693.7132	65535	64598.8
830.5794	695.8131	65535	64581.15
830.7243	697.9123	65535	64587.65
830.8691	700.0109	65535	64592
831.014	702.1089	65535	64596.4
831.1588	704.2061	65535	64596
831.3037	706.3028	65535	64590.2
831.4486	708.3987	65535	64592.25
831.5935	710.4941	65535	64593.45
831.7383	712.5887	65535	64595.45
831.8832	714.6827	65535	64591.55
832.0281	716.7761	65535	64595.7
832.173	718.8688	65535	64594.8
832.3179	720.9608	65535	64586.85
832.4628	723.0522	65535	64587.25
832.6077	725.1429	65535	64591
832.7527	727.233	65535	64590
832.8976	729.3224	65535	64592.1
833.0425	731.4112	65535	64590.2
833.1874	733.4993	65535	64591.55
833.3324	735.5867	65535	64595.1
833.4773	737.6735	65535	64591.6
833.6222	739.7596	65535	64589.2
833.7672	741.845	65535	64594.85
833.9122	743.9298	65535	64589.85
834.0571	746.014	65535	64591.6
834.2021	748.0974	65535	64583.1
834.347	750.1802	65535	64587.5
834.492	752.2624	65535	64584.5
834.637	754.3439	65535	64584.5
834.782	756.4247	65535	64578.7
834.9269	758.5048	65535	64589.3
835.0719	760.5843	65535	64586.8
835.2169	762.6631	65535	64585.2
835.3619	764.7413	65535	64591.2
835.5069	766.8188	65535	64587.4
835.6519	768.8956	65535	64586.1
835.7969	770.9718	65535	64587.2
835.9419	773.0473	65535	64587.35
836.0869	775.1221	65535	64588.45
836.232	777.1962	65535	64584.9
836.377	779.2697	65535	64589.15
836.522	781.3426	65535	64567.8
836.667	783.4147	65535	64588.25
836.8121	785.4862	65535	64587.4
836.9571	787.557	65535	64585.45
837.1021	789.6271	65535	64583.8
837.2472	791.6966	65535	64585.65
837.3922	793.7654	65535	64587.2
837.5373	795.8335	65535	64587.5
837.6823	797.901	65535	64587.95
837.8274	799.9678	65535	64582.75
837.9724	802.0339	65535	64586.95
838.1175	804.0993	65535	64575.95
838.2626	806.1641	65535	64584.55
838.4076	808.2282	65535	64588.2
838.5527	810.2916	65535	64583.95
838.6978	812.3544	65535	64588.35
838.8428	814.4164	65531.65	64585.7
838.9879	816.4778	65532.35	64583
839.133	818.5385	65535	64584.9
839.2781	820.5986	65534.25	64583.4
839.4232	822.658	65534.75	64583.6
839.5682	824.7166	65535	64585.5
839.7133	826.7747	65522.65	64574.7
839.8584	828.832	65526.95	64576.2
840.0035	830.8886	65532.7	64581.65
840.1486	832.9446	65535	64584.4
840.2937	834.9999	65513	64562.7
840.4388	837.0545	65526.65	64569.7
840.5839	839.1085	65535	64586.15
840.729	841.1618	65528.8	64574.85
840.8741	843.2143	65505.6	64551.7
841.0192	845.2662	65503.6	64554.6
841.1643	847.3175	65522.1	64570.3
841.3095	849.368	65463.7	64509.7
841.4546	851.4179	65516.35	64566.75
841.5997	853.467	65472.2	64521.75
841.7448	855.5155	65497.25	64545.2
841.8899	857.5633	65437.5	64485.5
842.0351	859.6105	65415.15	64464.8
842.1802	861.6569	65457.1	64505.85
842.3253	863.7027	65379.4	64430.75
842.4704	865.7478	65396.8	64442.35
842.6156	867.7922	65383.95	64435.15
842.7607	869.8359	65425.3	64475.2
842.9058	871.8789	65353.4	64399.05
843.0509	873.9212	65408.1	64422.95
843.1961	875.9629	65422.65	64471.65
843.3412	878.0039	65398.35	64441.4
843.4863	880.0441	65369.55	64417.15
843.6315	882.0837	65378.65	64426.25
843.7766	884.1226	65363.45	64409.9
843.9218	886.1609	65347	64398.55
844.0669	888.1984	65276.05	64323.05
844.212	890.2352	65357.6	64405.75
844.3572	892.2714	65212.25	64252.45
844.5023	894.3069	65291.25	64337.3
844.6475	896.3416	65199.1	64249.1
844.7926	898.3757	65181.15	64227.55
844.9377	900.4091	64844.05	63888.85
845.0829	902.4418	65252.8	64294.9
845.228	904.4739	65078.25	64121.4
845.3732	906.5052	65095.55	64144.1
845.5183	908.5358	64922.55	63967.65
845.6635	910.5658	64812.95	63857.25
845.8086	912.595	64825.05	63869
845.9538	914.6236	64324	63371
846.0989	916.6515	64990.95	64035.75
846.2441	918.6786	64334.25	63379.65
846.3892	920.7051	64516.15	63562.6
846.5344	922.7309	64380	63423.15
846.6795	924.756	64508.25	63554.05
846.8246	926.7804	64294.15	63338.85
846.9698	928.8041	63691.45	62737.05
847.1149	930.8272	64151.35	63200.15
847.2601	932.8495	64170.35	63217.55
847.4052	934.8711	63706.7	62750.85
847.5504	936.892	63381.15	62425.6
847.6955	938.9123	63550.15	62594.95
847.8407	940.9318	63211.1	62256.85
847.9858	942.9506	63116.9	62164.2
848.131	944.9688	63160.25	62206.45
848.2761	946.9862	62378.05	61421.25
848.4213	949.003	62694.65	61743.1
848.5664	951.019	61948.25	60991.45
848.7115	953.0344	62099.4	61144.9
848.8567	955.0491	61984.95	61031.85
849.0018	957.063	62328.05	61375.35
849.147	959.0763	62358.55	61395.4
849.2921	961.0888	61708.5	60757.95
849.4373	963.1007	62167.8	61217.35
849.5824	965.1119	62179.9	61233.05
849.7275	967.1223	61743.2	60799.1
849.8727	969.1321	62270.2	61330
850.0178	971.1412	61547.6	60602.3
850.1629	973.1495	61270.6	60321.6
850.3081	975.1572	61534.35	60549.85
850.4532	977.1641	61202.2	60249.3
850.5983	979.1704	61079.2	60126.05
850.7435	981.1759	61170.95	60212.75
850.8886	983.1808	60725.5	59774.25
851.0337	985.1849	60805.2	59841.85
851.1788	987.1884	60959.35	60006.8
851.324	989.1911	61352.15	60400.8
851.4691	991.1932	60203.7	59252
851.6142	993.1945	60479.9	59529
851.7593	995.1951	60799.15	59845.35
851.9045	997.1951	60036.9	59078.55
852.0496	999.1943	59842.6	58891.75
852.1947	1001.1928	59602.1	58647.65
852.3398	1003.1906	59711.95	58762.45
852.4849	1005.1877	58837.15	57884.55
852.63	1007.1841	58553.95	57601.1
852.7751	1009.1798	58506	57554
852.9202	1011.1748	58312.55	57360.65
853.0653	1013.1691	58036.9	57084.4
853.2104	1015.1627	56702.15	55749.1
853.3555	1017.1556	56840.45	55890.15
853.5006	1019.1477	56954.5	56001.5
853.6457	1021.1392	56233.45	55289.4
853.7908	1023.1299	55532.3	54590.25
853.9359	1025.12	55842.05	54905.2
854.081	1027.1093	55425.45	54497.35
854.2261	1029.0979	55369.9	54442.2
854.3712	1031.0859	55247.65	54318.5
854.5163	1033.0731	54662.25	53724.4
854.6613	1035.0596	54703.95	53761.4
854.8064	1037.0454	54451	53503.9
854.9515	1039.0304	53926	52977
855.0965	1041.0148	53370.05	52423.2
855.2416	1042.9985	53313.95	52364.15
855.3867	1044.9814	53437.05	52489.7
855.5317	1046.9636	52922.75	51968.55
855.6768	1048.9452	52783	51839.05
855.8219	1050.926	52669.25	51721.3
855.9669	1052.9061	52498.7	51550.25
856.112	1054.8855	52515.65	51569.2
856.257	1056.8642	52121.3	51173.25
856.4021	1058.8421	52066.55	51110.85
856.5471	1060.8194	51901.3	50951.8
856.6921	1062.7959	51706.25	50757.6
856.8372	1064.7717	51695.55	50743.55
856.9822	1066.7469	51469.95	50520.05
857.1272	1068.7213	51394.2	50442.15
857.2723	1070.695	51213.25	50262.1
857.4173	1072.6679	50714.65	49764.3
857.5623	1074.6402	50661.45	49710.65
857.7073	1076.6117	50469.15	49513.95
857.8523	1078.5826	50442.1	49491.45
857.9973	1080.5527	50372.05	49419.15
858.1423	1082.5221	50320.65	49373.9
858.2873	1084.4908	50464.55	49517.5
858.4323	1086.4587	50483.55	49536.95
858.5773	1088.426	50559	49608.85
858.7223	1090.3925	50365.5	49417.5
858.8673	1092.3584	50152.25	49200.55
859.0123	1094.3235	49680	48733.2
859.1573	1096.2879	49434.3	48484.55
859.3022	1098.2515	49269.65	48324
859.4472	1100.2145	49204.25	48257.05
859.5922	1102.1767	49066.05	48115.75
859.7371	1104.1382	49073.85	48127.25
859.8821	1106.099	49080.3	48130.25
860.027	1108.0591	49105.6	48161.3
860.172	1110.0185	49026.4	48078.85
860.3169	1111.9771	49022.8	48080.7
860.4619	1113.9351	48556.1	47608.45
860.6068	1115.8923	48024.3	47075.15
860.7517	1117.8488	47520.85	46570.85
860.8967	1119.8045	47019.55	46076.25
861.0416	1121.7596	46853.2	45900.85
861.1865	1123.7139	46592.75	45646.2
861.3314	1125.6675	46534.3	45589.5
861.4763	1127.6204	46587.55	45640.7
861.6212	1129.5726	46333.55	45385.45
861.7661	1131.524	46309	45359.35
861.911	1133.4748	46253.3	45306.85
862.0559	1135.4248	46101.6	45153.9
862.2008	1137.3741	46070.45	45122.9
862.3457	1139.3226	45952	45004.25
862.4905	1141.2705	45835.95	44889.2
862.6354	1143.2176	45502.75	44551.1
862.7803	1145.164	45428.85	44481.15
862.9251	1147.1097	45283.65	44339.95
863.07	1149.0546	45178.35	44233.15
863.2148	1150.9989	45094.8	44148.3
863.3597	1152.9424	44832.25	43884.25
863.5045	1154.8852	44542.35	43594
863.6493	1156.8272	44307	43361.75
863.7942	1158.7686	44162.95	43207.8
863.939	1160.7092	43852.2	42905.4
864.0838	1162.6491	43616.25	42665.8
864.2286	1164.5883	43689.4	42746.1
864.3734	1166.5267	43667.3	42720.7
864.5182	1168.4644	43688.65	42741.35
864.663	1170.4014	43759.2	42808.15
864.8078	1172.3377	43941.2	42998.15
864.9526	1174.2732	44024.8	43081.45
865.0974	1176.2081	44165.8	43221.2
865.2421	1178.1421	44178.2	43227.65
865.3869	1180.0755	44232.6	43289.05
865.5317	1182.0082	44014.2	43070.8
865.6764	1183.9401	43858.15	42916.8
865.8212	1185.8713	43489.95	42552.95
865.9659	1187.8017	43163.5	42231.45
866.1106	1189.7315	42811.45	41884.85
866.2554	1191.6605	42344.85	41418.95
866.4001	1193.5888	41979.7	41049.35
866.5448	1195.5163	41809.85	40869.85
866.6895	1197.4432	41541.25	40603.35
866.8342	1199.3693	41370.5	40427.4
866.9789	1201.2947	41088.65	40138.1
867.1236	1203.2193	40917	39974.4
867.2683	1205.1432	40865.8	39922
867.413	1207.0664	40793.5	39847.5
867.5576	1208.9889	40732.7	39788.5
867.7023	1210.9106	40629.95	39685.35
867.847	1212.8316	40464.95	39521.45
867.9916	1214.7519	40522.4	39570.5
868.1363	1216.6715	40343.05	39403.25
868.2809	1218.5903	40265.95	39324.8
868.4255	1220.5084	40103.65	39160.85
868.5701	1222.4257	40083.55	39143.45
868.7148	1224.3424	39703.1	38766.85
