Software Version:	3.9.2.0
Unit SN:	10000200
Spectrometer SN:	6960
Date:	3/26/2024 1:49:03 PM
Data Line Index:	25
Spectral Points:	2048
Integration time (ms):	125
Averages:	20
Delay (ms):	30000
Sequence Number:	1
Processing:	dark subtract
Laser Power (mW):	305
Laser Current (mA):	821
Laser Diode Temp (C):	25.1
Laser Case Temp (C):	27.2
System Temp (C):	27.3
Spectrometer Temp (C):	25.1
CCD Temp (C):	0.007
Secondary Temp (C):	20.007
Heatsink Temp (C):	22.433
CCDPCB Temp (C):	36.807
SecondaryPCB Temp (C):	34.128

Wavelength	RamanShift	Raw Counts	Dark Subtracted
787.061	30.1047	614.8	201.75
787.2016	32.3739	622.5	211.3
787.3422	34.6426	638.35	226
787.4828	36.9109	655.25	244.75
787.6235	39.1787	670.55	252.15
787.7642	41.4461	693.55	270.75
787.9049	43.7131	715.15	290.5
788.0456	45.9796	736.95	309.8
788.1863	48.2456	760.65	328.8
788.3271	50.5112	783.6	347.05
788.4679	52.7764	806.15	369.35
788.6087	55.0411	829.35	389.05
788.7496	57.3054	858.7	412.9
788.8904	59.5692	889.9	442.45
789.0313	61.8326	919	468.5
789.1722	64.0955	956.4	499.55
789.3132	66.3579	997.9	535.4
789.4541	68.6199	1045.65	580.15
789.5951	70.8815	1136.75	668.75
789.7361	73.1426	1322.1	851.35
789.8771	75.4032	1783.45	1306.9
790.0181	77.6634	2946.3	2461.5
790.1592	79.9231	5832.1	5339.05
790.3003	82.1824	12448.45	11932.6
790.4414	84.4412	26411.9	25859.95
790.5825	86.6995	50098.7	49499.4
790.7237	88.9574	61084.1	60437.2
790.8648	91.2148	64447.35	63768
791.006	93.4717	64948.45	64247.45
791.1472	95.7282	65151.45	64436.2
791.2885	97.9842	65235.15	64518.35
791.4297	100.2398	65184	64465.25
791.571	102.4949	65172.15	64448.7
791.7123	104.7495	65105.55	64378.7
791.8536	107.0036	65047.65	64323.2
791.9949	109.2573	65114.5	64394.45
792.1363	111.5105	65010.25	64279.65
792.2777	113.7632	64976.15	64251.4
792.4191	116.0154	65024.5	64285.85
792.5605	118.2672	65101.8	64368.05
792.7019	120.5185	65099.25	64364.05
792.8434	122.7693	65061.95	64325.45
792.9849	125.0197	64871.9	64134.9
793.1264	127.2696	65188.7	64448.35
793.2679	129.519	65088.55	64343.65
793.4094	131.7679	65205.35	64454.9
793.551	134.0163	64924.35	64169.7
793.6926	136.2642	65014.4	64252.8
793.8342	138.5117	65168.5	64401.9
793.9758	140.7587	65097.35	64336.5
794.1175	143.0052	65068	64303.9
794.2591	145.2512	64900.85	64141.45
794.4008	147.4967	65080.3	64318.3
794.5425	149.7417	65036.9	64270.3
794.6842	151.9863	65000.85	64230.55
794.826	154.2304	64934.4	64159.55
794.9677	156.4739	64944.15	64162.55
795.1095	158.717	65102.9	64322
795.2513	160.9596	64972.25	64187.5
795.3931	163.2017	64807.8	64021.75
795.535	165.4433	64969.6	64182.1
795.6768	167.6844	64869.15	64084.75
795.8187	169.925	64922.7	64133.9
795.9606	172.1651	64779.95	63991.3
796.1025	174.4047	64874.45	64087.6
796.2445	176.6439	64810.45	64018.95
796.3864	178.8825	64714.95	63918.7
796.5284	181.1206	64921.1	64116.2
796.6704	183.3582	64852.45	64045.4
796.8124	185.5954	64786.5	63980.7
796.9544	187.832	64800.7	63991.1
797.0965	190.0681	64632.55	63818.45
797.2386	192.3037	64848.15	64029.8
797.3806	194.5388	65076.35	64255.4
797.5228	196.7734	64511.2	63691.1
797.6649	199.0075	65063.1	64234.15
797.807	201.2411	64839.55	64008.1
797.9492	203.4742	65139.1	64305.95
798.0914	205.7068	65053.7	64224.1
798.2336	207.9389	65043.7	64211.05
798.3758	210.1704	65012.15	64178.55
798.518	212.4015	65182.05	64344.8
798.6603	214.632	64990.25	64154.45
798.8025	216.862	65207.35	64380.15
798.9448	219.0915	65048.85	64232.3
799.0871	221.3205	65058.5	64238.9
799.2294	223.549	65246.15	64432.7
799.3718	225.777	65200.85	64386.6
799.5141	228.0044	65291.65	64470.7
799.6565	230.2314	65229.2	64414.8
799.7989	232.4578	65227.65	64415.9
799.9413	234.6837	65262.45	64439.85
800.0837	236.909	65387.05	64559.8
800.2262	239.1339	65124.4	64273.55
800.3687	241.3582	65289.05	64449.15
800.5111	243.582	65282.55	64416.15
800.6536	245.8053	65255.3	64402.6
800.7961	248.0281	65290.35	64444.4
800.9387	250.2503	65316.05	64463.3
801.0812	252.472	65215.2	64354.15
801.2238	254.6932	65296.4	64436.65
801.3664	256.9139	65248.55	64392.2
801.509	259.134	65389.85	64528.2
801.6516	261.3536	65243.4	64378.6
801.7942	263.5727	65321.6	64450.95
801.9369	265.7912	65298.25	64433.95
802.0795	268.0092	65314.15	64451.1
802.2222	270.2267	65328.85	64463.25
802.3649	272.4436	65257.55	64393.35
802.5076	274.6601	65338.6	64464.1
802.6504	276.8759	65353.15	64485.45
802.7931	279.0913	65305	64435
802.9359	281.3061	65335.25	64464.25
803.0787	283.5204	65324.1	64447
803.2215	285.7341	65318.3	64439.95
803.3643	287.9473	65376.5	64483.4
803.5071	290.16	65340.65	64457.95
803.6499	292.3721	65342.85	64465.45
803.7928	294.5837	65319.4	64441.7
803.9357	296.7947	65294.55	64415.95
804.0786	299.0052	65386.35	64504.5
804.2215	301.2152	65341.95	64461.5
804.3644	303.4246	65363.5	64486.25
804.5074	305.6334	65350.35	64474.95
804.6503	307.8418	65272.3	64389.15
804.7933	310.0495	65246.05	64363.6
804.9363	312.2568	65254.95	64369.25
805.0793	314.4635	65233.2	64351.7
805.2223	316.6696	65288.15	64398
805.3653	318.8752	65315.2	64421.1
805.5084	321.0802	65096.9	64208.95
805.6514	323.2847	65229.95	64339.4
805.7945	325.4887	65192.7	64302
805.9376	327.692	65160.05	64268.25
806.0807	329.8949	65203	64309.7
806.2238	332.0972	65134.7	64237.1
806.367	334.2989	65184.55	64286.25
806.5101	336.5001	65240.2	64339.05
806.6533	338.7007	65015.75	64115.4
806.7965	340.9008	65143.2	64247.3
806.9397	343.1003	65162.65	64260.4
807.0829	345.2992	65218.2	64321.3
807.2261	347.4976	65104	64202.3
807.3693	349.6955	65156.35	64249.4
807.5126	351.8927	65050.15	64144.25
807.6559	354.0895	65153.3	64233.5
807.7991	356.2856	65137.9	64232.95
807.9424	358.4812	65213.5	64309.9
808.0857	360.6763	65011.4	64104.35
808.2291	362.8707	65222.5	64315.8
808.3724	365.0646	65085.85	64177.05
808.5158	367.258	65095.15	64183.25
808.6591	369.4508	64948.1	64031.7
808.8025	371.643	65194.3	64277.2
808.9459	373.8346	65098.75	64184.45
809.0893	376.0257	65121.2	64203.7
809.2327	378.2162	65068.35	64150.1
809.3762	380.4062	64843.8	63925.05
809.5196	382.5956	65058.25	64137.9
809.6631	384.7844	65010.7	64092.4
809.8066	386.9726	65110.25	64189.75
809.9501	389.1603	65070	64154.05
810.0936	391.3474	64910.55	63960.15
810.2371	393.5339	65027.7	64106.95
810.3806	395.7199	64781.6	63869.2
810.5241	397.9052	64861.7	63950.6
810.6677	400.09	64924.6	64019.15
810.8113	402.2743	65087.95	64179.6
810.9548	404.4579	64857.6	63949.95
811.0984	406.641	64909.9	63998.9
811.2421	408.8235	64979.85	64065.65
811.3857	411.0054	65021.95	64113.05
811.5293	413.1868	65062.6	64148.85
811.673	415.3675	64970	64052
811.8166	417.5477	64972.9	64058.55
811.9603	419.7273	64992.8	64076.1
812.104	421.9064	64972.7	64045.25
812.2477	424.0848	64973.7	64050.6
812.3914	426.2627	65115.15	64194.2
812.5351	428.4399	64864.95	63945.3
812.6788	430.6166	64640.95	63712.35
812.8226	432.7928	64880.8	63951.15
812.9663	434.9683	64699.55	63781.1
813.1101	437.1432	64665.8	63744.9
813.2539	439.3176	64844.3	63927.1
813.3977	441.4914	64549.7	63634.6
813.5415	443.6645	64583.3	63661.65
813.6853	445.8371	64617.15	63694.5
813.8291	448.0091	64484.2	63556.4
813.973	450.1806	64411.7	63493.6
814.1168	452.3514	64480.4	63561.9
814.2607	454.5216	64305.3	63381.55
814.4046	456.6913	64492.3	63569.15
814.5485	458.8603	64531	63608.45
814.6924	461.0288	64272.7	63357.05
814.8363	463.1967	64501.7	63588.1
814.9802	465.3639	64501.2	63579.3
815.1241	467.5306	64096.2	63173.5
815.2681	469.6967	64361.85	63443.2
815.412	471.8622	64506.9	63590.6
815.556	474.0271	64351	63431
815.7	476.1914	64389.85	63463.55
815.844	478.3551	64400.1	63473.8
815.988	480.5182	64609.1	63692.4
816.132	482.6807	64293.3	63379.05
816.276	484.8426	64344.2	63437.3
816.4201	487.0039	64607.75	63694.3
816.5641	489.1647	64616	63698.75
816.7082	491.3248	64331.3	63409.25
816.8522	493.4843	64663.8	63743.8
816.9963	495.6432	64666.7	63751.45
817.1404	497.8015	64348.25	63414.9
817.2845	499.9592	64534.15	63596.8
817.4286	502.1163	64484.55	63551.15
817.5727	504.2728	64454	63527.35
817.7168	506.4287	64393	63482.6
817.861	508.5839	64216.35	63301.35
818.0051	510.7386	64355.8	63436.2
818.1493	512.8927	64364.7	63435.1
818.2935	515.0461	64289.9	63360.9
818.4377	517.199	64436.55	63505
818.5818	519.3512	64267.7	63336.1
818.726	521.5029	64304.1	63369.65
818.8703	523.6539	64350.7	63422.3
819.0145	525.8043	64059.35	63126.45
819.1587	527.9541	64322.1	63393.8
819.303	530.1033	64270.9	63334.1
819.4472	532.2519	64121.85	63188.3
819.5915	534.3999	64357.6	63423.85
819.7357	536.5472	64461.45	63532.05
819.88	538.694	64124.7	63198.45
820.0243	540.8401	64348.15	63417.6
820.1686	542.9856	64385.55	63444.3
820.3129	545.1305	64499.35	63548.6
820.4572	547.2748	64241.8	63290.4
820.6016	549.4185	64197.8	63244.7
820.7459	551.5615	64402.9	63450.05
820.8902	553.704	64340.25	63387.2
821.0346	555.8458	64213.6	63272.6
821.1789	557.987	64275.9	63332.2
821.3233	560.1276	64372.85	63426.75
821.4677	562.2675	64288.6	63344.95
821.6121	564.4069	64366.05	63418.75
821.7565	566.5456	64497	63556.8
821.9009	568.6837	64221.4	63282
822.0453	570.8212	64312.65	63374.7
822.1897	572.958	63895.5	62956.8
822.3342	575.0942	64170.65	63237.1
822.4786	577.2299	63922.35	62992.85
822.6231	579.3648	63881.6	62962.55
822.7675	581.4992	63800.65	62891.6
822.912	583.6329	63774.8	62863.5
823.0565	585.766	63793	62877
823.201	587.8985	63955	63032.6
823.3454	590.0304	63588.1	62630.15
823.4899	592.1616	63864.4	62924.2
823.6345	594.2922	63685.9	62741.5
823.779	596.4222	63430.55	62484.75
823.9235	598.5515	63518.4	62568.7
824.068	600.6802	63676.15	62731.9
824.2126	602.8083	63311.7	62372.65
824.3571	604.9358	63271.85	62328.1
824.5017	607.0626	63577.2	62629.6
824.6462	609.1888	63100.15	62147.6
824.7908	611.3144	63418.35	62467.65
824.9354	613.4393	63278.7	62321.65
825.08	615.5636	63056.85	62105.85
825.2246	617.6873	63291.85	62343.5
825.3692	619.8103	62997.5	62047.55
825.5138	621.9327	63346.75	62405.05
825.6584	624.0544	63318.35	62374.35
825.803	626.1756	63066.4	62124
825.9477	628.2961	63061.45	62119.4
826.0923	630.4159	62882.85	61935.25
826.237	632.5351	62827.85	61878.5
826.3816	634.6537	63352.05	62400.9
826.5263	636.7716	62755.45	61800.8
826.6709	638.8889	62901.35	61939.7
826.8156	641.0056	62865.65	61909.75
826.9603	643.1216	62971.6	62015.3
827.105	645.237	63065.95	62112.4
827.2497	647.3518	62722.45	61777.8
827.3944	649.4659	62813.4	61873.35
827.5391	651.5793	62836.15	61892.55
827.6838	653.6922	62893.35	61945.95
827.8285	655.8043	62526.1	61580.25
827.9733	657.9159	63026.95	62081.25
828.118	660.0268	62212.8	61265.55
828.2627	662.137	62672.65	61719.9
828.4075	664.2466	62704.15	61748.2
828.5522	666.3556	62510.75	61556.6
828.697	668.4639	62656.45	61706.35
828.8418	670.5716	62455.3	61513.15
828.9865	672.6786	62632.55	61682.7
829.1313	674.785	62375.85	61418.15
829.2761	676.8907	62411.35	61464.2
829.4209	678.9958	62468.2	61526.7
829.5657	681.1002	62564.85	61615.7
829.7105	683.204	62246.65	61283.85
829.8553	685.3072	62121.1	61161.5
830.0001	687.4097	62261.05	61305.45
830.1449	689.5115	62192.5	61240.7
830.2898	691.6127	62361.35	61413
830.4346	693.7132	62110.4	61159.35
830.5794	695.8131	62181.05	61210.7
830.7243	697.9123	62244.5	61284.4
830.8691	700.0109	62284.35	61323.8
831.014	702.1089	61927.15	60967.65
831.1588	704.2061	62060.15	61104.65
831.3037	706.3028	62052.6	61095.85
831.4486	708.3987	62088.9	61131.3
831.5935	710.4941	61972.4	61015.2
831.7383	712.5887	62175.8	61223.8
831.8832	714.6827	62042.95	61089.4
832.0281	716.7761	62198.45	61243.05
832.173	718.8688	62276.6	61320.7
832.3179	720.9608	62099.9	61138.35
832.4628	723.0522	62134.95	61168.2
832.6077	725.1429	61943.25	60983.7
832.7527	727.233	62423.95	61464.2
832.8976	729.3224	61704.1	60745.85
833.0425	731.4112	61895.85	60941
833.1874	733.4993	61881.05	60926.35
833.3324	735.5867	61815.6	60857.65
833.4773	737.6735	61672.2	60710.85
833.6222	739.7596	61482.25	60521.95
833.7672	741.845	61502.95	60543.7
833.9122	743.9298	61582.15	60620.15
834.0571	746.014	61432.3	60476.65
834.2021	748.0974	61257.45	60294.5
834.347	750.1802	61535.05	60573.4
834.492	752.2624	61088.85	60123.15
834.637	754.3439	61181	60214.6
834.782	756.4247	61249.35	60279.2
834.9269	758.5048	61097.7	60135.75
835.0719	760.5843	61197.6	60234.4
835.2169	762.6631	61316.1	60353.85
835.3619	764.7413	61333.15	60372.7
835.5069	766.8188	61453.65	60491.1
835.6519	768.8956	61626.3	60661.75
835.7969	770.9718	61643.75	60679.2
835.9419	773.0473	61527.3	60565
836.0869	775.1221	61304.7	60345.4
836.232	777.1962	61245	60283.55
836.377	779.2697	60997.45	60032.95
836.522	781.3426	61116.35	60143.25
836.667	783.4147	61173.2	60209.2
836.8121	785.4862	61125.1	60164.5
836.9571	787.557	60950.25	59985.25
837.1021	789.6271	60978.45	60014.95
837.2472	791.6966	60665.5	59698.4
837.3922	793.7654	60293.1	59329.95
837.5373	795.8335	60255.4	59292.9
837.6823	797.901	60238	59276.35
837.8274	799.9678	60074.1	59108.2
837.9724	802.0339	59976.5	59012.3
838.1175	804.0993	59969.2	58993.85
838.2626	806.1641	59879.15	58913.9
838.4076	808.2282	59783.8	58821.45
838.5527	810.2916	59726.45	58763.45
838.6978	812.3544	59805.25	58843.85
838.8428	814.4164	59527.75	58564.6
838.9879	816.4778	59593.5	58623.9
839.133	818.5385	59567.35	58602.2
839.2781	820.5986	59544.4	58577.4
839.4232	822.658	59631	58659.85
839.5682	824.7166	59708.6	58746.2
839.7133	826.7747	59558.1	58594.3
839.8584	828.832	59772.45	58805.85
840.0035	830.8886	59898.3	58933.8
840.1486	832.9446	59929.7	58962.85
840.2937	834.9999	59443.15	58482.3
840.4388	837.0545	59598.95	58628.15
840.5839	839.1085	59614.55	58645.4
840.729	841.1618	59424.4	58454.7
840.8741	843.2143	59108.85	58143.55
841.0192	845.2662	59029.95	58062
841.1643	847.3175	59075.35	58109.5
841.3095	849.368	58686.8	57721.6
841.4546	851.4179	58910.45	57947.7
841.5997	853.467	58611.5	57646.4
841.7448	855.5155	58711.45	57747.1
841.8899	857.5633	58443.2	57472.4
842.0351	859.6105	58298.05	57330.55
842.1802	861.6569	58380.35	57413.25
842.3253	863.7027	58038.9	57071.4
842.4704	865.7478	58156.75	57188.15
842.6156	867.7922	58025.35	57057.45
842.7607	869.8359	58145.65	57180.15
842.9058	871.8789	57749.6	56780.5
843.0509	873.9212	57963.1	56965.15
843.1961	875.9629	57955.8	56986.2
843.3412	878.0039	57952.75	56981.05
843.4863	880.0441	57831.3	56865.15
843.6315	882.0837	57890.35	56925.85
843.7766	884.1226	57841.25	56874.75
843.9218	886.1609	57832.65	56867.15
844.0669	888.1984	57626.25	56660.1
844.212	890.2352	57915.4	56947.6
844.3572	892.2714	57525.85	56551.75
844.5023	894.3069	57731.15	56758.95
844.6475	896.3416	57349.95	56385.5
844.7926	898.3757	57247.55	56283.4
844.9377	900.4091	56771.45	55801.35
845.0829	902.4418	57325.55	56351.35
845.228	904.4739	56975.2	56006.95
845.3732	906.5052	57101.1	56131.15
845.5183	908.5358	56842.95	55873.15
845.6635	910.5658	56604.55	55633.1
845.8086	912.595	56495	55525.3
845.9538	914.6236	55853.05	54885.8
846.0989	916.6515	56571.2	55601.9
846.2441	918.6786	55688.95	54720
846.3892	920.7051	55883.25	54914.15
846.5344	922.7309	55778.35	54811.2
846.6795	924.756	55856.8	54890.1
846.8246	926.7804	55594.05	54624.7
846.9698	928.8041	54975.05	54007.1
847.1149	930.8272	55434	54464.7
847.2601	932.8495	55348.2	54378.7
847.4052	934.8711	54934.5	53962.6
847.5504	936.892	54610.8	53639.6
847.6955	938.9123	54783.65	53814.15
847.8407	940.9318	54525.4	53558.3
847.9858	942.9506	54351.6	53384.75
848.131	944.9688	54370.75	53405.4
848.2761	946.9862	53662.25	52694.8
848.4213	949.003	53764.45	52794.9
848.5664	951.019	53109.45	52138.75
848.7115	953.0344	53185.4	52218.3
848.8567	955.0491	53088.05	52120.25
849.0018	957.063	53226	52257.35
849.147	959.0763	53366.4	52394.3
849.2921	961.0888	52899.5	51930.05
849.4373	963.1007	53249.9	52283.05
849.5824	965.1119	53162.6	52204
849.7275	967.1223	52783.6	51831.85
849.8727	969.1321	53130.25	52175.6
850.0178	971.1412	52639.8	51680.75
850.1629	973.1495	52364.95	51396.6
850.3081	975.1572	52492.15	51486.9
850.4532	977.1641	52327.4	51362
850.5983	979.1704	52225.05	51255.45
850.7435	981.1759	52182.2	51209.25
850.8886	983.1808	51873.65	50901.5
851.0337	985.1849	51873.85	50895.5
851.1788	987.1884	51935.25	50965.85
851.324	989.1911	52148.35	51180.95
851.4691	991.1932	51509.95	50543.9
851.6142	993.1945	51600.45	50637.7
851.7593	995.1951	51560	50595.55
851.9045	997.1951	51178	50206.7
852.0496	999.1943	51007	50039.95
852.1947	1001.1928	50838.95	49868.6
852.3398	1003.1906	50888.65	49921.65
852.4849	1005.1877	50563.75	49600
852.63	1007.1841	50347.95	49383.8
852.7751	1009.1798	50292.1	49330.8
852.9202	1011.1748	50162.85	49198.25
853.0653	1013.1691	49889.6	48924.8
853.2104	1015.1627	49147.75	48186.85
853.3555	1017.1556	49042.35	48082.05
853.5006	1019.1477	49045.95	48082.85
853.6457	1021.1392	48542.1	47589.1
853.7908	1023.1299	48097.85	47141.6
853.9359	1025.12	48194.4	47246.75
854.081	1027.1093	47940.55	47000.9
854.2261	1029.0979	47924	46989.9
854.3712	1031.0859	47868.8	46925.05
854.5163	1033.0731	47500.15	46543.2
854.6613	1035.0596	47518.95	46564.85
854.8064	1037.0454	47284.95	46327.15
854.9515	1039.0304	46986.5	46027
855.0965	1041.0148	46592.9	45632.8
855.2416	1042.9985	46442.95	45480.15
855.3867	1044.9814	46484.4	45524.75
855.5317	1046.9636	46104.2	45143.9
855.6768	1048.9452	45971.7	45011.6
855.8219	1050.926	45962.85	45003.2
855.9669	1052.9061	45900.8	44941.65
856.112	1054.8855	45826.35	44863.8
856.257	1056.8642	45682.25	44720
856.4021	1058.8421	45627.05	44658.85
856.5471	1060.8194	45537.8	44573.7
856.6921	1062.7959	45407.3	44443.15
856.8372	1064.7717	45395.45	44431.15
856.9822	1066.7469	45289.3	44327.55
857.1272	1068.7213	45288.05	44323.65
857.2723	1070.695	45210.7	44249
857.4173	1072.6679	44987.55	44023.1
857.5623	1074.6402	44993.15	44030.4
857.7073	1076.6117	44904.45	43940.7
857.8523	1078.5826	44747.55	43786.6
857.9973	1080.5527	44567.05	43600.9
858.1423	1082.5221	44344.15	43383.4
858.2873	1084.4908	44293.25	43328.95
858.4323	1086.4587	44169.45	43203.9
858.5773	1088.426	44254.8	43294.8
858.7223	1090.3925	44092.15	43127.85
858.8673	1092.3584	44023.45	43061.6
859.0123	1094.3235	43743.8	42783.9
859.1573	1096.2879	43659.85	42699.55
859.3022	1098.2515	43652.5	42691.9
859.4472	1100.2145	43704.6	42745.25
859.5922	1102.1767	43664.8	42702.4
859.7371	1104.1382	43754.25	42795.55
859.8821	1106.099	43836.65	42876.35
860.027	1108.0591	43854.1	42894.75
860.172	1110.0185	43829.05	42867.15
860.3169	1111.9771	43896.7	42934.7
860.4619	1113.9351	43589.95	42631.05
860.6068	1115.8923	43349.5	42386.25
860.7517	1117.8488	43034.1	42074.45
860.8967	1119.8045	42689.2	41728.4
861.0416	1121.7596	42581	41618.9
861.1865	1123.7139	42350.4	41392.95
861.3314	1125.6675	42202.3	41245.3
861.4763	1127.6204	42247.45	41288.9
861.6212	1129.5726	42037.65	41079.2
861.7661	1131.524	41932.4	40974.7
861.911	1133.4748	41853.6	40895.45
862.0559	1135.4248	41583.45	40626.65
862.2008	1137.3741	41420.35	40457.2
862.3457	1139.3226	41228.85	40271.15
862.4905	1141.2705	41163.15	40201.85
862.6354	1143.2176	40862.5	39894.55
862.7803	1145.164	40823.7	39858.35
862.9251	1147.1097	40686.25	39728.1
863.07	1149.0546	40565.45	39603.1
863.2148	1150.9989	40467	39506.7
863.3597	1152.9424	40336.5	39376.05
863.5045	1154.8852	40131.4	39175.8
863.6493	1156.8272	40012.15	39054.5
863.7942	1158.7686	40016.5	39052.55
863.939	1160.7092	39840.75	38882.8
864.0838	1162.6491	39687.1	38728.8
864.2286	1164.5883	39754.5	38797.15
864.3734	1166.5267	39676.15	38720.7
864.5182	1168.4644	39800.3	38843.45
864.663	1170.4014	39866.6	38907.15
864.8078	1172.3377	40050.3	39093.35
864.9526	1174.2732	40180.9	39223.2
865.0974	1176.2081	40432.6	39475.05
865.2421	1178.1421	40675.9	39715.15
865.3869	1180.0755	40949.05	39993.55
865.5317	1182.0082	40970	40015.15
