Software Version:	3.9.2.0
Unit SN:	10000200
Spectrometer SN:	6960
Date:	3/26/2024 2:29:23 PM
Data Line Index:	25
Spectral Points:	2048
Integration time (ms):	125
Averages:	20
Delay (ms):	30000
Sequence Number:	1
Processing:	dark subtract
Laser Power (mW):	305
Laser Current (mA):	820
Laser Diode Temp (C):	25
Laser Case Temp (C):	27.8
System Temp (C):	27.8
Spectrometer Temp (C):	25.6
CCD Temp (C):	0.008
Secondary Temp (C):	20.007
Heatsink Temp (C):	23.318
CCDPCB Temp (C):	37.196
SecondaryPCB Temp (C):	34.406

Wavelength	RamanShift	Raw Counts	Dark Subtracted
787.061	30.1047	658.95	250.05
787.2016	32.3739	673.7	267.15
787.3422	34.6426	689.85	283
787.4828	36.9109	707.6	299.2
787.6235	39.1787	730.45	317.85
787.7642	41.4461	753.25	335.75
787.9049	43.7131	784.45	362.25
788.0456	45.9796	809.4	382.4
788.1863	48.2456	833.55	402.4
788.3271	50.5112	865.45	432.8
788.4679	52.7764	888.2	453.85
788.6087	55.0411	925.25	485.05
788.7496	57.3054	958.65	514.45
788.8904	59.5692	993.3	543.6
789.0313	61.8326	1033.5	580.3
789.1722	64.0955	1070.1	613.9
789.3132	66.3579	1135.3	672.4
789.4541	68.6199	1184.8	718.25
789.5951	70.8815	1294.65	825.5
789.7361	73.1426	1509.8	1037.05
789.8771	75.4032	2041.35	1562.7
790.0181	77.6634	3395.05	2911.45
790.1592	79.9231	6777.7	6283.2
790.3003	82.1824	14591	14080.8
790.4414	84.4412	33968.05	33423.2
790.5825	86.6995	62049.4	61456.6
790.7237	88.9574	65535	64902.9
790.8648	91.2148	65535	64870.3
791.006	93.4717	65535	64851.35
791.1472	95.7282	65535	64838.15
791.2885	97.9842	65535	64832.65
791.4297	100.2398	65535	64832.2
791.571	102.4949	65535	64827.75
791.7123	104.7495	65535	64823.35
791.8536	107.0036	65535	64827.7
791.9949	109.2573	65535	64827.25
792.1363	111.5105	65535	64824.9
792.2777	113.7632	65535	64822.35
792.4191	116.0154	65535	64811.6
792.5605	118.2672	65535	64817.75
792.7019	120.5185	65535	64816.05
792.8434	122.7693	65535	64814.25
792.9849	125.0197	65535	64810.6
793.1264	127.2696	65535	64814.35
793.2679	129.519	65535	64802.1
793.4094	131.7679	65535	64797
793.551	134.0163	65535	64794.3
793.6926	136.2642	65535	64795.35
793.8342	138.5117	65535	64797.45
793.9758	140.7587	65535	64792.05
794.1175	143.0052	65535	64782
794.2591	145.2512	65535	64787.65
794.4008	147.4967	65535	64788.25
794.5425	149.7417	65535	64789.2
794.6842	151.9863	65535	64780.3
794.826	154.2304	65535	64777.85
794.9677	156.4739	65535	64776.1
795.1095	158.717	65535	64775.5
795.2513	160.9596	65535	64767.9
795.3931	163.2017	65535	64768.7
795.535	165.4433	65535	64765.5
795.6768	167.6844	65535	64763.1
795.8187	169.925	65535	64758.95
795.9606	172.1651	65535	64762.15
796.1025	174.4047	65535	64760.6
796.2445	176.6439	65535	64757
796.3864	178.8825	65535	64749.55
796.5284	181.1206	65535	64748.95
796.6704	183.3582	65535	64742.45
796.8124	185.5954	65535	64740
796.9544	187.832	65535	64743.2
797.0965	190.0681	65535	64737.55
797.2386	192.3037	65535	64735.4
797.3806	194.5388	65535	64731.7
797.5228	196.7734	65535	64724.85
797.6649	199.0075	65535	64726.3
797.807	201.2411	65535	64718.7
797.9492	203.4742	65535	64720
798.0914	205.7068	65535	64722.4
798.2336	207.9389	65535	64722
798.3758	210.1704	65535	64720.9
798.518	212.4015	65535	64716.2
798.6603	214.632	65535	64714
798.8025	216.862	65535	64721.4
798.9448	219.0915	65535	64732.25
799.0871	221.3205	65535	64731.15
799.2294	223.549	65535	64736.05
799.3718	225.777	65535	64737.1
799.5141	228.0044	65535	64736.85
799.6565	230.2314	65535	64739.15
799.7989	232.4578	65535	64735.5
799.9413	234.6837	65535	64733.45
800.0837	236.909	65535	64721.3
800.2262	239.1339	65535	64699.15
800.3687	241.3582	65535	64709.7
800.5111	243.582	65535	64683.75
800.6536	245.8053	65535	64696.35
800.7961	248.0281	65535	64701.55
800.9387	250.2503	65535	64699.45
801.0812	252.472	65535	64693.05
801.2238	254.6932	65535	64690
801.3664	256.9139	65535	64691.6
801.509	259.134	65535	64683.45
801.6516	261.3536	65535	64687.1
801.7942	263.5727	65535	64681.2
801.9369	265.7912	65535	64687.05
802.0795	268.0092	65535	64683.7
802.2222	270.2267	65535	64684.1
802.3649	272.4436	65535	64680.1
802.5076	274.6601	65535	64680.8
802.6504	276.8759	65535	64684.75
802.7931	279.0913	65535	64681.35
802.9359	281.3061	65535	64681.75
803.0787	283.5204	65535	64676.15
803.2215	285.7341	65535	64674.95
803.3643	287.9473	65535	64658.7
803.5071	290.16	65535	64665.5
803.6499	292.3721	65535	64672.15
803.7928	294.5837	65535	64671.55
803.9357	296.7947	65535	64673
804.0786	299.0052	65535	64667.25
804.2215	301.2152	65535	64667.55
804.3644	303.4246	65535	64674.6
804.5074	305.6334	65535	64673
804.6503	307.8418	65535	64673.9
804.7933	310.0495	65535	64668.25
804.9363	312.2568	65535	64670.2
805.0793	314.4635	65535	64669.05
805.2223	316.6696	65535	64668.75
805.3653	318.8752	65535	64658.3
805.5084	321.0802	65535	64658.65
805.6514	323.2847	65535	64662.9
805.7945	325.4887	65535	64659.6
805.9376	327.692	65535	64658.55
806.0807	329.8949	65535	64658.7
806.2238	332.0972	65535	64661.4
806.367	334.2989	65535	64649.5
806.5101	336.5001	65535	64652.1
806.6533	338.7007	65535	64651.5
806.7965	340.9008	65535	64649.6
806.9397	343.1003	65535	64650.55
807.0829	345.2992	65535	64653.35
807.2261	347.4976	65535	64652.2
807.3693	349.6955	65535	64641.9
807.5126	351.8927	65535	64647.8
807.6559	354.0895	65535	64636.7
807.7991	356.2856	65535	64644.4
807.9424	358.4812	65535	64651.1
808.0857	360.6763	65535	64640.75
808.2291	362.8707	65535	64645.35
808.3724	365.0646	65535	64639.6
808.5158	367.258	65535	64641.95
808.6591	369.4508	65535	64633.6
808.8025	371.643	65535	64636.25
808.9459	373.8346	65535	64631.05
809.0893	376.0257	65535	64629.95
809.2327	378.2162	65535	64632.5
809.3762	380.4062	65535	64630
809.5196	382.5956	65535	64631.9
809.6631	384.7844	65535	64627.9
809.8066	386.9726	65535	64633.65
809.9501	389.1603	65535	64634.2
810.0936	391.3474	65535	64590.45
810.2371	393.5339	65535	64634.75
810.3806	395.7199	65535	64640.8
810.5241	397.9052	65535	64639.5
810.6677	400.09	65535	64641.5
810.8113	402.2743	65535	64640.95
810.9548	404.4579	65535	64642.9
811.0984	406.641	65535	64641.05
811.2421	408.8235	65535	64643.05
811.3857	411.0054	65535	64638.6
811.5293	413.1868	65535	64636.35
811.673	415.3675	65535	64629.45
811.8166	417.5477	65535	64630.6
811.9603	419.7273	65535	64632.6
812.104	421.9064	65535	64624.45
812.2477	424.0848	65535	64628.25
812.3914	426.2627	65535	64628.5
812.5351	428.4399	65535	64626.45
812.6788	430.6166	65535	64619.45
812.8226	432.7928	65535	64623.95
812.9663	434.9683	65535	64625.05
813.1101	437.1432	65535	64625.75
813.2539	439.3176	65535	64629.2
813.3977	441.4914	65535	64633.75
813.5415	443.6645	65535	64626.6
813.6853	445.8371	65535	64625.15
813.8291	448.0091	65535	64621.85
813.973	450.1806	65535	64629.2
814.1168	452.3514	65535	64624.3
814.2607	454.5216	65535	64621.4
814.4046	456.6913	65535	64625.9
814.5485	458.8603	65535	64625.35
814.6924	461.0288	65535	64630.95
814.8363	463.1967	65535	64634.9
814.9802	465.3639	65535	64628.9
815.1241	467.5306	65535	64627.35
815.2681	469.6967	65535	64628.8
815.412	471.8622	65535	64631.5
815.556	474.0271	65535	64625.7
815.7	476.1914	65535	64622.7
815.844	478.3551	65535	64620.45
815.988	480.5182	65535	64627.95
816.132	482.6807	65535	64631.65
816.276	484.8426	65535	64638.15
816.4201	487.0039	65535	64633.8
816.5641	489.1647	65535	64621.7
816.7082	491.3248	65535	64621.05
816.8522	493.4843	65535	64630.4
816.9963	495.6432	65535	64627.9
817.1404	497.8015	65535	64615.65
817.2845	499.9592	65535	64614.7
817.4286	502.1163	65535	64613.55
817.5727	504.2728	65535	64623.7
817.7168	506.4287	65535	64629.8
817.861	508.5839	65535	64630.25
818.0051	510.7386	65535	64623.65
818.1493	512.8927	65535	64613.65
818.2935	515.0461	65535	64618.4
818.4377	517.199	65535	64615.85
818.5818	519.3512	65535	64615.75
818.726	521.5029	65535	64610.05
818.8703	523.6539	65535	64617.25
819.0145	525.8043	65535	64613.8
819.1587	527.9541	65535	64612.75
819.303	530.1033	65535	64615.05
819.4472	532.2519	65535	64616.25
819.5915	534.3999	65535	64612.05
819.7357	536.5472	65535	64614.7
819.88	538.694	65535	64620.55
820.0243	540.8401	65535	64613.95
820.1686	542.9856	65535	64606.8
820.3129	545.1305	65535	64601.85
820.4572	547.2748	65535	64598.15
820.6016	549.4185	65535	64599.25
820.7459	551.5615	65535	64601.7
820.8902	553.704	65535	64603.8
821.0346	555.8458	65535	64603.95
821.1789	557.987	65535	64607.95
821.3233	560.1276	65535	64607.65
821.4677	562.2675	65535	64605.6
821.6121	564.4069	65535	64604.7
821.7565	566.5456	65535	64607.8
821.9009	568.6837	65535	64607.1
822.0453	570.8212	65535	64607.3
822.1897	572.958	65535	64605.7
822.3342	575.0942	65535	64611.85
822.4786	577.2299	65535	64614.95
822.6231	579.3648	65535	64624.85
822.7675	581.4992	65535	64628.65
822.912	583.6329	65535	64630.3
823.0565	585.766	65535	64627.6
823.201	587.8985	65535	64622.4
823.3454	590.0304	65535	64592.15
823.4899	592.1616	65535	64607.95
823.6345	594.2922	65535	64607.5
823.779	596.4222	65535	64600.5
823.9235	598.5515	65535	64597.05
824.068	600.6802	65535	64602.85
824.2126	602.8083	65535	64607.8
824.3571	604.9358	65535	64603.45
824.5017	607.0626	65535	64603.2
824.6462	609.1888	65535	64596.75
824.7908	611.3144	65535	64592.9
824.9354	613.4393	65535	64600.75
825.08	615.5636	65535	64595.8
825.2246	617.6873	65535	64600.9
825.3692	619.8103	65535	64599.15
825.5138	621.9327	65535	64598.2
825.6584	624.0544	65535	64602.6
825.803	626.1756	65535	64606.1
825.9477	628.2961	65535	64603.5
826.0923	630.4159	65535	64596.6
826.237	632.5351	65535	64598.65
826.3816	634.6537	65535	64600.2
826.5263	636.7716	65535	64590.1
826.6709	638.8889	65535	64590
826.8156	641.0056	65535	64589.6
826.9603	643.1216	65535	64593.1
827.105	645.237	65535	64597.3
827.2497	647.3518	65535	64605.5
827.3944	649.4659	65535	64610.15
827.5391	651.5793	65535	64608.7
827.6838	653.6922	65535	64605.55
827.8285	655.8043	65535	64599.5
827.9733	657.9159	65535	64599.85
828.118	660.0268	65535	64599.85
828.2627	662.137	65535	64594.15
828.4075	664.2466	65535	64591.45
828.5522	666.3556	65535	64595.75
828.697	668.4639	65535	64598
828.8418	670.5716	65535	64603.75
828.9865	672.6786	65535	64595.35
829.1313	674.785	65535	64594.1
829.2761	676.8907	65535	64594.7
829.4209	678.9958	65535	64599.5
829.5657	681.1002	65535	64595.7
829.7105	683.204	65535	64586.8
829.8553	685.3072	65535	64590.25
830.0001	687.4097	65535	64591
830.1449	689.5115	65535	64587.35
830.2898	691.6127	65535	64596.35
830.4346	693.7132	65535	64598.1
830.5794	695.8131	65535	64575.4
830.7243	697.9123	65535	64589.45
830.8691	700.0109	65535	64590.65
831.014	702.1089	65535	64590.8
831.1588	704.2061	65535	64594.1
831.3037	706.3028	65535	64591.05
831.4486	708.3987	65535	64587.25
831.5935	710.4941	65535	64592.65
831.7383	712.5887	65535	64591.85
831.8832	714.6827	65535	64590.2
832.0281	716.7761	65535	64597.15
832.173	718.8688	65535	64592.85
832.3179	720.9608	65535	64587.6
832.4628	723.0522	65535	64583.25
832.6077	725.1429	65535	64589
832.7527	727.233	65535	64590.55
832.8976	729.3224	65535	64588.2
833.0425	731.4112	65535	64589.15
833.1874	733.4993	65535	64592
833.3324	735.5867	65535	64592.25
833.4773	737.6735	65535	64588.15
833.6222	739.7596	65535	64585.9
833.7672	741.845	65535	64589.5
833.9122	743.9298	65535	64587.1
834.0571	746.014	65535	64592.3
834.2021	748.0974	65535	64584.4
834.347	750.1802	65535	64578.25
834.492	752.2624	65535	64582.7
834.637	754.3439	65535	64585.65
834.782	756.4247	65535	64576.6
834.9269	758.5048	65535	64587.7
835.0719	760.5843	65535	64583.65
835.2169	762.6631	65535	64585.15
835.3619	764.7413	65535	64589.05
835.5069	766.8188	65535	64589.25
835.6519	768.8956	65535	64584.05
835.7969	770.9718	65535	64585
835.9419	773.0473	65535	64589.1
836.0869	775.1221	65535	64586.75
836.232	777.1962	65535	64584.65
836.377	779.2697	65535	64584.35
836.522	781.3426	65535	64563.9
836.667	783.4147	65535	64583.55
836.8121	785.4862	65535	64586
836.9571	787.557	65535	64582.6
837.1021	789.6271	65535	64582.3
837.2472	791.6966	65535	64586.35
837.3922	793.7654	65535	64585.15
837.5373	795.8335	65535	64590.3
837.6823	797.901	65535	64585.65
837.8274	799.9678	65535	64578.7
837.9724	802.0339	65535	64582.3
838.1175	804.0993	65535	64570.2
838.2626	806.1641	65535	64582.55
838.4076	808.2282	65535	64585.25
838.5527	810.2916	65535	64585.95
838.6978	812.3544	65535	64586.05
838.8428	814.4164	65535	64581.4
838.9879	816.4778	65535	64579.5
839.133	818.5385	65535	64579.95
839.2781	820.5986	65535	64581.2
839.4232	822.658	65535	64578.55
839.5682	824.7166	65535	64582.7
839.7133	826.7747	65528.55	64574.85
839.8584	828.832	65529.55	64574.7
840.0035	830.8886	65535	64577
840.1486	832.9446	65535	64580.1
840.2937	834.9999	65522.05	64569.9
840.4388	837.0545	65531.45	64570.4
840.5839	839.1085	65535	64582.35
840.729	841.1618	65534.6	64577.05
840.8741	843.2143	65521.55	64564.85
841.0192	845.2662	65521.35	64570.05
841.1643	847.3175	65526.65	64576.8
841.3095	849.368	65467.1	64513.5
841.4546	851.4179	65524.15	64565.6
841.5997	853.467	65482.35	64527.95
841.7448	855.5155	65509	64553.85
841.8899	857.5633	65430.4	64475.3
842.0351	859.6105	65392.1	64437.25
842.1802	861.6569	65443.2	64487.25
842.3253	863.7027	65329.85	64372.6
842.4704	865.7478	65406.95	64452.05
842.6156	867.7922	65384.45	64427.1
842.7607	869.8359	65424.7	64469.9
842.9058	871.8789	65287.8	64332.7
843.0509	873.9212	65388.45	64401.9
843.1961	875.9629	65408.6	64454.85
843.3412	878.0039	65390.8	64433.55
843.4863	880.0441	65346.65	64391.7
843.6315	882.0837	65338.05	64386.45
843.7766	884.1226	65298.6	64340.95
843.9218	886.1609	65256.95	64301.85
844.0669	888.1984	65142.8	64189.75
844.212	890.2352	65277.25	64320.75
844.3572	892.2714	65083.55	64122.3
844.5023	894.3069	65200.65	64242.05
844.6475	896.3416	65071.45	64114.05
844.7926	898.3757	65035.35	64077.85
844.9377	900.4091	64620.95	63667.1
845.0829	902.4418	65141.7	64179.75
845.228	904.4739	64891.3	63933.6
845.3732	906.5052	64892.65	63933
845.5183	908.5358	64714.7	63760.15
845.6635	910.5658	64599.4	63636.75
845.8086	912.595	64572.5	63613.35
845.9538	914.6236	64011.5	63051.55
846.0989	916.6515	64789.35	63835.3
846.2441	918.6786	63960.45	62999.6
846.3892	920.7051	64222.5	63263.3
846.5344	922.7309	64072.85	63115.7
846.6795	924.756	64261.25	63303.65
846.8246	926.7804	64014.2	63055.4
846.9698	928.8041	63253.75	62295.1
847.1149	930.8272	63824.95	62864.55
847.2601	932.8495	63847.05	62890.85
847.4052	934.8711	63277.15	62321.95
847.5504	936.892	62756.45	61796.1
847.6955	938.9123	63017.6	62059.5
847.8407	940.9318	62550.7	61595.9
847.9858	942.9506	62414	61458.3
848.131	944.9688	62471	61512.8
848.2761	946.9862	61430.35	60475.5
848.4213	949.003	61882.2	60926.45
848.5664	951.019	60977.5	60022.45
848.7115	953.0344	61154.65	60195.4
848.8567	955.0491	61008.5	60051.85
849.0018	957.063	61328.35	60374.45
849.147	959.0763	61418.05	60455.95
849.2921	961.0888	60682.35	59727.45
849.4373	963.1007	61286.45	60333.4
849.5824	965.1119	61244.1	60296.1
849.7275	967.1223	60712.6	59766.25
849.8727	969.1321	61327.75	60382.85
850.0178	971.1412	60479.5	59529.85
850.1629	973.1495	60139.95	59191.35
850.3081	975.1572	60513.65	59502.05
850.4532	977.1641	60182.35	59228.3
850.5983	979.1704	59998.55	59039.3
850.7435	981.1759	60068.05	59107.25
850.8886	983.1808	59630.8	58670.75
851.0337	985.1849	59657.75	58689.95
851.1788	987.1884	59885.65	58927.2
851.324	989.1911	60317.45	59357.55
851.4691	991.1932	59137.8	58184.35
851.6142	993.1945	59445.8	58489.3
851.7593	995.1951	59678.55	58719.1
851.9045	997.1951	59068.45	58105.8
852.0496	999.1943	58806.45	57850.6
852.1947	1001.1928	58488.1	57534.7
852.3398	1003.1906	58630.85	57676.45
852.4849	1005.1877	57826.7	56870.2
852.63	1007.1841	57552.7	56597.25
852.7751	1009.1798	57502.35	56550.55
852.9202	1011.1748	57273.3	56321.55
853.0653	1013.1691	56971.85	56018.05
853.2104	1015.1627	55733.4	54774.8
853.3555	1017.1556	55774.25	54821.15
853.5006	1019.1477	55949.7	54997.5
853.6457	1021.1392	55263.7	54318.85
853.7908	1023.1299	54589.05	53641.2
853.9359	1025.12	54865.2	53924.7
854.081	1027.1093	54415.1	53484.95
854.2261	1029.0979	54417.35	53485.7
854.3712	1031.0859	54314.65	53379.35
854.5163	1033.0731	53724.1	52779.95
854.6613	1035.0596	53706.85	52760.6
854.8064	1037.0454	53482.25	52531.45
854.9515	1039.0304	53017.8	52066.95
855.0965	1041.0148	52521.6	51569.25
855.2416	1042.9985	52422.5	51470.45
855.3867	1044.9814	52540.55	51590.1
855.5317	1046.9636	52093.55	51143.1
855.6768	1048.9452	51874.05	50925.55
855.8219	1050.926	51751.55	50799.8
855.9669	1052.9061	51575.05	50624.6
856.112	1054.8855	51457.3	50506.85
856.257	1056.8642	51121.65	50172.35
856.4021	1058.8421	51113.85	50157.4
856.5471	1060.8194	50996.95	50040.65
856.6921	1062.7959	50877	49923.65
856.8372	1064.7717	50773.85	49822.9
856.9822	1066.7469	50624.15	49671.3
857.1272	1068.7213	50521.15	49569.35
857.2723	1070.695	50276.65	49323.55
857.4173	1072.6679	49832.75	48883.15
857.5623	1074.6402	49808.35	48858.2
857.7073	1076.6117	49673.05	48714.25
857.8523	1078.5826	49626.2	48675.25
857.9973	1080.5527	49483.7	48532
858.1423	1082.5221	49456.05	48506.6
858.2873	1084.4908	49565.95	48613.7
858.4323	1086.4587	49624.3	48673.05
858.5773	1088.426	49677.25	48725.05
858.7223	1090.3925	49492.1	48537
858.8673	1092.3584	49377.9	48430
859.0123	1094.3235	48843.5	47893.3
859.1573	1096.2879	48640.55	47690.85
859.3022	1098.2515	48445.45	47494.1
859.4472	1100.2145	48323.1	47372.2
859.5922	1102.1767	48233.4	47280.8
859.7371	1104.1382	48319.35	47372.8
859.8821	1106.099	48350	47396.25
860.027	1108.0591	48365.4	47414.75
860.172	1110.0185	48265.4	47314.2
860.3169	1111.9771	48274.45	47323.2
860.4619	1113.9351	47851.8	46899.65
860.6068	1115.8923	47319.4	46371.55
860.7517	1117.8488	46843.7	45891.85
860.8967	1119.8045	46247.1	45297.7
861.0416	1121.7596	46047.7	45098.1
861.1865	1123.7139	45805.85	44857.85
861.3314	1125.6675	45678.35	44729.8
861.4763	1127.6204	45729.05	44782.25
861.6212	1129.5726	45570.15	44619.1
861.7661	1131.524	45532.95	44585.75
861.911	1133.4748	45507.15	44554.55
862.0559	1135.4248	45465.45	44515.3
862.2008	1137.3741	45314.3	44367.95
862.3457	1139.3226	45155.95	44206.45
862.4905	1141.2705	45074.2	44126.1
862.6354	1143.2176	44785.15	43832.85
862.7803	1145.164	44658.75	43708.05
862.9251	1147.1097	44578.05	43628.55
863.07	1149.0546	44493.55	43544.45
863.2148	1150.9989	44431.55	43480.5
863.3597	1152.9424	44147.05	43200.4
863.5045	1154.8852	43841.2	42895.1
863.6493	1156.8272	43593.15	42643.65
863.7942	1158.7686	43468.95	42513.35
863.939	1160.7092	43165.1	42215.55
864.0838	1162.6491	43017.95	42067.05
864.2286	1164.5883	43004.85	42056
864.3734	1166.5267	42917.9	41966.95
864.5182	1168.4644	43018.2	42066.2
864.663	1170.4014	43080.85	42130.45
864.8078	1172.3377	43225.05	42281.9
864.9526	1174.2732	43333.05	42387.7
865.0974	1176.2081	43466.9	42519.35
865.2421	1178.1421	43458.5	42504.4
865.3869	1180.0755	43498.3	42550.2
865.5317	1182.0082	43314.55	42369.75
865.6764	1183.9401	43158.65	42215.35
865.8212	1185.8713	42792.65	41852.75
865.9659	1187.8017	42443.75	41506.95
866.1106	1189.7315	42172.9	41242.3
866.2554	1191.6605	41636.75	40708.15
866.4001	1193.5888	41312.1	40377.35
866.5448	1195.5163	41113.8	40173.75
866.6895	1197.4432	40879.05	39932.9
866.8342	1199.3693	40703	39759.45
866.9789	1201.2947	40475.75	39525.35
867.1236	1203.2193	40269.5	39324.85
867.2683	1205.1432	40272.85	39328.45
867.413	1207.0664	40156.65	39211.8
867.5576	1208.9889	40137.3	39188.7
867.7023	1210.9106	40005.2	39061.2
867.847	1212.8316	39955.05	39011.55
867.9916	1214.7519	39962.85	39007.95
868.1363	1216.6715	39760.8	38817.9
868.2809	1218.5903	39620.75	38678.65
868.4255	1220.5084	39503.7	38554.95
868.5701	1222.4257	39427.6	38485
