Software Version:	3.9.2.0
Unit SN:	10000200
Spectrometer SN:	6960
Date:	3/26/2024 1:47:26 PM
Data Line Index:	25
Spectral Points:	2048
Integration time (ms):	125
Averages:	20
Delay (ms):	30000
Sequence Number:	1
Processing:	dark subtract
Laser Power (mW):	300
Laser Current (mA):	819
Laser Diode Temp (C):	25
Laser Case Temp (C):	27.2
System Temp (C):	27.2
Spectrometer Temp (C):	25.1
CCD Temp (C):	0.002
Secondary Temp (C):	20.007
Heatsink Temp (C):	22.549
CCDPCB Temp (C):	36.84
SecondaryPCB Temp (C):	34.317

Wavelength	RamanShift	Raw Counts	Dark Subtracted
787.061	30.1047	613.65	202.45
787.2016	32.3739	623.4	214.7
787.3422	34.6426	639.4	229.5
787.4828	36.9109	653.85	241.8
787.6235	39.1787	675.45	260
787.7642	41.4461	697.1	276.05
787.9049	43.7131	721.2	295.95
788.0456	45.9796	736.5	310.15
788.1863	48.2456	757.6	325
788.3271	50.5112	788.6	352.95
788.4679	52.7764	807.65	369.5
788.6087	55.0411	833.45	391.65
788.7496	57.3054	864.35	417.55
788.8904	59.5692	898	449.4
789.0313	61.8326	926.6	473.95
789.1722	64.0955	963.35	506.9
789.3132	66.3579	1003.2	541.3
789.4541	68.6199	1054.55	590.25
789.5951	70.8815	1139.9	672.8
789.7361	73.1426	1330.15	857.4
789.8771	75.4032	1795.4	1318
790.0181	77.6634	2973.85	2488.3
790.1592	79.9231	5886.75	5392.5
790.3003	82.1824	12528.1	12015.1
790.4414	84.4412	26800.9	26250.35
790.5825	86.6995	50782.2	50183.45
790.7237	88.9574	61323.75	60678
790.8648	91.2148	63742.7	63069.85
791.006	93.4717	64229.05	63535.1
791.1472	95.7282	64389.75	63684.8
791.2885	97.9842	64434.65	63725.6
791.4297	100.2398	64431.05	63713.4
791.571	102.4949	64415.6	63703.15
791.7123	104.7495	64393.6	63674.8
791.8536	107.0036	64334.1	63617.15
791.9949	109.2573	64366.45	63647.55
792.1363	111.5105	64307.95	63588.4
792.2777	113.7632	64291.2	63568.7
792.4191	116.0154	64303.9	63572.25
792.5605	118.2672	64366.3	63640.9
792.7019	120.5185	64333.6	63601.85
792.8434	122.7693	64342.25	63609.5
792.9849	125.0197	64263.85	63530.35
793.1264	127.2696	64383.15	63651.55
793.2679	129.519	64351.95	63614.2
793.4094	131.7679	64391.8	63642.75
793.551	134.0163	64268.7	63520.9
793.6926	136.2642	64325.2	63569.5
793.8342	138.5117	64380.6	63620.2
793.9758	140.7587	64337.1	63582.3
794.1175	143.0052	64327.4	63564.85
794.2591	145.2512	64246.9	63488.15
794.4008	147.4967	64320.35	63560
794.5425	149.7417	64302.55	63546.3
794.6842	151.9863	64273.75	63507.05
794.826	154.2304	64236.85	63471.6
794.9677	156.4739	64251.9	63476.65
795.1095	158.717	64321.1	63548.75
795.2513	160.9596	64270.7	63489.65
795.3931	163.2017	64197.45	63420.85
795.535	165.4433	64259.7	63478.5
795.6768	167.6844	64204.3	63423.35
795.8187	169.925	64226.6	63444.65
795.9606	172.1651	64144.5	63360.4
796.1025	174.4047	64196	63407.45
796.2445	176.6439	64160.8	63370.7
796.3864	178.8825	64094.45	63295.35
796.5284	181.1206	64222.35	63425.55
796.6704	183.3582	64189.65	63383.3
796.8124	185.5954	64161.45	63357.05
796.9544	187.832	64151.8	63345.5
797.0965	190.0681	64072.45	63262.3
797.2386	192.3037	64178.75	63363.6
797.3806	194.5388	64268.7	63450.65
797.5228	196.7734	64014.75	63190.95
797.6649	199.0075	64282.15	63458
797.807	201.2411	64187.75	63355.65
797.9492	203.4742	64294.7	63466.3
798.0914	205.7068	64272.35	63445.5
798.2336	207.9389	64281.35	63454.1
798.3758	210.1704	64276.9	63444.4
798.518	212.4015	64326.9	63496.6
798.6603	214.632	64282.3	63448.55
798.8025	216.862	64325.15	63498.75
798.9448	219.0915	64286.3	63468.25
799.0871	221.3205	64303.55	63488.3
799.2294	223.549	64343.8	63528.9
799.3718	225.777	64342.7	63533.15
799.5141	228.0044	64363.35	63547.8
799.6565	230.2314	64358.35	63547.55
799.7989	232.4578	64352.45	63541.7
799.9413	234.6837	64367.75	63551.5
800.0837	236.909	64378.2	63561.35
800.2262	239.1339	64364.45	63516.75
800.3687	241.3582	64373.85	63542.5
800.5111	243.582	64363.55	63505.25
800.6536	245.8053	64372.9	63523.9
800.7961	248.0281	64367.45	63521.35
800.9387	250.2503	64380.05	63528.85
801.0812	252.472	64363.75	63503.7
801.2238	254.6932	64372.9	63514.8
801.3664	256.9139	64366.55	63510.8
801.509	259.134	64365	63506.65
801.6516	261.3536	64360.35	63498.2
801.7942	263.5727	64377.55	63515.3
801.9369	265.7912	64373.2	63510
802.0795	268.0092	64385.4	63527.5
802.2222	270.2267	64382.3	63518.05
802.3649	272.4436	64376.7	63514.9
802.5076	274.6601	64380.2	63515.15
802.6504	276.8759	64376.85	63515.45
802.7931	279.0913	64374.85	63512
802.9359	281.3061	64379.25	63515.6
803.0787	283.5204	64378.4	63507.65
803.2215	285.7341	64378.65	63504.95
803.3643	287.9473	64385.75	63502.3
803.5071	290.16	64382.55	63501.25
803.6499	292.3721	64387.35	63509.9
803.7928	294.5837	64378.3	63502.6
803.9357	296.7947	64383.7	63508.75
804.0786	299.0052	64387.1	63511.35
804.2215	301.2152	64384.65	63503.55
804.3644	303.4246	64393.25	63519.8
804.5074	305.6334	64379.45	63507
804.6503	307.8418	64358.5	63480.65
804.7933	310.0495	64357.05	63475.5
804.9363	312.2568	64344.8	63462.9
805.0793	314.4635	64328.95	63452.75
805.2223	316.6696	64348.85	63467
805.3653	318.8752	64335.85	63442.25
805.5084	321.0802	64300.25	63416.95
805.6514	323.2847	64312.1	63425.1
805.7945	325.4887	64317.6	63429.7
805.9376	327.692	64302.5	63414.5
806.0807	329.8949	64306.6	63419.75
806.2238	332.0972	64308.3	63421.1
806.367	334.2989	64308.65	63418.6
806.5101	336.5001	64316.1	63420.35
806.6533	338.7007	64248.1	63352.55
806.7965	340.9008	64290.75	63394.75
806.9397	343.1003	64290.15	63392.05
807.0829	345.2992	64302.25	63402.5
807.2261	347.4976	64270.55	63372.8
807.3693	349.6955	64289.45	63386.65
807.5126	351.8927	64263.4	63357.3
807.6559	354.0895	64282.3	63368.2
807.7991	356.2856	64285.45	63381.85
807.9424	358.4812	64281.65	63383.6
808.0857	360.6763	64213.3	63307.85
808.2291	362.8707	64295.5	63390.2
808.3724	365.0646	64265.2	63355.25
808.5158	367.258	64274.9	63372.7
808.6591	369.4508	64217.85	63312
808.8025	371.643	64282.75	63370.75
808.9459	373.8346	64247.85	63334.55
809.0893	376.0257	64265.05	63346.7
809.2327	378.2162	64243.7	63331.7
809.3762	380.4062	64176.5	63261.3
809.5196	382.5956	64238.35	63321.1
809.6631	384.7844	64227.95	63313.75
809.8066	386.9726	64248.75	63335.3
809.9501	389.1603	64227.95	63310.7
810.0936	391.3474	64174.1	63217.3
810.2371	393.5339	64209.15	63287.05
810.3806	395.7199	64114.8	63203.15
810.5241	397.9052	64137.5	63225.7
810.6677	400.09	64161.05	63256.85
810.8113	402.2743	64230.55	63327.65
810.9548	404.4579	64124.95	63216.75
811.0984	406.641	64157.05	63251.55
811.2421	408.8235	64176.3	63272.4
811.3857	411.0054	64212.4	63303.05
811.5293	413.1868	64227.3	63316.35
811.673	415.3675	64187.65	63271.9
811.8166	417.5477	64202.75	63290.6
811.9603	419.7273	64210	63295.9
812.104	421.9064	64208.3	63286.7
812.2477	424.0848	64214.9	63294.15
812.3914	426.2627	64234.8	63313.85
812.5351	428.4399	64151.2	63230.8
812.6788	430.6166	64023	63094.3
812.8226	432.7928	64133.55	63210.45
812.9663	434.9683	64020.2	63097.3
813.1101	437.1432	63988.1	63068.7
813.2539	439.3176	64096.4	63180.2
813.3977	441.4914	63936.2	63021.7
813.5415	443.6645	63960.4	63044.5
813.6853	445.8371	63983.05	63062.9
813.8291	448.0091	63918.45	62996.05
813.973	450.1806	63854.2	62931.9
814.1168	452.3514	63885.05	62965.75
814.2607	454.5216	63790.05	62869.05
814.4046	456.6913	63894.2	62971.85
814.5485	458.8603	63929.25	63009.25
814.6924	461.0288	63786.2	62872.95
814.8363	463.1967	63895.15	62981.75
814.9802	465.3639	63884.25	62965.2
815.1241	467.5306	63675.9	62758.35
815.2681	469.6967	63801.55	62884.1
815.412	471.8622	63887	62973.1
815.556	474.0271	63811.5	62895.6
815.7	476.1914	63826.05	62898.35
815.844	478.3551	63823.95	62901.45
815.988	480.5182	63950.15	63031.6
816.132	482.6807	63791.55	62883.8
816.276	484.8426	63823.55	62919.65
816.4201	487.0039	63965.9	63053.55
816.5641	489.1647	63957.6	63035.55
816.7082	491.3248	63804.55	62885.1
816.8522	493.4843	63991.45	63076.35
816.9963	495.6432	63990.85	63072.95
817.1404	497.8015	63818.3	62888.4
817.2845	499.9592	63910.9	62974.15
817.4286	502.1163	63888.1	62954.6
817.5727	504.2728	63857.9	62933.3
817.7168	506.4287	63841.15	62927.65
817.861	508.5839	63749.3	62833
818.0051	510.7386	63806.2	62882.55
818.1493	512.8927	63801.8	62876.5
818.2935	515.0461	63765.3	62839.6
818.4377	517.199	63850.25	62918.15
818.5818	519.3512	63770.4	62841.65
818.726	521.5029	63786.85	62859.7
818.8703	523.6539	63823.45	62896.15
819.0145	525.8043	63701.65	62773.25
819.1587	527.9541	63797.6	62864.2
819.303	530.1033	63773.2	62844.1
819.4472	532.2519	63726.25	62797.15
819.5915	534.3999	63797.25	62867.15
819.7357	536.5472	63855.3	62928.55
819.88	538.694	63705.45	62784
820.0243	540.8401	63796.8	62866.1
820.1686	542.9856	63813.25	62872.1
820.3129	545.1305	63879.5	62934.3
820.4572	547.2748	63759.9	62810.65
820.6016	549.4185	63750.5	62797.75
820.7459	551.5615	63834.75	62890.05
820.8902	553.704	63813.95	62866.05
821.0346	555.8458	63738.5	62793.4
821.1789	557.987	63768.75	62826.55
821.3233	560.1276	63812.55	62869.3
821.4677	562.2675	63761.55	62815.9
821.6121	564.4069	63800.3	62857.55
821.7565	566.5456	63881.45	62941.2
821.9009	568.6837	63778.25	62837.7
822.0453	570.8212	63803.4	62867.6
822.1897	572.958	63597.25	62658.15
822.3342	575.0942	63708.45	62773.35
822.4786	577.2299	63594.45	62665.4
822.6231	579.3648	63573.7	62655.9
822.7675	581.4992	63522.95	62613.1
822.912	583.6329	63513.95	62602.65
823.0565	585.766	63536.2	62617.9
823.201	587.8985	63589.95	62667.35
823.3454	590.0304	63406.8	62450.05
823.4899	592.1616	63542.95	62604.25
823.6345	594.2922	63459.2	62515.85
823.779	596.4222	63337.1	62392.7
823.9235	598.5515	63366.1	62423.65
824.068	600.6802	63441.5	62501.25
824.2126	602.8083	63287.15	62346.7
824.3571	604.9358	63289.95	62346.1
824.5017	607.0626	63365.1	62417.6
824.6462	609.1888	63157.4	62202.25
824.7908	611.3144	63331.5	62382.9
824.9354	613.4393	63259.5	62304.25
825.08	615.5636	63152.95	62201.3
825.2246	617.6873	63276.65	62329
825.3692	619.8103	63116.8	62167.65
825.5138	621.9327	63267.2	62321.2
825.6584	624.0544	63252.2	62306.5
825.803	626.1756	63175.45	62238.25
825.9477	628.2961	63158.25	62211.65
826.0923	630.4159	63105.35	62156.65
826.237	632.5351	63057.8	62109.15
826.3816	634.6537	63309.25	62362.6
826.5263	636.7716	63011.8	62060.5
826.6709	638.8889	63090.5	62135.7
826.8156	641.0056	63073.45	62117
826.9603	643.1216	63108.1	62153.5
827.105	645.237	63161	62208.6
827.2497	647.3518	63000.1	62059.35
827.3944	649.4659	63033.15	62088.95
827.5391	651.5793	63040.8	62099.05
827.6838	653.6922	63102.35	62160.7
827.8285	655.8043	62846.25	61903.75
827.9733	657.9159	63154.65	62209.45
828.118	660.0268	62578.55	61633.35
828.2627	662.137	62951	62002.75
828.4075	664.2466	63009.6	62050.85
828.5522	666.3556	62883.3	61927.85
828.697	668.4639	62973.05	62024.1
828.8418	670.5716	62798.45	61857.5
828.9865	672.6786	62944.25	61993.95
829.1313	674.785	62747.9	61794
829.2761	676.8907	62764.9	61817.05
829.4209	678.9958	62856.85	61917.2
829.5657	681.1002	62887.75	61935.75
829.7105	683.204	62690.95	61729.6
829.8553	685.3072	62551.35	61596.75
830.0001	687.4097	62644.85	61690.35
830.1449	689.5115	62557.8	61603.05
830.2898	691.6127	62787.8	61839.7
830.4346	693.7132	62564.65	61616.9
830.5794	695.8131	62587	61613.75
830.7243	697.9123	62665.4	61707.7
830.8691	700.0109	62703.95	61745.85
831.014	702.1089	62420.75	61467.35
831.1588	704.2061	62494.15	61537.6
831.3037	706.3028	62550.8	61595.9
831.4486	708.3987	62579.6	61622.95
831.5935	710.4941	62429	61475.55
831.7383	712.5887	62610.6	61658.95
831.8832	714.6827	62477.2	61523.55
832.0281	716.7761	62657.45	61711
832.173	718.8688	62709	61759.3
832.3179	720.9608	62515.3	61557.95
832.4628	723.0522	62567.3	61606.55
832.6077	725.1429	62391.65	61432.25
832.7527	727.233	62845.8	61890.75
832.8976	729.3224	62147.25	61191.7
833.0425	731.4112	62393.65	61438.2
833.1874	733.4993	62381.9	61422.8
833.3324	735.5867	62354.5	61401.05
833.4773	737.6735	62164.9	61209.8
833.6222	739.7596	62005.2	61045.45
833.7672	741.845	61973.6	61018.55
833.9122	743.9298	62224.6	61269.95
834.0571	746.014	61972.95	61017.55
834.2021	748.0974	61796.1	60834.65
834.347	750.1802	62134.5	61170.35
834.492	752.2624	61670.15	60706.8
834.637	754.3439	61754.95	60795.3
834.782	756.4247	61868.05	60900.4
834.9269	758.5048	61659.4	60696.85
835.0719	760.5843	61756	60794.35
835.2169	762.6631	61903.05	60941.2
835.3619	764.7413	61845.1	60884.8
835.5069	766.8188	61976.05	61015.95
835.6519	768.8956	62158.65	61196.5
835.7969	770.9718	62165.65	61206.15
835.9419	773.0473	62065.2	61104.05
836.0869	775.1221	61815.85	60852.8
836.232	777.1962	61811.45	60847.7
836.377	779.2697	61507.25	60547.25
836.522	781.3426	61704.7	60733.3
836.667	783.4147	61759.85	60798.4
836.8121	785.4862	61673.4	60711.55
836.9571	787.557	61422.85	60461.35
837.1021	789.6271	61631.55	60667.2
837.2472	791.6966	61326	60361.4
837.3922	793.7654	60854.2	59893.2
837.5373	795.8335	60781.2	59822.05
837.6823	797.901	60814.25	59853.9
837.8274	799.9678	60603.3	59638.35
837.9724	802.0339	60543.1	59579.35
838.1175	804.0993	60534.05	59560.8
838.2626	806.1641	60403.5	59437.9
838.4076	808.2282	60313.7	59350.75
838.5527	810.2916	60185.05	59221.8
838.6978	812.3544	60422.35	59461.8
838.8428	814.4164	59934.95	58971.85
838.9879	816.4778	60062.95	59094.25
839.133	818.5385	60056.7	59092.85
839.2781	820.5986	60058.6	59097.05
839.4232	822.658	60140.8	59177
839.5682	824.7166	60257.2	59295.45
839.7133	826.7747	59981.65	59017.5
839.8584	828.832	60295.15	59328.8
840.0035	830.8886	60558.8	59591.2
840.1486	832.9446	60583.35	59614.4
840.2937	834.9999	59905.25	58942.65
840.4388	837.0545	60152.95	59182.25
840.5839	839.1085	60205.9	59238.85
840.729	841.1618	59949.45	58980.2
840.8741	843.2143	59427	58461.65
841.0192	845.2662	59388.6	58424.2
841.1643	847.3175	59537.25	58572.2
841.3095	849.368	58944.95	57976.35
841.4546	851.4179	59396.05	58431.6
841.5997	853.467	58960.85	57992.55
841.7448	855.5155	59126.15	58159
841.8899	857.5633	58763.65	57798.5
842.0351	859.6105	58539.1	57573.35
842.1802	861.6569	58806.9	57839.35
842.3253	863.7027	58313.45	57347.3
842.4704	865.7478	58451.35	57481.7
842.6156	867.7922	58320.7	57354.35
842.7607	869.8359	58529.8	57561.15
842.9058	871.8789	58054.55	57085.65
843.0509	873.9212	58329.85	57331.65
843.1961	875.9629	58284.65	57315.65
843.3412	878.0039	58279.95	57311.3
843.4863	880.0441	58117.85	57155.6
843.6315	882.0837	58125.7	57161.05
843.7766	884.1226	58113.1	57149.2
843.9218	886.1609	58110.6	57145.15
844.0669	888.1984	57942.8	56977.4
844.212	890.2352	58314.8	57347.2
844.3572	892.2714	57833.25	56860.25
844.5023	894.3069	58009.9	57040.1
844.6475	896.3416	57714.9	56747.2
844.7926	898.3757	57618.6	56650.35
844.9377	900.4091	57088.65	56118
845.0829	902.4418	57711.45	56740.35
845.228	904.4739	57281.15	56311.1
845.3732	906.5052	57375.75	56405.1
845.5183	908.5358	57117.05	56149.25
845.6635	910.5658	56899.7	55928.25
845.8086	912.595	56866.4	55900.1
845.9538	914.6236	56267.95	55302.05
846.0989	916.6515	56947.9	55980.45
846.2441	918.6786	56104.3	55133.6
846.3892	920.7051	56262.8	55295.25
846.5344	922.7309	56171.15	55199.95
846.6795	924.756	56228.95	55262.4
846.8246	926.7804	56018	55047.8
846.9698	928.8041	55419.35	54451.7
847.1149	930.8272	55816.55	54846.1
847.2601	932.8495	55826.85	54859.3
847.4052	934.8711	55358	54388.3
847.5504	936.892	55120.4	54151.3
847.6955	938.9123	55291.75	54323.75
847.8407	940.9318	54980.75	54013.05
847.9858	942.9506	54907.05	53939.7
848.131	944.9688	54955.05	53990.1
848.2761	946.9862	54182.05	53216.15
848.4213	949.003	54341	53370.35
848.5664	951.019	53636.2	52670.15
848.7115	953.0344	53690.6	52722.15
848.8567	955.0491	53607.45	52638.4
849.0018	957.063	53788.05	52820.45
849.147	959.0763	53862.4	52890.95
849.2921	961.0888	53458.15	52491.5
849.4373	963.1007	53773.6	52809.2
849.5824	965.1119	53715.35	52757.95
849.7275	967.1223	53378.4	52426.4
849.8727	969.1321	53673.5	52720.2
850.0178	971.1412	53166.2	52212.5
850.1629	973.1495	52883.8	51916.8
850.3081	975.1572	53025.15	52020.2
850.4532	977.1641	52861	51890.85
850.5983	979.1704	52721.15	51752.45
850.7435	981.1759	52650.8	51677.6
850.8886	983.1808	52391.25	51423.35
851.0337	985.1849	52353.6	51376.25
851.1788	987.1884	52399.25	51433.45
851.324	989.1911	52618.7	51650.1
851.4691	991.1932	51936.3	50970.65
851.6142	993.1945	52037.5	51073.9
851.7593	995.1951	52100.7	51130.9
851.9045	997.1951	51762.8	50789.8
852.0496	999.1943	51538.45	50573
852.1947	1001.1928	51389.65	50425.45
852.3398	1003.1906	51339.15	50372.6
852.4849	1005.1877	50980	50013.2
852.63	1007.1841	50857.55	49893.25
852.7751	1009.1798	50798.2	49835.05
852.9202	1011.1748	50641.5	49682.55
853.0653	1013.1691	50401.75	49440.45
853.2104	1015.1627	49644.85	48679.85
853.3555	1017.1556	49500.4	48540.65
853.5006	1019.1477	49532	48569.85
853.6457	1021.1392	49003.95	48046.5
853.7908	1023.1299	48614.55	47660.1
853.9359	1025.12	48702.8	47754.4
854.081	1027.1093	48405.6	47469.65
854.2261	1029.0979	48380.3	47446.95
854.3712	1031.0859	48284.9	47345.8
854.5163	1033.0731	47943.4	46996.05
854.6613	1035.0596	47951.8	46993.5
854.8064	1037.0454	47715.9	46757.9
854.9515	1039.0304	47454.2	46490.65
855.0965	1041.0148	46987.2	46026.6
855.2416	1042.9985	46992.6	46032.45
855.3867	1044.9814	47039.75	46079.05
855.5317	1046.9636	46604.55	45641.55
855.6768	1048.9452	46452.55	45490.3
855.8219	1050.926	46435.45	45476.05
855.9669	1052.9061	46309.75	45349.95
856.112	1054.8855	46200.35	45239.3
856.257	1056.8642	46112.9	45150.65
856.4021	1058.8421	46064.65	45094.95
856.5471	1060.8194	45993.85	45031.3
856.6921	1062.7959	45869.1	44908.1
856.8372	1064.7717	45883.95	44921.5
856.9822	1066.7469	45784.55	44820.4
857.1272	1068.7213	45725.7	44763.2
857.2723	1070.695	45668.75	44706.7
857.4173	1072.6679	45404.6	44442.8
857.5623	1074.6402	45448.6	44488.15
857.7073	1076.6117	45372.35	44408.4
857.8523	1078.5826	45211.65	44250
857.9973	1080.5527	44982.55	44019.6
858.1423	1082.5221	44811.25	43850.75
858.2873	1084.4908	44741.1	43777.35
858.4323	1086.4587	44680.45	43718.1
858.5773	1088.426	44655.2	43696.35
858.7223	1090.3925	44459.7	43493.1
858.8673	1092.3584	44428.95	43466.45
859.0123	1094.3235	44126.45	43167.45
859.1573	1096.2879	44037.15	43078.85
859.3022	1098.2515	44030.5	43074.5
859.4472	1100.2145	44050.7	43093.35
859.5922	1102.1767	44080.1	43118.8
859.7371	1104.1382	44152.65	43196.2
859.8821	1106.099	44208.65	43246.25
860.027	1108.0591	44279.55	43319.45
860.172	1110.0185	44226.9	43266.3
860.3169	1111.9771	44330.25	43369.15
860.4619	1113.9351	43986.5	43028.25
860.6068	1115.8923	43737.1	42775.1
860.7517	1117.8488	43490	42529
860.8967	1119.8045	43068.2	42110.35
861.0416	1121.7596	42944.4	41987.5
861.1865	1123.7139	42689.75	41731.95
861.3314	1125.6675	42610.45	41651.9
861.4763	1127.6204	42705.5	41749.85
861.6212	1129.5726	42430.35	41470.25
861.7661	1131.524	42308.3	41349.3
861.911	1133.4748	42187.25	41229.95
862.0559	1135.4248	41922.7	40963.35
862.2008	1137.3741	41789.05	40832.05
862.3457	1139.3226	41582.1	40618.7
862.4905	1141.2705	41550.5	40591.4
862.6354	1143.2176	41239.05	40275.8
862.7803	1145.164	41150.1	40188.95
862.9251	1147.1097	41018.2	40060.45
863.07	1149.0546	40867.95	39909.9
863.2148	1150.9989	40803.1	39844.65
863.3597	1152.9424	40669.25	39712.95
863.5045	1154.8852	40474.9	39514.8
863.6493	1156.8272	40390.2	39434
863.7942	1158.7686	40366.2	39400.75
863.939	1160.7092	40245.85	39289.9
864.0838	1162.6491	40039.3	39079.4
864.2286	1164.5883	40121.8	39164
864.3734	1166.5267	40038.7	39077.05
864.5182	1168.4644	40171.6	39215.65
864.663	1170.4014	40214.2	39256.05
864.8078	1172.3377	40433.05	39476.9
864.9526	1174.2732	40503.5	39549
865.0974	1176.2081	40764.9	39810.6
865.2421	1178.1421	41019.5	40061.3
865.3869	1180.0755	41333.25	40376.7
865.5317	1182.0082	41328.5	40375.55
