Software Version:	3.9.2.0
Unit SN:	10000200
Spectrometer SN:	6960
Date:	3/26/2024 2:53:50 PM
Data Line Index:	25
Spectral Points:	2048
Integration time (ms):	125
Averages:	20
Delay (ms):	30000
Sequence Number:	1
Processing:	dark subtract
Laser Power (mW):	305
Laser Current (mA):	820
Laser Diode Temp (C):	25
Laser Case Temp (C):	28
System Temp (C):	28.1
Spectrometer Temp (C):	25.9
CCD Temp (C):	0
Secondary Temp (C):	20.01
Heatsink Temp (C):	23.672
CCDPCB Temp (C):	37.341
SecondaryPCB Temp (C):	34.584

Wavelength	RamanShift	Raw Counts	Dark Subtracted
787.061	30.1047	615.35	206.25
787.2016	32.3739	622.6	215.15
787.3422	34.6426	635.6	224.85
787.4828	36.9109	650.85	238.6
787.6235	39.1787	670.25	256
787.7642	41.4461	693	272.5
787.9049	43.7131	717.65	293.7
788.0456	45.9796	736.05	308.9
788.1863	48.2456	763	332.1
788.3271	50.5112	779.7	343.95
788.4679	52.7764	812.6	375.6
788.6087	55.0411	831.5	391.5
788.7496	57.3054	859.45	413.35
788.8904	59.5692	893.2	443.3
789.0313	61.8326	928.1	474.85
789.1722	64.0955	965.95	508.65
789.3132	66.3579	1000.65	539.85
789.4541	68.6199	1056.85	591.9
789.5951	70.8815	1147.9	680.65
789.7361	73.1426	1327.45	854.55
789.8771	75.4032	1786.2	1309.35
790.0181	77.6634	2933.1	2448.7
790.1592	79.9231	5767.55	5275.55
790.3003	82.1824	12318.9	11810.3
790.4414	84.4412	25933.65	25395.85
790.5825	86.6995	51388.75	50812.35
790.7237	88.9574	64405.75	63792.7
790.8648	91.2148	65535	64891.1
791.006	93.4717	65535	64873.3
791.1472	95.7282	65535	64863.85
791.2885	97.9842	65535	64858.9
791.4297	100.2398	65535	64855.05
791.571	102.4949	65535	64855.85
791.7123	104.7495	65535	64851.6
791.8536	107.0036	65535	64852.15
791.9949	109.2573	65535	64851.15
792.1363	111.5105	65535	64845.7
792.2777	113.7632	65535	64846.5
792.4191	116.0154	65535	64839.05
792.5605	118.2672	65535	64845.7
792.7019	120.5185	65535	64843.6
792.8434	122.7693	65535	64843.3
792.9849	125.0197	65535	64836.5
793.1264	127.2696	65535	64836
793.2679	129.519	65535	64833.4
793.4094	131.7679	65535	64827
793.551	134.0163	65535	64825.3
793.6926	136.2642	65535	64820.5
793.8342	138.5117	65535	64808.1
793.9758	140.7587	65535	64814.85
794.1175	143.0052	65535	64814.35
794.2591	145.2512	65535	64811.3
794.4008	147.4967	65535	64814.15
794.5425	149.7417	65535	64809.45
794.6842	151.9863	65535	64805.5
794.826	154.2304	65535	64803.25
794.9677	156.4739	65535	64800.45
795.1095	158.717	65535	64798.15
795.2513	160.9596	65535	64791.6
795.3931	163.2017	65535	64791.6
795.535	165.4433	65535	64786.35
795.6768	167.6844	65535	64788.8
795.8187	169.925	65535	64787.2
795.9606	172.1651	65535	64787.45
796.1025	174.4047	65535	64786.45
796.2445	176.6439	65535	64781.35
796.3864	178.8825	65535	64779.4
796.5284	181.1206	65535	64773.2
796.6704	183.3582	65535	64768.65
796.8124	185.5954	65535	64769.6
796.9544	187.832	65535	64762.6
797.0965	190.0681	65535	64758.6
797.2386	192.3037	65535	64756.3
797.3806	194.5388	65535	64752.9
797.5228	196.7734	65535	64752.3
797.6649	199.0075	65535	64744.55
797.807	201.2411	65535	64745.45
797.9492	203.4742	65535	64748.3
798.0914	205.7068	65535	64742.15
798.2336	207.9389	65535	64742.75
798.3758	210.1704	65535	64740.85
798.518	212.4015	65535	64736.6
798.6603	214.632	65535	64739.35
798.8025	216.862	65535	64750.4
798.9448	219.0915	65535	64757.2
799.0871	221.3205	65535	64755
799.2294	223.549	65535	64761.9
799.3718	225.777	65535	64760.3
799.5141	228.0044	65535	64762.6
799.6565	230.2314	65535	64760.35
799.7989	232.4578	65535	64762.2
799.9413	234.6837	65535	64752.65
800.0837	236.909	65535	64750.7
800.2262	239.1339	65535	64726.15
800.3687	241.3582	65535	64734.75
800.5111	243.582	65535	64704.5
800.6536	245.8053	65535	64720.05
800.7961	248.0281	65535	64723.5
800.9387	250.2503	65535	64723.35
801.0812	252.472	65535	64718.95
801.2238	254.6932	65535	64714.45
801.3664	256.9139	65535	64718.35
801.509	259.134	65535	64712.45
801.6516	261.3536	65535	64711.4
801.7942	263.5727	65535	64711.5
801.9369	265.7912	65535	64712.2
802.0795	268.0092	65535	64710.65
802.2222	270.2267	65535	64707.3
802.3649	272.4436	65535	64710.4
802.5076	274.6601	65535	64702.6
802.6504	276.8759	65535	64707.35
802.7931	279.0913	65535	64706.25
802.9359	281.3061	65535	64705.25
803.0787	283.5204	65535	64696.85
803.2215	285.7341	65535	64695.25
803.3643	287.9473	65535	64687.6
803.5071	290.16	65535	64691.15
803.6499	292.3721	65535	64695.95
803.7928	294.5837	65535	64694.3
803.9357	296.7947	65535	64691
804.0786	299.0052	65535	64695.05
804.2215	301.2152	65535	64698.35
804.3644	303.4246	65535	64699.15
804.5074	305.6334	65535	64698.3
804.6503	307.8418	65535	64696.95
804.7933	310.0495	65535	64693
804.9363	312.2568	65535	64691.6
805.0793	314.4635	65535	64693.95
805.2223	316.6696	65535	64691.65
805.3653	318.8752	65535	64680.55
805.5084	321.0802	65535	64685.55
805.6514	323.2847	65535	64687.5
805.7945	325.4887	65535	64685.25
805.9376	327.692	65535	64683.95
806.0807	329.8949	65535	64683.7
806.2238	332.0972	65535	64684.1
806.367	334.2989	65535	64673.8
806.5101	336.5001	65535	64677.3
806.6533	338.7007	65535	64681.6
806.7965	340.9008	65535	64676.6
806.9397	343.1003	65535	64674.6
807.0829	345.2992	65535	64673.9
807.2261	347.4976	65535	64671.6
807.3693	349.6955	65535	64671.95
807.5126	351.8927	65535	64671.35
807.6559	354.0895	65535	64655.25
807.7991	356.2856	65535	64669.55
807.9424	358.4812	65535	64668.35
808.0857	360.6763	65535	64663.45
808.2291	362.8707	65535	64662.7
808.3724	365.0646	65535	64665
808.5158	367.258	65535	64665.6
808.6591	369.4508	65535	64659.85
808.8025	371.643	65535	64660.45
808.9459	373.8346	65535	64653.65
809.0893	376.0257	65535	64653.25
809.2327	378.2162	65535	64655.55
809.3762	380.4062	65535	64652.95
809.5196	382.5956	65535	64656.7
809.6631	384.7844	65535	64658.45
809.8066	386.9726	65535	64656
809.9501	389.1603	65535	64657.5
810.0936	391.3474	65535	64614
810.2371	393.5339	65535	64651.8
810.3806	395.7199	65535	64663.2
810.5241	397.9052	65535	64656.9
810.6677	400.09	65535	64661.9
810.8113	402.2743	65535	64661.3
810.9548	404.4579	65535	64664.1
811.0984	406.641	65535	64663.3
811.2421	408.8235	65535	64661.6
811.3857	411.0054	65535	64658.5
811.5293	413.1868	65535	64655.6
811.673	415.3675	65535	64657.8
811.8166	417.5477	65535	64653.05
811.9603	419.7273	65535	64656.15
812.104	421.9064	65535	64646.8
812.2477	424.0848	65535	64651
812.3914	426.2627	65535	64650.35
812.5351	428.4399	65535	64648.05
812.6788	430.6166	65535	64645.3
812.8226	432.7928	65535	64647.5
812.9663	434.9683	65535	64647.35
813.1101	437.1432	65535	64647.4
813.2539	439.3176	65535	64650.05
813.3977	441.4914	65535	64655.65
813.5415	443.6645	65535	64647.35
813.6853	445.8371	65535	64643.9
813.8291	448.0091	65535	64646.6
813.973	450.1806	65535	64649.4
814.1168	452.3514	65535	64646.5
814.2607	454.5216	65535	64638.85
814.4046	456.6913	65535	64642.4
814.5485	458.8603	65535	64648.6
814.6924	461.0288	65535	64645.85
814.8363	463.1967	65535	64650.25
814.9802	465.3639	65535	64648.65
815.1241	467.5306	65535	64644.7
815.2681	469.6967	65535	64648.85
815.412	471.8622	65535	64652.8
815.556	474.0271	65535	64647.95
815.7	476.1914	65535	64643.7
815.844	478.3551	65535	64643.9
815.988	480.5182	65535	64645.3
816.132	482.6807	65535	64650.2
816.276	484.8426	65535	64651.4
816.4201	487.0039	65535	64649.5
816.5641	489.1647	65535	64640.6
816.7082	491.3248	65535	64645.45
816.8522	493.4843	65535	64647.95
816.9963	495.6432	65535	64646.3
817.1404	497.8015	65535	64637.45
817.2845	499.9592	65535	64636.75
817.4286	502.1163	65535	64633.25
817.5727	504.2728	65535	64640.85
817.7168	506.4287	65535	64650.1
817.861	508.5839	65535	64649.15
818.0051	510.7386	65535	64641.3
818.1493	512.8927	65535	64631.95
818.2935	515.0461	65535	64638.2
818.4377	517.199	65535	64637.25
818.5818	519.3512	65535	64631.35
818.726	521.5029	65535	64632.05
818.8703	523.6539	65535	64634.95
819.0145	525.8043	65532.75	64632.6
819.1587	527.9541	65535	64634.15
819.303	530.1033	65535	64633.45
819.4472	532.2519	65535	64630.85
819.5915	534.3999	65535	64632.7
819.7357	536.5472	65535	64634.7
819.88	538.694	65535	64636.65
820.0243	540.8401	65535	64634.15
820.1686	542.9856	65535	64626
820.3129	545.1305	65535	64621.3
820.4572	547.2748	65535	64620.2
820.6016	549.4185	65535	64613.3
820.7459	551.5615	65535	64621.3
820.8902	553.704	65535	64622.95
821.0346	555.8458	65535	64623.35
821.1789	557.987	65535	64627.2
821.3233	560.1276	65535	64623.1
821.4677	562.2675	65535	64621.75
821.6121	564.4069	65535	64623.85
821.7565	566.5456	65535	64630.35
821.9009	568.6837	65530.15	64621.35
822.0453	570.8212	65535	64629.9
822.1897	572.958	65517.45	64608.9
822.3342	575.0942	65532.3	64627.85
822.4786	577.2299	65524.85	64623.25
822.6231	579.3648	65525.5	64630.95
822.7675	581.4992	65524.2	64636.95
822.912	583.6329	65524.5	64636.9
823.0565	585.766	65526.1	64634.85
823.201	587.8985	65530	64636.1
823.3454	590.0304	65509.15	64597.9
823.4899	592.1616	65525.7	64615.95
823.6345	594.2922	65518.55	64606.5
823.779	596.4222	65450.9	64536.65
823.9235	598.5515	65479.4	64564.65
824.068	600.6802	65518.75	64603.65
824.2126	602.8083	65432.5	64524.05
824.3571	604.9358	65415.4	64502.45
824.5017	607.0626	65491.95	64579.55
824.6462	609.1888	65286.05	64365.6
824.7908	611.3144	65421.65	64501.2
824.9354	613.4393	65349.25	64431.55
825.08	615.5636	65140	64220.75
825.2246	617.6873	65322.15	64406.15
825.3692	619.8103	65052.65	64134.65
825.5138	621.9327	65323	64408.05
825.6584	624.0544	65323.7	64414.75
825.803	626.1756	65242.75	64331.6
825.9477	628.2961	65228.35	64313.5
826.0923	630.4159	65132	64217.3
826.237	632.5351	65019.85	64104.8
826.3816	634.6537	65385.95	64464.15
826.5263	636.7716	64953.05	64032.3
826.6709	638.8889	65093.55	64169.15
826.8156	641.0056	65054.1	64131.55
826.9603	643.1216	65107	64189.1
827.105	645.237	65183.8	64261.05
827.2497	647.3518	64942.1	64026.65
827.3944	649.4659	65051.8	64139.05
827.5391	651.5793	65062.25	64153.8
827.6838	653.6922	65138.6	64225
827.8285	655.8043	64699.15	63783.45
827.9733	657.9159	65167.7	64251.2
828.118	660.0268	64202.9	63286
828.2627	662.137	64864.5	63946.8
828.4075	664.2466	64884.35	63960.85
828.5522	666.3556	64640.75	63718.3
828.697	668.4639	64862.85	63943.9
828.8418	670.5716	64543.95	63630.1
828.9865	672.6786	64785.25	63862.6
829.1313	674.785	64522.2	63597.4
829.2761	676.8907	64590.05	63668.45
829.4209	678.9958	64771.6	63854.1
829.5657	681.1002	64780.85	63864.75
829.7105	683.204	64443.9	63515.35
829.8553	685.3072	64198.9	63275.15
830.0001	687.4097	64399.95	63477.4
830.1449	689.5115	64115.85	63193.1
830.2898	691.6127	64476	63555.8
830.4346	693.7132	64070.55	63149.2
830.5794	695.8131	64079.9	63139.05
830.7243	697.9123	64171.15	63244.05
830.8691	700.0109	64198.15	63272
831.014	702.1089	63513.3	62592.35
831.1588	704.2061	63718.6	62790.1
831.3037	706.3028	63785.5	62858.6
831.4486	708.3987	63887.8	62962.85
831.5935	710.4941	63598.4	62674.3
831.7383	712.5887	64111.15	63186.3
831.8832	714.6827	63873.9	62950.35
832.0281	716.7761	64343.9	63425.4
832.173	718.8688	64529.65	63606.45
832.3179	720.9608	64212.45	63282.4
832.4628	723.0522	64178.4	63242.85
832.6077	725.1429	63651.6	62724.15
832.7527	727.233	64461.2	63534.35
832.8976	729.3224	62317.4	61389.8
833.0425	731.4112	63035.3	62106.7
833.1874	733.4993	62975	62045.4
833.3324	735.5867	62972.6	62045.65
833.4773	737.6735	62385.6	61456
833.6222	739.7596	61861.7	60932.1
833.7672	741.845	61775.1	60848.65
833.9122	743.9298	62629.35	61697.3
834.0571	746.014	61770.75	60844.95
834.2021	748.0974	61201.35	60267.25
834.347	750.1802	62310.8	61380.45
834.492	752.2624	60916.55	59985
834.637	754.3439	61116.5	60186.2
834.782	756.4247	61450.15	60509.8
834.9269	758.5048	60884.6	59952.65
835.0719	760.5843	61138.2	60207.2
835.2169	762.6631	61525.05	60595.1
835.3619	764.7413	61409.5	60482.85
835.5069	766.8188	61787.6	60856.8
835.6519	768.8956	62435.6	61500.15
835.7969	770.9718	62351.95	61420
835.9419	773.0473	61989.35	61055.1
836.0869	775.1221	61125.95	60195.9
836.232	777.1962	60930.7	59999.1
836.377	779.2697	60096.65	59161.45
836.522	781.3426	60601	59660
836.667	783.4147	60964.75	60031.6
836.8121	785.4862	60925.9	59993.2
836.9571	787.557	60363.95	59429.55
837.1021	789.6271	60811.05	59876.6
837.2472	791.6966	59877.15	58944.6
837.3922	793.7654	59020	58085.8
837.5373	795.8335	58791.95	57860.95
837.6823	797.901	58853.2	57921.5
837.8274	799.9678	58477.3	57540.05
837.9724	802.0339	58431	57497.4
838.1175	804.0993	58495	57547.8
838.2626	806.1641	58269.5	57338.3
838.4076	808.2282	58017.3	57088.15
838.5527	810.2916	57805.35	56867.2
838.6978	812.3544	57984.2	57055.3
838.8428	814.4164	57285.45	56353.15
838.9879	816.4778	57485.55	56552
839.133	818.5385	57375	56438.85
839.2781	820.5986	57262.5	56325.45
839.4232	822.658	57280.35	56342.9
839.5682	824.7166	57209.75	56274.85
839.7133	826.7747	56722.85	55789.5
839.8584	828.832	57005.7	56071.1
840.0035	830.8886	57230.7	56293.25
840.1486	832.9446	57268.05	56332.1
840.2937	834.9999	56464.75	55529.75
840.4388	837.0545	56951.85	56013
840.5839	839.1085	57115.7	56179.05
840.729	841.1618	57027.25	56086.4
840.8741	843.2143	56389.95	55454.15
841.0192	845.2662	56233.9	55298.25
841.1643	847.3175	56389.05	55451.95
841.3095	849.368	55651.65	54716.05
841.4546	851.4179	55905.95	54972.25
841.5997	853.467	55372.45	54437.65
841.7448	855.5155	55419.4	54483.55
841.8899	857.5633	54913.35	53975.25
842.0351	859.6105	54526.75	53590.4
842.1802	861.6569	54692	53755.5
842.3253	863.7027	54144.7	53206.45
842.4704	865.7478	54297.4	53358.65
842.6156	867.7922	54184.25	53245.95
842.7607	869.8359	54342.2	53403.45
842.9058	871.8789	53920.55	52981.45
843.0509	873.9212	54264.45	53295.8
843.1961	875.9629	54266.35	53329.5
843.3412	878.0039	54309.95	53374.75
843.4863	880.0441	54245.85	53312.55
843.6315	882.0837	54131.7	53193.5
843.7766	884.1226	53895	52957.8
843.9218	886.1609	53704.15	52765.1
844.0669	888.1984	53367.55	52429.65
844.212	890.2352	53471.9	52535.1
844.3572	892.2714	52932.9	51991.1
844.5023	894.3069	52994.95	52056.35
844.6475	896.3416	52742.25	51804.4
844.7926	898.3757	52648.4	51709.5
844.9377	900.4091	52280.2	51342.55
845.0829	902.4418	52555.25	51610.1
845.228	904.4739	52210.35	51268.6
845.3732	906.5052	52177.9	51236.8
845.5183	908.5358	51881.95	50944.8
845.6635	910.5658	51539.95	50600.05
845.8086	912.595	51315.85	50378.25
845.9538	914.6236	50910	49971.9
846.0989	916.6515	51259.4	50317.75
846.2441	918.6786	50644.1	49703.95
846.3892	920.7051	50795.9	49853.6
846.5344	922.7309	50851.7	49910.5
846.6795	924.756	50754.15	49816.45
846.8246	926.7804	50631.45	49692.7
846.9698	928.8041	50174.7	49235.3
847.1149	930.8272	50315.1	49374.45
847.2601	932.8495	50046.3	49104.9
847.4052	934.8711	49759.1	48820.45
847.5504	936.892	49432.9	48493.9
847.6955	938.9123	49089.5	48146.95
847.8407	940.9318	48778.35	47841.1
847.9858	942.9506	48568.55	47630.25
848.131	944.9688	48389.1	47445.25
848.2761	946.9862	48013.95	47072.9
848.4213	949.003	47895.8	46953.75
848.5664	951.019	47675.35	46737.6
848.7115	953.0344	47668.2	46728.55
848.8567	955.0491	47585.75	46645
849.0018	957.063	47628.5	46688.75
849.147	959.0763	47705.2	46761.95
849.2921	961.0888	47484.05	46545.1
849.4373	963.1007	47602.9	46666.55
849.5824	965.1119	47487.2	46551.6
849.7275	967.1223	47400.2	46469.7
849.8727	969.1321	47404.8	46475
850.0178	971.1412	47219.15	46285.4
850.1629	973.1495	47068.35	46131.75
850.3081	975.1572	47065.35	46094.05
850.4532	977.1641	46942.45	46005.65
850.5983	979.1704	46827.35	45886.7
850.7435	981.1759	46629.05	45682.05
850.8886	983.1808	46575.5	45635.5
851.0337	985.1849	46609.75	45661.3
851.1788	987.1884	46646.3	45702.15
851.324	989.1911	46776.8	45836.8
851.4691	991.1932	46753.95	45812
851.6142	993.1945	46670.6	45732.45
851.7593	995.1951	46406.5	45471.85
851.9045	997.1951	46279.6	45331.25
852.0496	999.1943	46065.7	45126.6
852.1947	1001.1928	45807.9	44867.7
852.3398	1003.1906	45529.15	44592.05
852.4849	1005.1877	45455.95	44516.4
852.63	1007.1841	45232.4	44296.95
852.7751	1009.1798	44969.95	44035.5
852.9202	1011.1748	44613.4	43675.55
853.0653	1013.1691	44297.75	43360.25
853.2104	1015.1627	43898.65	42962.1
853.3555	1017.1556	43390.15	42454.8
853.5006	1019.1477	43230.55	42293.1
853.6457	1021.1392	42929.5	41995.65
853.7908	1023.1299	42799.65	41868.45
853.9359	1025.12	42639.3	41712.7
854.081	1027.1093	42469.2	41549.7
854.2261	1029.0979	42437.45	41522.05
854.3712	1031.0859	42308.65	41388.75
854.5163	1033.0731	42166.6	41238.75
854.6613	1035.0596	41992.6	41062
854.8064	1037.0454	41575.35	40642.35
854.9515	1039.0304	41400.6	40467.9
855.0965	1041.0148	41030.6	40095.45
855.2416	1042.9985	40868	39931.6
855.3867	1044.9814	40773.65	39838.75
855.5317	1046.9636	40558.45	39618.6
855.6768	1048.9452	40386.4	39448.75
855.8219	1050.926	40334.15	39396.35
855.9669	1052.9061	40144.5	39209.9
856.112	1054.8855	40010.85	39077.95
856.257	1056.8642	39982.85	39049.6
856.4021	1058.8421	39949.1	39011.95
856.5471	1060.8194	39815.45	38880.9
856.6921	1062.7959	39709.05	38772.8
856.8372	1064.7717	39618.1	38678.95
856.9822	1066.7469	39553.1	38615.05
857.1272	1068.7213	39361.85	38424
857.2723	1070.695	39213.6	38277.75
857.4173	1072.6679	38982.5	38047.15
857.5623	1074.6402	38888.15	37952.75
857.7073	1076.6117	38806.25	37867.1
857.8523	1078.5826	38766.55	37831.55
857.9973	1080.5527	38614.2	37671.15
858.1423	1082.5221	38639.8	37703.6
858.2873	1084.4908	38805	37869.6
858.4323	1086.4587	38957.5	38020.2
858.5773	1088.426	39111.75	38174.25
858.7223	1090.3925	38855.4	37915.2
858.8673	1092.3584	38767.55	37831
859.0123	1094.3235	38367.95	37430.75
859.1573	1096.2879	38137	37201.85
859.3022	1098.2515	37989.55	37054.75
859.4472	1100.2145	37941.75	37007.9
859.5922	1102.1767	37856.45	36920.1
859.7371	1104.1382	37945.25	37010.9
859.8821	1106.099	38039.4	37101.15
860.027	1108.0591	38130.4	37197.85
860.172	1110.0185	38130.4	37194.4
860.3169	1111.9771	38132.3	37195.7
860.4619	1113.9351	37684.3	36751.9
860.6068	1115.8923	37217.8	36281.55
860.7517	1117.8488	36753.75	35817.35
860.8967	1119.8045	36278.1	35346
861.0416	1121.7596	36089.65	35156.85
861.1865	1123.7139	35879.95	34947.5
861.3314	1125.6675	35837	34900.95
861.4763	1127.6204	35863.25	34929.85
861.6212	1129.5726	35746.5	34811.1
861.7661	1131.524	35763.5	34826.2
861.911	1133.4748	35699.6	34763.3
862.0559	1135.4248	35610.35	34675.8
862.2008	1137.3741	35590.65	34658.5
862.3457	1139.3226	35517.85	34581.2
862.4905	1141.2705	35436.9	34501.05
862.6354	1143.2176	35132	34189.8
862.7803	1145.164	35102.4	34167.15
862.9251	1147.1097	35026.65	34089.8
863.07	1149.0546	35047.8	34112.8
863.2148	1150.9989	34865.95	33932.15
863.3597	1152.9424	34649.55	33714.25
863.5045	1154.8852	34405.25	33471
863.6493	1156.8272	34152.5	33221.15
863.7942	1158.7686	34020.25	33080.2
863.939	1160.7092	33825.1	32888.2
864.0838	1162.6491	33758.25	32825.7
864.2286	1164.5883	33727.05	32795.75
864.3734	1166.5267	33722.65	32788.6
864.5182	1168.4644	33758.3	32825.4
864.663	1170.4014	33829.95	32896.4
864.8078	1172.3377	34062.9	33131.85
864.9526	1174.2732	34183.4	33251.8
865.0974	1176.2081	34339	33409.5
865.2421	1178.1421	34434.65	33495.05
865.3869	1180.0755	34484.15	33551.05
865.5317	1182.0082	34326.15	33395.7
865.6764	1183.9401	34218.95	33287.25
865.8212	1185.8713	33907.7	32982.45
865.9659	1187.8017	33587.15	32660.7
866.1106	1189.7315	33291.4	32372.5
866.2554	1191.6605	32871.9	31953.65
866.4001	1193.5888	32530.95	31612
866.5448	1195.5163	32361.75	31436.55
866.6895	1197.4432	32174.85	31240.9
866.8342	1199.3693	32018.8	31089.85
866.9789	1201.2947	31825.2	30889.5
867.1236	1203.2193	31723.3	30791.3
867.2683	1205.1432	31685.6	30755.2
867.413	1207.0664	31641.2	30711.7
867.5576	1208.9889	31633.95	30700.65
867.7023	1210.9106	31570.3	30638.15
