Software Version:	3.9.2.0
Unit SN:	10000200
Spectrometer SN:	6960
Date:	3/26/2024 12:55:45 PM
Data Line Index:	25
Spectral Points:	2048
Integration time (ms):	125
Averages:	20
Delay (ms):	30000
Sequence Number:	1
Processing:	dark subtract
Laser Power (mW):	300
Laser Current (mA):	815
Laser Diode Temp (C):	25
Laser Case Temp (C):	25.1
System Temp (C):	25
Spectrometer Temp (C):	23
CCD Temp (C):	0.036
Secondary Temp (C):	20.01
Heatsink Temp (C):	21.415
CCDPCB Temp (C):	35.04
SecondaryPCB Temp (C):	29.093

Wavelength	RamanShift	Raw Counts	Dark Subtracted
787.061	30.1047	429.3	19
787.2016	32.3739	430.35	20.35
787.3422	34.6426	430.95	18.95
787.4828	36.9109	436.55	22.9
787.6235	39.1787	442.35	23.2
787.7642	41.4461	447.95	25.7
787.9049	43.7131	451.95	25.05
788.0456	45.9796	455.65	27.2
788.1863	48.2456	459.55	26.65
788.3271	50.5112	468.85	31.1
788.4679	52.7764	474	34.4
788.6087	55.0411	474.05	29.65
788.7496	57.3054	483.75	35.2
788.8904	59.5692	485.5	36.85
789.0313	61.8326	492.4	39.75
789.1722	64.0955	500.4	43.2
789.3132	66.3579	510.7	49.55
789.4541	68.6199	518.6	54.2
789.5951	70.8815	533.25	67.15
789.7361	73.1426	558.8	89.6
789.8771	75.4032	623.05	148.35
790.0181	77.6634	779.6	300.35
790.1592	79.9231	1139.2	656.7
790.3003	82.1824	1889.95	1401.55
790.4414	84.4412	3176.15	2683.9
790.5825	86.6995	4915.35	4419.65
790.7237	88.9574	6638.9	6137.05
790.8648	91.2148	7917.4	7413.05
791.006	93.4717	8573.2	8063.95
791.1472	95.7282	8843.65	8329.95
791.2885	97.9842	8916.5	8402.4
791.4297	100.2398	8925.35	8407.95
791.571	102.4949	8883.05	8364.85
791.7123	104.7495	8859	8335.9
791.8536	107.0036	8792.7	8268.55
791.9949	109.2573	8748.35	8225.7
792.1363	111.5105	8666.35	8142.7
792.2777	113.7632	8577.6	8051.65
792.4191	116.0154	8523.45	7985.4
792.5605	118.2672	8462.6	7930.6
792.7019	120.5185	8347.2	7815.4
792.8434	122.7693	8258.85	7723.8
792.9849	125.0197	8182.45	7644.85
793.1264	127.2696	8115	7575.8
793.2679	129.519	8093.05	7549.4
793.4094	131.7679	8047.95	7504.95
793.551	134.0163	8028.45	7480.4
793.6926	136.2642	8015.65	7460.25
793.8342	138.5117	8028.15	7471.45
793.9758	140.7587	7984.4	7426.05
794.1175	143.0052	7966.6	7405.15
794.2591	145.2512	7909.65	7347
794.4008	147.4967	7856.6	7293.95
794.5425	149.7417	7784.8	7219.4
794.6842	151.9863	7738.15	7169.45
794.826	154.2304	7706.55	7134.75
794.9677	156.4739	7679.8	7103.65
795.1095	158.717	7678.85	7101.15
795.2513	160.9596	7692.95	7110.25
795.3931	163.2017	7694.35	7111.95
795.535	165.4433	7726.65	7139.85
795.6768	167.6844	7714.3	7126.9
795.8187	169.925	7710.4	7119.45
795.9606	172.1651	7632.15	7039.65
796.1025	174.4047	7581.75	6983.75
796.2445	176.6439	7526.3	6925.85
796.3864	178.8825	7488.2	6885.15
796.5284	181.1206	7489.6	6879.95
796.6704	183.3582	7456.75	6843.15
796.8124	185.5954	7430.45	6818.35
796.9544	187.832	7435.5	6818.3
797.0965	190.0681	7436.5	6819.3
797.2386	192.3037	7448.3	6826.5
797.3806	194.5388	7444.65	6819.5
797.5228	196.7734	7454.85	6828.35
797.6649	199.0075	7483.9	6851.5
797.807	201.2411	7513.9	6879.7
797.9492	203.4742	7521.9	6886.25
798.0914	205.7068	7566.95	6931.15
798.2336	207.9389	7572.35	6938.15
798.3758	210.1704	7593.7	6953.65
798.518	212.4015	7584.2	6940.3
798.6603	214.632	7613.4	6970.6
798.8025	216.862	7596.45	6961.45
798.9448	219.0915	7576.6	6950.2
799.0871	221.3205	7572.35	6946.35
799.2294	223.549	7597.25	6976.1
799.3718	225.777	7615.9	6995.25
799.5141	228.0044	7617.2	6993.15
799.6565	230.2314	7587	6966.2
799.7989	232.4578	7579.25	6954.9
799.9413	234.6837	7584.3	6952.55
800.0837	236.909	7564.7	6932.55
800.2262	239.1339	7540.8	6883.8
800.3687	241.3582	7536.25	6891.85
800.5111	243.582	7526.05	6849.75
800.6536	245.8053	7551.95	6889.3
800.7961	248.0281	7525.05	6868
800.9387	250.2503	7534.35	6875.45
801.0812	252.472	7552.95	6887.55
801.2238	254.6932	7576.9	6907.8
801.3664	256.9139	7556.85	6885.6
801.509	259.134	7565.65	6891.1
801.6516	261.3536	7567	6895.7
801.7942	263.5727	7601.7	6927.25
801.9369	265.7912	7608.35	6933.25
802.0795	268.0092	7692.55	7020.65
802.2222	270.2267	7733.85	7057.95
802.3649	272.4436	7769.1	7089.6
802.5076	274.6601	7837.35	7150.8
802.6504	276.8759	7815.55	7133.4
802.7931	279.0913	7848.2	7165.1
802.9359	281.3061	7856.6	7170.2
803.0787	283.5204	7887.05	7197.65
803.2215	285.7341	7941.9	7250.65
803.3643	287.9473	7964.5	7262.4
803.5071	290.16	7951.3	7252.45
803.6499	292.3721	7909.5	7218.45
803.7928	294.5837	7880.75	7189.6
803.9357	296.7947	7806.8	7113.85
804.0786	299.0052	7767.15	7073.75
804.2215	301.2152	7720.45	7022.1
804.3644	303.4246	7746.05	7052.75
804.5074	305.6334	7736.45	7041.75
804.6503	307.8418	7699.6	7000.65
804.7933	310.0495	7722.35	7023.15
804.9363	312.2568	7664.4	6966.7
805.0793	314.4635	7595.85	6895.4
805.2223	316.6696	7537.05	6833.95
805.3653	318.8752	7473.85	6764.25
805.5084	321.0802	7437.55	6735.3
805.6514	323.2847	7428.95	6724.45
805.7945	325.4887	7409.05	6704.4
805.9376	327.692	7417.05	6708.6
806.0807	329.8949	7472.05	6762.1
806.2238	332.0972	7534.35	6823.3
806.367	334.2989	7570	6855.25
806.5101	336.5001	7574.1	6859.85
806.6533	338.7007	7549.15	6834.05
806.7965	340.9008	7513.75	6795.15
806.9397	343.1003	7452.2	6731.15
807.0829	345.2992	7383.95	6663
807.2261	347.4976	7340.3	6619.15
807.3693	349.6955	7303.75	6574.45
807.5126	351.8927	7275.1	6549.1
807.6559	354.0895	7247.25	6512.05
807.7991	356.2856	7267.8	6538.9
807.9424	358.4812	7226.45	6497.5
808.0857	360.6763	7235.55	6503.95
808.2291	362.8707	7229	6499.45
808.3724	365.0646	7235.55	6502.2
808.5158	367.258	7204.45	6470.7
808.6591	369.4508	7210.85	6471.2
808.8025	371.643	7250.55	6511.95
808.9459	373.8346	7266.9	6527.55
809.0893	376.0257	7321.1	6575.1
809.2327	378.2162	7357.5	6612.35
809.3762	380.4062	7379.95	6631.1
809.5196	382.5956	7344.85	6596.75
809.6631	384.7844	7287.1	6539.45
809.8066	386.9726	7238.3	6489.25
809.9501	389.1603	7182.55	6434.6
810.0936	391.3474	7181.95	6394.1
810.2371	393.5339	7126.85	6379.25
810.3806	395.7199	7117.35	6375
810.5241	397.9052	7137.6	6397.8
810.6677	400.09	7190.1	6449
810.8113	402.2743	7233.4	6494.3
810.9548	404.4579	7252.7	6512
811.0984	406.641	7314	6569.05
811.2421	408.8235	7324.1	6578.55
811.3857	411.0054	7378.45	6630.35
811.5293	413.1868	7488.8	6741.65
811.673	415.3675	7620.55	6870.7
811.8166	417.5477	7655.05	6902.65
811.9603	419.7273	7595.6	6840.8
812.104	421.9064	7437.5	6674.1
812.2477	424.0848	7351.3	6592.15
812.3914	426.2627	7255.1	6494.35
812.5351	428.4399	7184	6421.6
812.6788	430.6166	7121.35	6355.85
812.8226	432.7928	7063.15	6296
812.9663	434.9683	6996.05	6229.65
813.1101	437.1432	6962.1	6193.1
813.2539	439.3176	6919.15	6149.4
813.3977	441.4914	6883.15	6113.35
813.5415	443.6645	6899.15	6126.45
813.6853	445.8371	6871.95	6100.3
813.8291	448.0091	6875.05	6104.1
813.973	450.1806	6850.25	6077.05
814.1168	452.3514	6840.8	6063.85
814.2607	454.5216	6824.45	6039.15
814.4046	456.6913	6804.85	6026.55
814.5485	458.8603	6827.9	6051.95
814.6924	461.0288	6820.95	6045.65
814.8363	463.1967	6799.35	6022.4
814.9802	465.3639	6818.75	6040.8
815.1241	467.5306	6813	6034.75
815.2681	469.6967	6783.65	6003.25
815.412	471.8622	6771.35	5991.05
815.556	474.0271	6756.4	5975.25
815.7	476.1914	6760.5	5976.65
815.844	478.3551	6770.65	5990.3
815.988	480.5182	6774.2	5992.15
816.132	482.6807	6779.15	5993.45
816.276	484.8426	6807.3	6023.9
816.4201	487.0039	6841.8	6057.05
816.5641	489.1647	6898.95	6112.8
816.7082	491.3248	6968.15	6181.7
816.8522	493.4843	6960.45	6176.2
816.9963	495.6432	6957.75	6171.1
817.1404	497.8015	6921.95	6131.8
817.2845	499.9592	6885.6	6099.2
817.4286	502.1163	6820.4	6030.15
817.5727	504.2728	6771.15	5979.15
817.7168	506.4287	6748.05	5958.1
817.861	508.5839	6733.05	5944.5
818.0051	510.7386	6734	5946.1
818.1493	512.8927	6731.85	5937.5
818.2935	515.0461	6739.7	5947.15
818.4377	517.199	6763.2	5972.55
818.5818	519.3512	6774.05	5980.5
818.726	521.5029	6834.85	6036.8
818.8703	523.6539	6918.15	6123.3
819.0145	525.8043	6919.35	6122.4
819.1587	527.9541	6876.95	6080.6
819.303	530.1033	6804.8	6005.7
819.4472	532.2519	6736.75	5940.15
819.5915	534.3999	6696.6	5895.55
819.7357	536.5472	6711.55	5913.5
819.88	538.694	6700.8	5903.35
820.0243	540.8401	6719.6	5919.25
820.1686	542.9856	6743.4	5942.25
820.3129	545.1305	6771.5	5966.95
820.4572	547.2748	6782.45	5979.8
820.6016	549.4185	6807.7	6004.3
820.7459	551.5615	6788.9	5984.05
820.8902	553.704	6809.95	6006.25
821.0346	555.8458	6788.3	5985.75
821.1789	557.987	6828.05	6023.1
821.3233	560.1276	6826.45	6020.7
821.4677	562.2675	6919.9	6116.55
821.6121	564.4069	7010.1	6204.75
821.7565	566.5456	7056.8	6250.5
821.9009	568.6837	7048.75	6242.95
822.0453	570.8212	6942.6	6137.8
822.1897	572.958	6831.25	6022.65
822.3342	575.0942	6767.95	5962.2
822.4786	577.2299	6730.75	5922.45
822.6231	579.3648	6702	5893.15
822.7675	581.4992	6643.1	5835.1
822.912	583.6329	6635.6	5828.55
823.0565	585.766	6636.8	5827.25
823.201	587.8985	6692.85	5885.2
823.3454	590.0304	6730.6	5908.75
823.4899	592.1616	6771.4	5959.2
823.6345	594.2922	6777.9	5965.55
823.779	596.4222	6751.9	5938.65
823.9235	598.5515	6689.2	5876.2
824.068	600.6802	6604.7	5791.2
824.2126	602.8083	6535.1	5719.75
824.3571	604.9358	6526.05	5706.8
824.5017	607.0626	6491.25	5676.2
824.6462	609.1888	6507.2	5690.7
824.7908	611.3144	6518.8	5701.55
824.9354	613.4393	6548	5731.4
825.08	615.5636	6595.5	5777.35
825.2246	617.6873	6648.25	5830.75
825.3692	619.8103	6720	5901.05
825.5138	621.9327	6728.85	5906.35
825.6584	624.0544	6682.3	5865
825.803	626.1756	6636.2	5820.15
825.9477	628.2961	6568.55	5749.05
826.0923	630.4159	6532.45	5711.7
826.237	632.5351	6510.8	5692.05
826.3816	634.6537	6492.05	5669.45
826.5263	636.7716	6504.5	5681.6
826.6709	638.8889	6482.7	5659.6
826.8156	641.0056	6499.7	5678.05
826.9603	643.1216	6498	5675.05
827.105	645.237	6549.55	5723.25
827.2497	647.3518	6507.4	5681.2
827.3944	649.4659	6484.95	5661.35
827.5391	651.5793	6444.9	5618.95
827.6838	653.6922	6420.15	5595.95
827.8285	655.8043	6397.35	5571.45
827.9733	657.9159	6385.5	5560.05
828.118	660.0268	6355.1	5527.15
828.2627	662.137	6337.4	5511.05
828.4075	664.2466	6347.85	5517.8
828.5522	666.3556	6369.4	5542
828.697	668.4639	6350.9	5520.3
828.8418	670.5716	6331.7	5504.15
828.9865	672.6786	6318.8	5487.95
829.1313	674.785	6296.2	5464.55
829.2761	676.8907	6289.85	5459.05
829.4209	678.9958	6282.7	5452.6
829.5657	681.1002	6285.7	5455.2
829.7105	683.204	6295.85	5461.75
829.8553	685.3072	6272.25	5438.9
830.0001	687.4097	6249	5416.5
830.1449	689.5115	6270.65	5436.25
830.2898	691.6127	6275.85	5443.15
830.4346	693.7132	6260.25	5427.15
830.5794	695.8131	6272.6	5429.9
830.7243	697.9123	6249.8	5412.65
830.8691	700.0109	6270.05	5435.95
831.014	702.1089	6257.75	5424
831.1588	704.2061	6271.35	5437.4
831.3037	706.3028	6293.6	5455.4
831.4486	708.3987	6313.3	5476.05
831.5935	710.4941	6314.6	5480.5
831.7383	712.5887	6345.45	5508.4
831.8832	714.6827	6336.1	5492.9
832.0281	716.7761	6318.4	5483
832.173	718.8688	6312.1	5473.95
832.3179	720.9608	6312.85	5470.55
832.4628	723.0522	6310.45	5468.85
832.6077	725.1429	6306.5	5468.5
832.7527	727.233	6338	5501.45
832.8976	729.3224	6393.75	5555.6
833.0425	731.4112	6450.3	5610.45
833.1874	733.4993	6471.6	5629.95
833.3324	735.5867	6449.4	5609.05
833.4773	737.6735	6378.5	5536.5
833.6222	739.7596	6274.3	5432.3
833.7672	741.845	6252.1	5411.85
833.9122	743.9298	6239.15	5395.25
834.0571	746.014	6225.2	5382.15
834.2021	748.0974	6261.9	5417.5
834.347	750.1802	6257.7	5412.45
834.492	752.2624	6247.4	5404.9
834.637	754.3439	6213.75	5368.55
834.782	756.4247	6176.45	5323
834.9269	758.5048	6140.3	5297.6
835.0719	760.5843	6152.8	5307.9
835.2169	762.6631	6163.4	5319.3
835.3619	764.7413	6198.95	5353.8
835.5069	766.8188	6297.2	5450.45
835.6519	768.8956	6345.3	5496.65
835.7969	770.9718	6414.25	5567.05
835.9419	773.0473	6394.15	5548.5
836.0869	775.1221	6346.8	5501.95
836.232	777.1962	6325.05	5478.9
836.377	779.2697	6351.4	5505.1
836.522	781.3426	6464.85	5599.3
836.667	783.4147	6552.75	5704.3
836.8121	785.4862	6577	5730.8
836.9571	787.557	6472.65	5624.45
837.1021	789.6271	6341.15	5492.8
837.2472	791.6966	6194.95	5347.65
837.3922	793.7654	6067.2	5216.9
837.5373	795.8335	5983.9	5135.2
837.6823	797.901	5942.7	5095.5
837.8274	799.9678	5904.5	5052.65
837.9724	802.0339	5885.45	5037.1
838.1175	804.0993	5902.75	5045.95
838.2626	806.1641	5883.2	5031.5
838.4076	808.2282	5858.65	5007.25
838.5527	810.2916	5844.25	4993.35
838.6978	812.3544	5816.55	4967.5
838.8428	814.4164	5788.2	4940.15
838.9879	816.4778	5786.75	4936.35
839.133	818.5385	5784.3	4934.2
839.2781	820.5986	5835	4982.75
839.4232	822.658	5869.45	5016.2
839.5682	824.7166	5914.55	5062.5
839.7133	826.7747	6039.7	5190.05
839.8584	828.832	6082.15	5230.25
840.0035	830.8886	6131.6	5276.2
840.1486	832.9446	6179.6	5326.3
840.2937	834.9999	6159.5	5307.7
840.4388	837.0545	6110.25	5255.55
840.5839	839.1085	5982.75	5129.75
840.729	841.1618	5891.65	5033.3
840.8741	843.2143	5813.45	4960.4
841.0192	845.2662	5740.5	4885.1
841.1643	847.3175	5747.75	4897.3
841.3095	849.368	5687.8	4833.4
841.4546	851.4179	5686.15	4832.5
841.5997	853.467	5665.05	4810.2
841.7448	855.5155	5682.2	4826.4
841.8899	857.5633	5677.2	4823.45
842.0351	859.6105	5651.1	4794.8
842.1802	861.6569	5637.65	4782.95
842.3253	863.7027	5615.65	4759.7
842.4704	865.7478	5599.35	4743.05
842.6156	867.7922	5594.2	4738.7
842.7607	869.8359	5566.55	4708.4
842.9058	871.8789	5560.6	4704.7
843.0509	873.9212	5578.8	4692.35
843.1961	875.9629	5531.3	4674.55
843.3412	878.0039	5561.25	4704
843.4863	880.0441	5540.45	4683
843.6315	882.0837	5576.5	4718.75
843.7766	884.1226	5561.45	4704.55
843.9218	886.1609	5605.25	4749.45
844.0669	888.1984	5646.15	4790.55
844.212	890.2352	5709.65	4853.45
844.3572	892.2714	5715.3	4852.8
844.5023	894.3069	5685.2	4826
844.6475	896.3416	5607.4	4750.15
844.7926	898.3757	5545.45	4687.1
844.9377	900.4091	5509.35	4651.4
845.0829	902.4418	5513.5	4650.65
845.228	904.4739	5501.35	4639.75
845.3732	906.5052	5530.05	4669.45
845.5183	908.5358	5537.65	4678.65
845.6635	910.5658	5517	4655.9
845.8086	912.595	5469.4	4611.25
845.9538	914.6236	5420.8	4562.15
846.0989	916.6515	5375.55	4514
846.2441	918.6786	5345.5	4484.6
846.3892	920.7051	5337.1	4474.85
846.5344	922.7309	5334.8	4473
846.6795	924.756	5304.9	4445.1
846.8246	926.7804	5298	4433.45
846.9698	928.8041	5275.15	4411.75
847.1149	930.8272	5307.15	4444.65
847.2601	932.8495	5303.7	4438.35
847.4052	934.8711	5303.95	4440.6
847.5504	936.892	5295.35	4434.3
847.6955	938.9123	5305.6	4442
847.8407	940.9318	5315.9	4454.2
847.9858	942.9506	5336.4	4473.6
848.131	944.9688	5315.7	4451.9
848.2761	946.9862	5282.5	4417.7
848.4213	949.003	5229.4	4364.6
848.5664	951.019	5200.4	4336.6
848.7115	953.0344	5163.1	4299.35
848.8567	955.0491	5134.95	4270.75
849.0018	957.063	5117.2	4251.9
849.147	959.0763	5144.05	4273.7
849.2921	961.0888	5110.3	4243.5
849.4373	963.1007	5093.5	4227.7
849.5824	965.1119	5076.4	4213.4
849.7275	967.1223	5060.7	4196.85
849.8727	969.1321	5040.3	4176.65
850.0178	971.1412	5035.3	4171.6
850.1629	973.1495	5013.1	4148.9
850.3081	975.1572	5040.95	4129.05
850.4532	977.1641	5014.55	4148.3
850.5983	979.1704	5008.3	4142.25
850.7435	981.1759	4985.35	4115.1
850.8886	983.1808	4973.75	4106.4
851.0337	985.1849	4969.2	4092.35
851.1788	987.1884	4935.95	4068.15
851.324	989.1911	4939.1	4068.6
851.4691	991.1932	4932.55	4064.25
851.6142	993.1945	4933.2	4067.45
851.7593	995.1951	4907.75	4039.5
851.9045	997.1951	4888.05	4014.5
852.0496	999.1943	4874.6	4008.7
852.1947	1001.1928	4853.85	3985.8
852.3398	1003.1906	4840.65	3972.3
852.4849	1005.1877	4863.2	3993.25
852.63	1007.1841	4878	4007.85
852.7751	1009.1798	4879.85	4013.15
852.9202	1011.1748	4861.85	3995.05
853.0653	1013.1691	4821.75	3952.6
853.2104	1015.1627	4785.35	3918.2
853.3555	1017.1556	4729	3859.5
853.5006	1019.1477	4694.2	3823.15
853.6457	1021.1392	4658.25	3790.45
853.7908	1023.1299	4631.4	3763.2
853.9359	1025.12	4621.65	3751.35
854.081	1027.1093	4612.65	3744.9
854.2261	1029.0979	4608.6	3741.6
854.3712	1031.0859	4616.35	3748.75
854.5163	1033.0731	4636.45	3767.05
854.6613	1035.0596	4632.15	3763.65
854.8064	1037.0454	4621.85	3751.3
854.9515	1039.0304	4608.85	3740.8
855.0965	1041.0148	4538.55	3669.35
855.2416	1042.9985	4509.05	3639.65
855.3867	1044.9814	4484.4	3615.2
855.5317	1046.9636	4465.8	3593.1
855.6768	1048.9452	4461.55	3593
855.8219	1050.926	4454.25	3585.15
855.9669	1052.9061	4472.9	3605.5
856.112	1054.8855	4478.3	3608.45
856.257	1056.8642	4479.45	3610
856.4021	1058.8421	4465.6	3588.75
856.5471	1060.8194	4455.7	3584.35
856.6921	1062.7959	4435.85	3566.05
856.8372	1064.7717	4446.25	3573.65
856.9822	1066.7469	4426	3554.15
857.1272	1068.7213	4406.15	3533.6
857.2723	1070.695	4428.4	3558
857.4173	1072.6679	4439.45	3565.1
857.5623	1074.6402	4447.6	3577.9
857.7073	1076.6117	4464.9	3587.5
857.8523	1078.5826	4443.1	3571.55
857.9973	1080.5527	4408.15	3535.25
858.1423	1082.5221	4336.7	3464.65
858.2873	1084.4908	4304.65	3430.6
858.4323	1086.4587	4276.9	3404.3
858.5773	1088.426	4267.05	3393.45
858.7223	1090.3925	4233.05	3357.15
858.8673	1092.3584	4221.15	3347.9
859.0123	1094.3235	4227.85	3354.35
859.1573	1096.2879	4248.8	3375.35
859.3022	1098.2515	4250.7	3377.85
859.4472	1100.2145	4273.1	3400.35
859.5922	1102.1767	4293.1	3416.5
859.7371	1104.1382	4319.6	3443.95
859.8821	1106.099	4385.95	3510.8
860.027	1108.0591	4434.85	3562.4
860.172	1110.0185	4472	3596
860.3169	1111.9771	4495.4	3622.6
860.4619	1113.9351	4522.3	3646.95
860.6068	1115.8923	4590.55	3715.95
860.7517	1117.8488	4654.5	3781.4
860.8967	1119.8045	4619.6	3747.25
861.0416	1121.7596	4512.35	3637.5
861.1865	1123.7139	4376.25	3501.8
861.3314	1125.6675	4285.45	3411.15
861.4763	1127.6204	4263.4	3390.9
861.6212	1129.5726	4269.75	3391.6
861.7661	1131.524	4296.9	3424.2
861.911	1133.4748	4242.45	3369.75
862.0559	1135.4248	4183.85	3307.6
862.2008	1137.3741	4109.9	3236.05
862.3457	1139.3226	4065.1	3190.4
862.4905	1141.2705	4051.75	3174.85
862.6354	1143.2176	4032.85	3152.2
862.7803	1145.164	4055.1	3178.15
862.9251	1147.1097	4045.7	3169.8
863.07	1149.0546	4034.3	3156.5
863.2148	1150.9989	4013.95	3139.05
863.3597	1152.9424	3973.1	3097.25
863.5045	1154.8852	3949.8	3074.3
863.6493	1156.8272	3944.15	3070.85
863.7942	1158.7686	3944.85	3064.25
863.939	1160.7092	3915	3037.45
864.0838	1162.6491	3910.5	3031.8
864.2286	1164.5883	3900.45	3024
864.3734	1166.5267	3915.55	3038.75
864.5182	1168.4644	3944.65	3069.45
864.663	1170.4014	3970.4	3090.1
864.8078	1172.3377	3993.95	3120.85
864.9526	1174.2732	4044.55	3169.65
865.0974	1176.2081	4119.3	3245.25
865.2421	1178.1421	4226.9	3349.05
865.3869	1180.0755	4380.2	3503.7
865.5317	1182.0082	4480.65	3603.45
865.6764	1183.9401	4482.3	3604.2
865.8212	1185.8713	4401.9	3524.15
865.9659	1187.8017	4268.6	3391.25
866.1106	1189.7315	4123.2	3249.6
866.2554	1191.6605	4037.6	3133.2
866.4001	1193.5888	3922.15	3046.9
866.5448	1195.5163	3906.4	3028.65
866.6895	1197.4432	3850.7	2972.2
866.8342	1199.3693	3813.05	2937.5
866.9789	1201.2947	3796.1	2911
867.1236	1203.2193	3771.15	2895.55
867.2683	1205.1432	3755.85	2876.75
867.413	1207.0664	3737.15	2860.55
867.5576	1208.9889	3743.5	2863.1
867.7023	1210.9106	3716.25	2838.25
867.847	1212.8316	3708.25	2832.6
867.9916	1214.7519	3716.35	2829.65
868.1363	1216.6715	3723.95	2847.65
868.2809	1218.5903	3742.2	2866.1
868.4255	1220.5084	3734.45	2855.1
868.5701	1222.4257	3759.3	2880.35
868.7148	1224.3424	3744.9	2868.05
868.8594	1226.2583	3762.95	2878.7
869.004	1228.1735	3777.45	2899.8
869.1486	1230.0879	3799.9	2920
869.2932	1232.0016	3831.7	2952.9
869.4377	1233.9146	3865.75	2985.65
869.5823	1235.8269	3869.65	2992.7
869.7269	1237.7384	3876.55	2999.3
869.8715	1239.6492	3866.2	2987.55
