Software Version:	3.9.2.0
Unit SN:	10000200
Spectrometer SN:	6960
Date:	3/26/2024 2:16:46 PM
Data Line Index:	25
Spectral Points:	2048
Integration time (ms):	125
Averages:	20
Delay (ms):	30000
Sequence Number:	1
Processing:	dark subtract
Laser Power (mW):	305
Laser Current (mA):	820
Laser Diode Temp (C):	25
Laser Case Temp (C):	27.5
System Temp (C):	27.6
Spectrometer Temp (C):	25.5
CCD Temp (C):	0.004
Secondary Temp (C):	20.004
Heatsink Temp (C):	23.079
CCDPCB Temp (C):	36.985
SecondaryPCB Temp (C):	34.606

Wavelength	RamanShift	Raw Counts	Dark Subtracted
787.061	30.1047	669.25	259.35
787.2016	32.3739	676.65	267.05
787.3422	34.6426	697.5	287.15
787.4828	36.9109	716.4	300.7
787.6235	39.1787	738.05	321.7
787.7642	41.4461	769.35	347
787.9049	43.7131	796.5	372.5
788.0456	45.9796	819.9	392.9
788.1863	48.2456	849.3	419
788.3271	50.5112	884.65	450.7
788.4679	52.7764	907.6	469.85
788.6087	55.0411	932.55	490.9
788.7496	57.3054	972.3	523.9
788.8904	59.5692	1000.05	551.5
789.0313	61.8326	1053	599.4
789.1722	64.0955	1096.5	639.8
789.3132	66.3579	1149.15	687.95
789.4541	68.6199	1204.8	740.4
789.5951	70.8815	1314.3	848.05
789.7361	73.1426	1527.65	1057.6
789.8771	75.4032	2079.6	1601.4
790.0181	77.6634	3466.45	2982.45
790.1592	79.9231	6924.85	6430.45
790.3003	82.1824	14934.65	14421.6
790.4414	84.4412	35355.1	34807.7
790.5825	86.6995	63076.75	62479.4
790.7237	88.9574	65535	64892.6
790.8648	91.2148	65535	64861.15
791.006	93.4717	65535	64842.85
791.1472	95.7282	65535	64829
791.2885	97.9842	65535	64823.75
791.4297	100.2398	65535	64824.55
791.571	102.4949	65535	64818.15
791.7123	104.7495	65535	64819.35
791.8536	107.0036	65535	64812.85
791.9949	109.2573	65535	64810.55
792.1363	111.5105	65535	64812.95
792.2777	113.7632	65535	64811.55
792.4191	116.0154	65535	64799.2
792.5605	118.2672	65535	64805.95
792.7019	120.5185	65535	64807.15
792.8434	122.7693	65535	64801.25
792.9849	125.0197	65535	64804.4
793.1264	127.2696	65535	64798.8
793.2679	129.519	65535	64792.45
793.4094	131.7679	65535	64788.4
793.551	134.0163	65535	64785.7
793.6926	136.2642	65535	64778.35
793.8342	138.5117	65535	64773.95
793.9758	140.7587	65535	64772.3
794.1175	143.0052	65535	64775.65
794.2591	145.2512	65535	64778.5
794.4008	147.4967	65535	64780.25
794.5425	149.7417	65535	64771.9
794.6842	151.9863	65535	64772.15
794.826	154.2304	65535	64760.45
794.9677	156.4739	65535	64766.55
795.1095	158.717	65535	64762.05
795.2513	160.9596	65535	64758.4
795.3931	163.2017	65535	64755.3
795.535	165.4433	65535	64754.7
795.6768	167.6844	65535	64754.65
795.8187	169.925	65535	64747.3
795.9606	172.1651	65535	64750
796.1025	174.4047	65535	64744.05
796.2445	176.6439	65535	64744.35
796.3864	178.8825	65535	64745.65
796.5284	181.1206	65535	64734.75
796.6704	183.3582	65535	64732.55
796.8124	185.5954	65535	64730.1
796.9544	187.832	65535	64729.95
797.0965	190.0681	65535	64721.75
797.2386	192.3037	65535	64724.9
797.3806	194.5388	65535	64721.9
797.5228	196.7734	65535	64716.2
797.6649	199.0075	65535	64710.35
797.807	201.2411	65535	64711.45
797.9492	203.4742	65535	64711
798.0914	205.7068	65535	64703.2
798.2336	207.9389	65535	64708.45
798.3758	210.1704	65535	64706.55
798.518	212.4015	65535	64706.05
798.6603	214.632	65535	64701.5
798.8025	216.862	65535	64708.3
798.9448	219.0915	65535	64718.95
799.0871	221.3205	65535	64721.1
799.2294	223.549	65535	64724.1
799.3718	225.777	65535	64724.25
799.5141	228.0044	65535	64718.7
799.6565	230.2314	65535	64721.4
799.7989	232.4578	65535	64723.15
799.9413	234.6837	65535	64717.9
800.0837	236.909	65535	64716.85
800.2262	239.1339	65535	64689.2
800.3687	241.3582	65535	64701.55
800.5111	243.582	65535	64675
800.6536	245.8053	65535	64682.4
800.7961	248.0281	65535	64690.65
800.9387	250.2503	65535	64686.5
801.0812	252.472	65535	64677.05
801.2238	254.6932	65535	64684.6
801.3664	256.9139	65535	64681.8
801.509	259.134	65535	64671.9
801.6516	261.3536	65535	64678.5
801.7942	263.5727	65535	64670.4
801.9369	265.7912	65535	64674
802.0795	268.0092	65535	64675.2
802.2222	270.2267	65535	64676.75
802.3649	272.4436	65535	64677.7
802.5076	274.6601	65535	64670.8
802.6504	276.8759	65535	64673.15
802.7931	279.0913	65535	64670.6
802.9359	281.3061	65535	64663.7
803.0787	283.5204	65535	64664.25
803.2215	285.7341	65535	64662.2
803.3643	287.9473	65535	64650.3
803.5071	290.16	65535	64658.3
803.6499	292.3721	65535	64664.05
803.7928	294.5837	65535	64660.15
803.9357	296.7947	65535	64656.6
804.0786	299.0052	65535	64662.8
804.2215	301.2152	65535	64658.45
804.3644	303.4246	65535	64666.05
804.5074	305.6334	65535	64662.7
804.6503	307.8418	65535	64656.05
804.7933	310.0495	65535	64656.2
804.9363	312.2568	65535	64652.75
805.0793	314.4635	65535	64655.15
805.2223	316.6696	65535	64651.05
805.3653	318.8752	65535	64648.2
805.5084	321.0802	65535	64655.15
805.6514	323.2847	65535	64649.35
805.7945	325.4887	65535	64647.5
805.9376	327.692	65535	64647.25
806.0807	329.8949	65535	64649.1
806.2238	332.0972	65535	64645.4
806.367	334.2989	65535	64642.75
806.5101	336.5001	65535	64642.8
806.6533	338.7007	65535	64640.65
806.7965	340.9008	65535	64641.4
806.9397	343.1003	65535	64642.1
807.0829	345.2992	65535	64638.3
807.2261	347.4976	65535	64635.4
807.3693	349.6955	65535	64633.35
807.5126	351.8927	65535	64635.05
807.6559	354.0895	65535	64619.6
807.7991	356.2856	65535	64632.15
807.9424	358.4812	65535	64635.8
808.0857	360.6763	65535	64634.3
808.2291	362.8707	65535	64630.5
808.3724	365.0646	65535	64627.75
808.5158	367.258	65535	64627.1
808.6591	369.4508	65535	64626
808.8025	371.643	65535	64619.05
808.9459	373.8346	65535	64620.4
809.0893	376.0257	65535	64619.75
809.2327	378.2162	65535	64624.95
809.3762	380.4062	65535	64618.35
809.5196	382.5956	65535	64620.4
809.6631	384.7844	65535	64625.2
809.8066	386.9726	65535	64621.45
809.9501	389.1603	65535	64620.5
810.0936	391.3474	65535	64587.25
810.2371	393.5339	65535	64621.1
810.3806	395.7199	65535	64627.05
810.5241	397.9052	65535	64627.1
810.6677	400.09	65535	64626.1
810.8113	402.2743	65535	64628.65
810.9548	404.4579	65535	64628.75
811.0984	406.641	65535	64629.35
811.2421	408.8235	65535	64629.25
811.3857	411.0054	65535	64630.65
811.5293	413.1868	65535	64624.25
811.673	415.3675	65535	64623.55
811.8166	417.5477	65535	64624.1
811.9603	419.7273	65535	64616.95
812.104	421.9064	65535	64611.85
812.2477	424.0848	65535	64616.95
812.3914	426.2627	65535	64616.85
812.5351	428.4399	65535	64616.4
812.6788	430.6166	65535	64608.3
812.8226	432.7928	65535	64611.8
812.9663	434.9683	65535	64615.8
813.1101	437.1432	65535	64618.55
813.2539	439.3176	65535	64618.15
813.3977	441.4914	65535	64622.4
813.5415	443.6645	65535	64620.25
813.6853	445.8371	65535	64617.9
813.8291	448.0091	65535	64613.7
813.973	450.1806	65535	64620.1
814.1168	452.3514	65535	64618.85
814.2607	454.5216	65535	64609.7
814.4046	456.6913	65535	64613.45
814.5485	458.8603	65535	64616.5
814.6924	461.0288	65535	64619.45
814.8363	463.1967	65535	64622.2
814.9802	465.3639	65535	64618.05
815.1241	467.5306	65535	64620.95
815.2681	469.6967	65535	64620.85
815.412	471.8622	65535	64623.5
815.556	474.0271	65535	64620.6
815.7	476.1914	65535	64613.15
815.844	478.3551	65535	64613.15
815.988	480.5182	65535	64615.35
816.132	482.6807	65535	64621.35
816.276	484.8426	65535	64632.05
816.4201	487.0039	65535	64620
816.5641	489.1647	65535	64615.3
816.7082	491.3248	65535	64612.95
816.8522	493.4843	65535	64624.9
816.9963	495.6432	65535	64618.1
817.1404	497.8015	65535	64609.65
817.2845	499.9592	65535	64605.7
817.4286	502.1163	65535	64605.1
817.5727	504.2728	65535	64613
817.7168	506.4287	65535	64624.9
817.861	508.5839	65535	64622.8
818.0051	510.7386	65535	64620
818.1493	512.8927	65535	64606.35
818.2935	515.0461	65535	64610.9
818.4377	517.199	65535	64604.75
818.5818	519.3512	65535	64605.65
818.726	521.5029	65535	64603.9
818.8703	523.6539	65535	64609.5
819.0145	525.8043	65535	64610.6
819.1587	527.9541	65535	64601.45
819.303	530.1033	65535	64609.9
819.4472	532.2519	65535	64606.75
819.5915	534.3999	65535	64602.95
819.7357	536.5472	65535	64610.55
819.88	538.694	65535	64613.85
820.0243	540.8401	65535	64603.85
820.1686	542.9856	65535	64598.05
820.3129	545.1305	65535	64590.5
820.4572	547.2748	65535	64584.15
820.6016	549.4185	65535	64586.2
820.7459	551.5615	65535	64587.85
820.8902	553.704	65535	64591.55
821.0346	555.8458	65535	64594
821.1789	557.987	65535	64593.2
821.3233	560.1276	65535	64594.1
821.4677	562.2675	65535	64594.3
821.6121	564.4069	65535	64594.25
821.7565	566.5456	65535	64595.55
821.9009	568.6837	65535	64598.95
822.0453	570.8212	65535	64597
822.1897	572.958	65535	64597.85
822.3342	575.0942	65535	64602.1
822.4786	577.2299	65535	64609.8
822.6231	579.3648	65535	64619.2
822.7675	581.4992	65535	64627.2
822.912	583.6329	65535	64626.6
823.0565	585.766	65535	64622.5
823.201	587.8985	65535	64616.45
823.3454	590.0304	65535	64597.75
823.4899	592.1616	65535	64595.65
823.6345	594.2922	65535	64596.25
823.779	596.4222	65535	64588.15
823.9235	598.5515	65535	64593.95
824.068	600.6802	65535	64592.45
824.2126	602.8083	65535	64595.95
824.3571	604.9358	65535	64593.5
824.5017	607.0626	65535	64588.75
824.6462	609.1888	65535	64584.5
824.7908	611.3144	65535	64583.25
824.9354	613.4393	65535	64590.3
825.08	615.5636	65535	64588.95
825.2246	617.6873	65535	64590.1
825.3692	619.8103	65535	64588.8
825.5138	621.9327	65535	64590.75
825.6584	624.0544	65535	64594.65
825.803	626.1756	65535	64596
825.9477	628.2961	65535	64589.5
826.0923	630.4159	65535	64591.1
826.237	632.5351	65535	64587.65
826.3816	634.6537	65535	64590.75
826.5263	636.7716	65535	64581.45
826.6709	638.8889	65535	64578.65
826.8156	641.0056	65535	64583.05
826.9603	643.1216	65535	64584.75
827.105	645.237	65535	64582.75
827.2497	647.3518	65535	64596.5
827.3944	649.4659	65535	64599.5
827.5391	651.5793	65535	64597.15
827.6838	653.6922	65535	64595.15
827.8285	655.8043	65535	64590.5
827.9733	657.9159	65535	64588.75
828.118	660.0268	65535	64591.35
828.2627	662.137	65535	64587.2
828.4075	664.2466	65535	64583.15
828.5522	666.3556	65535	64590.1
828.697	668.4639	65535	64591.75
828.8418	670.5716	65535	64600.4
828.9865	672.6786	65535	64589.5
829.1313	674.785	65535	64581.65
829.2761	676.8907	65535	64588.35
829.4209	678.9958	65535	64592.6
829.5657	681.1002	65535	64586.95
829.7105	683.204	65535	64579.25
829.8553	685.3072	65535	64580
830.0001	687.4097	65535	64578.65
830.1449	689.5115	65535	64584.6
830.2898	691.6127	65535	64585.5
830.4346	693.7132	65535	64591.65
830.5794	695.8131	65535	64563.2
830.7243	697.9123	65535	64572.8
830.8691	700.0109	65535	64576.6
831.014	702.1089	65535	64584.3
831.1588	704.2061	65535	64579.55
831.3037	706.3028	65535	64580.15
831.4486	708.3987	65535	64578.75
831.5935	710.4941	65535	64580.8
831.7383	712.5887	65535	64583.15
831.8832	714.6827	65535	64581.85
832.0281	716.7761	65535	64588.3
832.173	718.8688	65535	64583.45
832.3179	720.9608	65535	64579.6
832.4628	723.0522	65535	64574.25
832.6077	725.1429	65535	64578.3
832.7527	727.233	65535	64581.25
832.8976	729.3224	65535	64581
833.0425	731.4112	65535	64580.3
833.1874	733.4993	65535	64577.15
833.3324	735.5867	65535	64582.15
833.4773	737.6735	65535	64583.65
833.6222	739.7596	65535	64578.1
833.7672	741.845	65535	64579.4
833.9122	743.9298	65535	64578.3
834.0571	746.014	65535	64579.1
834.2021	748.0974	65535	64575.3
834.347	750.1802	65535	64575.85
834.492	752.2624	65535	64570.15
834.637	754.3439	65535	64572.45
834.782	756.4247	65535	64566.4
834.9269	758.5048	65535	64574.1
835.0719	760.5843	65535	64572.15
835.2169	762.6631	65535	64575
835.3619	764.7413	65535	64574.6
835.5069	766.8188	65535	64578.7
835.6519	768.8956	65535	64575.2
835.7969	770.9718	65535	64577.55
835.9419	773.0473	65535	64575.55
836.0869	775.1221	65535	64578.7
836.232	777.1962	65535	64576.1
836.377	779.2697	65535	64572.1
836.522	781.3426	65535	64553.3
836.667	783.4147	65535	64572.3
836.8121	785.4862	65535	64575.4
836.9571	787.557	65535	64572.55
837.1021	789.6271	65535	64569.35
837.2472	791.6966	65535	64572.9
837.3922	793.7654	65535	64573.15
837.5373	795.8335	65535	64574.35
837.6823	797.901	65535	64573.85
837.8274	799.9678	65535	64573.1
837.9724	802.0339	65535	64571.35
838.1175	804.0993	65535	64560.8
838.2626	806.1641	65535	64573.05
838.4076	808.2282	65535	64574.6
838.5527	810.2916	65535	64570.85
838.6978	812.3544	65535	64575.3
838.8428	814.4164	65535	64573.1
838.9879	816.4778	65535	64569.3
839.133	818.5385	65535	64569.45
839.2781	820.5986	65535	64572.15
839.4232	822.658	65535	64573.55
839.5682	824.7166	65535	64570.75
839.7133	826.7747	65535	64575.6
839.8584	828.832	65535	64568.15
840.0035	830.8886	65535	64570.95
840.1486	832.9446	65535	64567.8
840.2937	834.9999	65535	64576
840.4388	837.0545	65535	64568.2
840.5839	839.1085	65535	64573.1
840.729	841.1618	65535	64569.5
840.8741	843.2143	65535	64569.2
841.0192	845.2662	65535	64571.8
841.1643	847.3175	65535	64571.3
841.3095	849.368	65535	64570.75
841.4546	851.4179	65535	64567.35
841.5997	853.467	65535	64571.75
841.7448	855.5155	65535	64572
841.8899	857.5633	65534.85	64570.1
842.0351	859.6105	65531.7	64566.5
842.1802	861.6569	65535	64575.1
842.3253	863.7027	65526.25	64558.55
842.4704	865.7478	65526.05	64559.05
842.6156	867.7922	65527.1	64563.5
842.7607	869.8359	65533.7	64566.85
842.9058	871.8789	65521.35	64555
843.0509	873.9212	65528.35	64531.3
843.1961	875.9629	65533.1	64567.4
843.3412	878.0039	65525.9	64558.7
843.4863	880.0441	65525.5	64561.65
843.6315	882.0837	65525.25	64562.15
843.7766	884.1226	65521.5	64557.65
843.9218	886.1609	65518.5	64556.15
844.0669	888.1984	65495.2	64529.95
844.212	890.2352	65519.65	64553
844.3572	892.2714	65479.9	64507.7
844.5023	894.3069	65502.2	64532.35
844.6475	896.3416	65470.15	64503.85
844.7926	898.3757	65471.75	64507.2
844.9377	900.4091	65364.55	64399.85
845.0829	902.4418	65502.6	64533.45
845.228	904.4739	65441.55	64474.55
845.3732	906.5052	65445.75	64478.5
845.5183	908.5358	65394	64428.2
845.6635	910.5658	65355.75	64387.1
845.8086	912.595	65368.05	64399.05
845.9538	914.6236	65144.55	64176
846.0989	916.6515	65420.05	64454.55
846.2441	918.6786	65116.85	64145.95
846.3892	920.7051	65235.65	64266.75
846.5344	922.7309	65185.85	64216.65
846.6795	924.756	65233	64269.6
846.8246	926.7804	65141.05	64172.5
846.9698	928.8041	64775.15	63807.1
847.1149	930.8272	65043.15	64075.85
847.2601	932.8495	65035.8	64067.65
847.4052	934.8711	64781.1	63810.95
847.5504	936.892	64539.95	63571.65
847.6955	938.9123	64719.35	63752.6
847.8407	940.9318	64488.35	63523.05
847.9858	942.9506	64433.9	63469.9
848.131	944.9688	64490.65	63522.15
848.2761	946.9862	63893.45	62923.95
848.4213	949.003	64198.25	63231.05
848.5664	951.019	63597.3	62632.45
848.7115	953.0344	63739.8	62774.6
848.8567	955.0491	63617.05	62651.7
849.0018	957.063	63900.45	62933.55
849.147	959.0763	63937.95	62966.2
849.2921	961.0888	63461.05	62496.1
849.4373	963.1007	63824.7	62860.25
849.5824	965.1119	63824.95	62868.05
849.7275	967.1223	63396.15	62448.4
849.8727	969.1321	63904.75	62954.25
850.0178	971.1412	63236.4	62278.3
850.1629	973.1495	62946.2	61981.4
850.3081	975.1572	63332.45	62312.4
850.4532	977.1641	63011.15	62042.8
850.5983	979.1704	62978.5	62011.95
850.7435	981.1759	63020.05	62045.2
850.8886	983.1808	62556.15	61589.4
851.0337	985.1849	62605.1	61625.4
851.1788	987.1884	62816	61849.95
851.324	989.1911	63227.75	62266
851.4691	991.1932	62076.5	61112.4
851.6142	993.1945	62374.95	61414.55
851.7593	995.1951	62694.25	61731.3
851.9045	997.1951	61990.15	61019.5
852.0496	999.1943	61814.65	60847.05
852.1947	1001.1928	61552	60585.05
852.3398	1003.1906	61713.55	60749.05
852.4849	1005.1877	60828.25	59864.7
852.63	1007.1841	60553.2	59593
852.7751	1009.1798	60596.05	59632.85
852.9202	1011.1748	60471.9	59509.2
853.0653	1013.1691	60210.9	59249.3
853.2104	1015.1627	58729.8	57764.6
853.3555	1017.1556	59132.3	58172.9
853.5006	1019.1477	59380.85	58421.95
853.6457	1021.1392	58670.4	57714
853.7908	1023.1299	57809.35	56857.45
853.9359	1025.12	58305.25	57361.9
854.081	1027.1093	57779.1	56844.6
854.2261	1029.0979	57733.45	56800.95
854.3712	1031.0859	57623.8	56683.2
854.5163	1033.0731	56915.05	55963.4
854.6613	1035.0596	57085	56131.3
854.8064	1037.0454	56836.05	55879.55
854.9515	1039.0304	56300.8	55344
855.0965	1041.0148	55568.4	54611.85
855.2416	1042.9985	55630.9	54670.05
855.3867	1044.9814	55919.4	54963.1
855.5317	1046.9636	55193.65	54232.2
855.6768	1048.9452	55119.55	54161.75
855.8219	1050.926	55039.15	54083.8
855.9669	1052.9061	54866.85	53908.1
856.112	1054.8855	54845.5	53883.15
856.257	1056.8642	54409.15	53451.6
856.4021	1058.8421	54203.05	53239.7
856.5471	1060.8194	54153.95	53192.8
856.6921	1062.7959	53973.05	53010.85
856.8372	1064.7717	54125	53165.65
856.9822	1066.7469	53831.3	52869.9
857.1272	1068.7213	53730.25	52768.6
857.2723	1070.695	53395.4	52438.7
857.4173	1072.6679	52948.25	51987.55
857.5623	1074.6402	53004.2	52041.95
857.7073	1076.6117	52795.5	51829.75
857.8523	1078.5826	52752.8	51791.65
857.9973	1080.5527	52707.25	51746.25
858.1423	1082.5221	52624.05	51662.75
858.2873	1084.4908	52770.25	51808.6
858.4323	1086.4587	52749.85	51790.35
858.5773	1088.426	52786.25	51821.75
858.7223	1090.3925	52631.75	51665.8
858.8673	1092.3584	52427.7	51470.9
859.0123	1094.3235	51897.25	50937.75
859.1573	1096.2879	51680.95	50722
859.3022	1098.2515	51565.55	50604.85
859.4472	1100.2145	51468.65	50509.85
859.5922	1102.1767	51322.95	50363.75
859.7371	1104.1382	51379.15	50423.6
859.8821	1106.099	51377.15	50417.35
860.027	1108.0591	51355.8	50397.05
860.172	1110.0185	51127.7	50166.75
860.3169	1111.9771	51256.75	50301.05
860.4619	1113.9351	50822.75	49861.8
860.6068	1115.8923	50304.6	49345
860.7517	1117.8488	49708	48749.5
860.8967	1119.8045	49196.5	48238.15
861.0416	1121.7596	49024.7	48064.75
861.1865	1123.7139	48726.65	47771.05
861.3314	1125.6675	48671.8	47713.3
861.4763	1127.6204	48692.9	47735.4
861.6212	1129.5726	48505.6	47545.85
861.7661	1131.524	48478.6	47522.35
861.911	1133.4748	48454.2	47494.4
862.0559	1135.4248	48260.5	47303.55
862.2008	1137.3741	48190.4	47231.85
862.3457	1139.3226	48057.85	47099.1
862.4905	1141.2705	47961.75	47002.6
862.6354	1143.2176	47667.25	46706.35
862.7803	1145.164	47576	46617.3
862.9251	1147.1097	47494.25	46537.95
863.07	1149.0546	47356.1	46396.6
863.2148	1150.9989	47256.85	46300.1
863.3597	1152.9424	46999.9	46038.9
863.5045	1154.8852	46645.65	45684.85
863.6493	1156.8272	46372.7	45413.9
863.7942	1158.7686	46353.75	45392
863.939	1160.7092	46037.7	45078.1
864.0838	1162.6491	45815.7	44859.2
864.2286	1164.5883	45813.8	44859
864.3734	1166.5267	45721.15	44763.7
864.5182	1168.4644	45861.3	44905.75
864.663	1170.4014	45833.85	44872.95
864.8078	1172.3377	46043.75	45087.35
864.9526	1174.2732	46144.1	45191.15
865.0974	1176.2081	46251.9	45293.45
865.2421	1178.1421	46165.6	45206.6
865.3869	1180.0755	46307.2	45355.3
865.5317	1182.0082	46062	45109
865.6764	1183.9401	45903.85	44951.55
865.8212	1185.8713	45567.4	44620.15
865.9659	1187.8017	45244.2	44302.5
866.1106	1189.7315	44997.25	44067.3
866.2554	1191.6605	44448.6	43512.3
866.4001	1193.5888	44018.8	43079.85
866.5448	1195.5163	43845.55	42900.35
866.6895	1197.4432	43645.1	42692.9
866.8342	1199.3693	43423.8	42475.3
866.9789	1201.2947	43166.1	42208.65
867.1236	1203.2193	43050.6	42095.6
867.2683	1205.1432	42973.2	42020.8
867.413	1207.0664	42855.05	41901.55
867.5576	1208.9889	42745.25	41790.35
867.7023	1210.9106	42653.25	41699.2
867.847	1212.8316	42606.8	41654.4
867.9916	1214.7519	42546.65	41583.05
868.1363	1216.6715	42412.7	41459.8
868.2809	1218.5903	42236.45	41285.2
868.4255	1220.5084	42083.95	41128.75
868.5701	1222.4257	42039.5	41086.25
868.7148	1224.3424	41698	40746.45
868.8594	1226.2583	41655.9	40702.1
