Software Version:	3.9.2.0
Unit SN:	10000200
Spectrometer SN:	6960
Date:	3/26/2024 12:54:09 PM
Data Line Index:	25
Spectral Points:	2048
Integration time (ms):	125
Averages:	20
Delay (ms):	30000
Sequence Number:	1
Processing:	dark subtract
Laser Power (mW):	290
Laser Current (mA):	803
Laser Diode Temp (C):	25.1
Laser Case Temp (C):	24.7
System Temp (C):	24.7
Spectrometer Temp (C):	22.9
CCD Temp (C):	0.022
Secondary Temp (C):	20.01
Heatsink Temp (C):	21.268
CCDPCB Temp (C):	34.517
SecondaryPCB Temp (C):	28.381

Wavelength	RamanShift	Raw Counts	Dark Subtracted
787.061	30.1047	448.6	33.8
787.2016	32.3739	450.05	36.8
787.3422	34.6426	451.55	36.45
787.4828	36.9109	456.15	39.1
787.6235	39.1787	463.55	43.35
787.7642	41.4461	470	44.55
787.9049	43.7131	477.75	48.5
788.0456	45.9796	484.35	52.75
788.1863	48.2456	489.75	52.95
788.3271	50.5112	498.95	59.15
788.4679	52.7764	503.3	61.7
788.6087	55.0411	513.5	68.55
788.7496	57.3054	521.05	74.05
788.8904	59.5692	524.35	72.65
789.0313	61.8326	534.5	78.75
789.1722	64.0955	545.3	85.9
789.3132	66.3579	557.5	92.6
789.4541	68.6199	567.5	100.5
789.5951	70.8815	589.95	121.1
789.7361	73.1426	634.05	162.35
789.8771	75.4032	747.05	270.5
790.0181	77.6634	1017.4	536.9
790.1592	79.9231	1672.2	1186.95
790.3003	82.1824	3036.15	2547.4
790.4414	84.4412	5426.4	4934.45
790.5825	86.6995	8733.45	8235.2
790.7237	88.9574	11986.1	11485.5
790.8648	91.2148	14409.1	13907.65
791.006	93.4717	15682.45	15177.75
791.1472	95.7282	16231.85	15724.7
791.2885	97.9842	16434.3	15926.05
791.4297	100.2398	16480.05	15967.85
791.571	102.4949	16439.15	15923.7
791.7123	104.7495	16388.1	15865.65
791.8536	107.0036	16296.5	15773.95
791.9949	109.2573	16222.85	15702.45
792.1363	111.5105	16160.95	15638.95
792.2777	113.7632	16055.65	15529.9
792.4191	116.0154	15944.8	15409.9
792.5605	118.2672	15886.5	15359.05
792.7019	120.5185	15781.6	15252.35
792.8434	122.7693	15654.25	15122.3
792.9849	125.0197	15579.3	15043.95
793.1264	127.2696	15508.55	14971.2
793.2679	129.519	15465.3	14924.85
793.4094	131.7679	15423.5	14881.25
793.551	134.0163	15418	14871.15
793.6926	136.2642	15387.55	14835.25
793.8342	138.5117	15379.4	14824.75
793.9758	140.7587	15309.6	14755.25
794.1175	143.0052	15315.65	14759.25
794.2591	145.2512	15238	14681.95
794.4008	147.4967	15134.45	14576.55
794.5425	149.7417	15070.15	14506.2
794.6842	151.9863	15012.45	14447.3
794.826	154.2304	14950.5	14382.45
794.9677	156.4739	14870.75	14299.55
795.1095	158.717	14913.8	14341.25
795.2513	160.9596	14864.85	14287.6
795.3931	163.2017	14891.85	14313.35
795.535	165.4433	14925.15	14343.45
795.6768	167.6844	14912.25	14326.9
795.8187	169.925	14868.3	14281.8
795.9606	172.1651	14734.8	14141.55
796.1025	174.4047	14701.05	14106.35
796.2445	176.6439	14599.75	14002.85
796.3864	178.8825	14529.6	13929.9
796.5284	181.1206	14525.7	13924.6
796.6704	183.3582	14483.6	13875.15
796.8124	185.5954	14478.1	13872.15
796.9544	187.832	14453.1	13841.45
797.0965	190.0681	14473.35	13859.85
797.2386	192.3037	14467.25	13849.45
797.3806	194.5388	14446.2	13825.8
797.5228	196.7734	14449.15	13828.2
797.6649	199.0075	14486.4	13860.7
797.807	201.2411	14549.5	13920.65
797.9492	203.4742	14570.6	13938.7
798.0914	205.7068	14610.95	13979.8
798.2336	207.9389	14624.35	13990.95
798.3758	210.1704	14684.25	14049.8
798.518	212.4015	14656.4	14020.05
798.6603	214.632	14632.35	13996.35
798.8025	216.862	14627.3	13997.2
798.9448	219.0915	14582.8	13958.9
799.0871	221.3205	14615.95	13994.2
799.2294	223.549	14633.3	14014.95
799.3718	225.777	14660.45	14045
799.5141	228.0044	14606.5	13985.1
799.6565	230.2314	14651	14033.05
799.7989	232.4578	14606.5	13986.75
799.9413	234.6837	14602.4	13975.1
800.0837	236.909	14635	14008.3
800.2262	239.1339	14589.15	13936.8
800.3687	241.3582	14579.25	13942.5
800.5111	243.582	14531.45	13861.85
800.6536	245.8053	14541.55	13883.55
800.7961	248.0281	14528.25	13876.8
800.9387	250.2503	14527.2	13870.95
801.0812	252.472	14541.15	13881
801.2238	254.6932	14556.2	13891.25
801.3664	256.9139	14535.15	13869.05
801.509	259.134	14517.9	13844.95
801.6516	261.3536	14534.2	13863.5
801.7942	263.5727	14600.1	13928.9
801.9369	265.7912	14599.45	13929.05
802.0795	268.0092	14673.8	14003.4
802.2222	270.2267	14738.8	14064.6
802.3649	272.4436	14794.25	14120.9
802.5076	274.6601	14808.05	14124.9
802.6504	276.8759	14821.75	14144.4
802.7931	279.0913	14861.05	14178.85
802.9359	281.3061	14861.9	14179.35
803.0787	283.5204	14897.1	14214.75
803.2215	285.7341	14957.15	14269.3
803.3643	287.9473	14995.4	14294.95
803.5071	290.16	14981.3	14286.85
803.6499	292.3721	14921.5	14231.85
803.7928	294.5837	14862.45	14173.45
803.9357	296.7947	14739.9	14051.1
804.0786	299.0052	14728.7	14039
804.2215	301.2152	14663.65	13969.95
804.3644	303.4246	14684.45	13993.95
804.5074	305.6334	14644	13952.6
804.6503	307.8418	14631.9	13936.5
804.7933	310.0495	14635.5	13939.1
804.9363	312.2568	14542.95	13847.45
805.0793	314.4635	14434.3	13737.25
805.2223	316.6696	14362.95	13665
805.3653	318.8752	14253.95	13545.25
805.5084	321.0802	14180.55	13481
805.6514	323.2847	14197.1	13495.6
805.7945	325.4887	14159.1	13457.4
805.9376	327.692	14180.6	13475.6
806.0807	329.8949	14206.25	13502.15
806.2238	332.0972	14273.35	13566.9
806.367	334.2989	14363.45	13653.55
806.5101	336.5001	14367.55	13657.35
806.6533	338.7007	14335.85	13625.35
806.7965	340.9008	14265.7	13553.2
806.9397	343.1003	14202.05	13485.3
807.0829	345.2992	14130.85	13413.3
807.2261	347.4976	14028.65	13310.1
807.3693	349.6955	13998.85	13277.9
807.5126	351.8927	13974.25	13250.6
807.6559	354.0895	13922.05	13189.15
807.7991	356.2856	13911.7	13186.75
807.9424	358.4812	13872.15	13148.3
808.0857	360.6763	13884	13157.45
808.2291	362.8707	13827.75	13099.55
808.3724	365.0646	13843.85	13113.8
808.5158	367.258	13847.85	13115.75
808.6591	369.4508	13840.45	13106.25
808.8025	371.643	13899.35	13166.05
808.9459	373.8346	13875.25	13137.4
809.0893	376.0257	13928.4	13188.3
809.2327	378.2162	13946.95	13207.25
809.3762	380.4062	14013.35	13269.1
809.5196	382.5956	13927	13182.05
809.6631	384.7844	13877.6	13131.15
809.8066	386.9726	13779.45	13030.5
809.9501	389.1603	13730.75	12982.45
810.0936	391.3474	13706.95	12916
810.2371	393.5339	13661.8	12914.4
810.3806	395.7199	13612.95	12870.45
810.5241	397.9052	13636.65	12896.25
810.6677	400.09	13667.6	12928.15
810.8113	402.2743	13697.35	12957.7
810.9548	404.4579	13767.95	13028.6
811.0984	406.641	13805.8	13066.25
811.2421	408.8235	13892.8	13152.1
811.3857	411.0054	13936.25	13195.4
811.5293	413.1868	14062.5	13319.7
811.673	415.3675	14135.95	13388.85
811.8166	417.5477	14180.75	13434.8
811.9603	419.7273	14089.2	13338.1
812.104	421.9064	13918.6	13158.3
812.2477	424.0848	13826.05	13071.2
812.3914	426.2627	13687.45	12929.9
812.5351	428.4399	13600.05	12842.9
812.6788	430.6166	13482.6	12718.45
812.8226	432.7928	13421.45	12655
812.9663	434.9683	13337.15	12572.05
813.1101	437.1432	13308.75	12540.2
813.2539	439.3176	13222.35	12456.35
813.3977	441.4914	13176.7	12408.55
813.5415	443.6645	13200.35	12430.5
813.6853	445.8371	13151.35	12381.75
813.8291	448.0091	13116.05	12345.25
813.973	450.1806	13081.55	12308.4
814.1168	452.3514	13037.5	12263.2
814.2607	454.5216	13053.85	12273.6
814.4046	456.6913	12989.3	12214.1
814.5485	458.8603	13023.55	12248.5
814.6924	461.0288	13027	12250.4
814.8363	463.1967	13001.8	12224.45
814.9802	465.3639	13011.1	12233.8
815.1241	467.5306	12983.9	12204.25
815.2681	469.6967	12928.55	12150.25
815.412	471.8622	12912.1	12132.35
815.556	474.0271	12916.6	12138.3
815.7	476.1914	12930.7	12149.7
815.844	478.3551	12898.65	12118.65
815.988	480.5182	12907	12123.95
816.132	482.6807	12941.9	12158.5
816.276	484.8426	12950.75	12167.65
816.4201	487.0039	13027.2	12243.05
816.5641	489.1647	13085.45	12301.2
816.7082	491.3248	13169.1	12385.8
816.8522	493.4843	13168.75	12385.2
816.9963	495.6432	13161.7	12376.3
817.1404	497.8015	13082.5	12293.45
817.2845	499.9592	13057.75	12272.35
817.4286	502.1163	12997.4	12208.75
817.5727	504.2728	12924.4	12135.45
817.7168	506.4287	12909	12121.4
817.861	508.5839	12862.4	12072.75
818.0051	510.7386	12821.25	12032.25
818.1493	512.8927	12854.25	12061.7
818.2935	515.0461	12836.2	12044.85
818.4377	517.199	12865.85	12074.9
818.5818	519.3512	12897.7	12107.1
818.726	521.5029	12991.7	12194.25
818.8703	523.6539	13061.3	12267.8
819.0145	525.8043	13111.1	12317.7
819.1587	527.9541	13023.45	12224.95
819.303	530.1033	12929.2	12133.45
819.4472	532.2519	12838.85	12043.15
819.5915	534.3999	12814.7	12015.4
819.7357	536.5472	12820.35	12021.2
819.88	538.694	12797	11995.6
820.0243	540.8401	12826.05	12025.3
820.1686	542.9856	12856.95	12057.45
820.3129	545.1305	12836.65	12033.25
820.4572	547.2748	12887.2	12084.7
820.6016	549.4185	12879.7	12073.7
820.7459	551.5615	12882.9	12078.4
820.8902	553.704	12901.5	12094.6
821.0346	555.8458	12887.75	12082.9
821.1789	557.987	12922.2	12115.65
821.3233	560.1276	12987.85	12181.75
821.4677	562.2675	13090.75	12286.55
821.6121	564.4069	13130.9	12327
821.7565	566.5456	13210	12405.2
821.9009	568.6837	13202.5	12396.15
822.0453	570.8212	13022.65	12215.6
822.1897	572.958	12897.15	12089.2
822.3342	575.0942	12798.55	11993.05
822.4786	577.2299	12753.45	11943.3
822.6231	579.3648	12688.95	11881
822.7675	581.4992	12595.95	11786.35
822.912	583.6329	12597.1	11789.05
823.0565	585.766	12614.95	11805.4
823.201	587.8985	12640.2	11831.9
823.3454	590.0304	12740.85	11920.1
823.4899	592.1616	12730.7	11916.6
823.6345	594.2922	12726.6	11913.15
823.779	596.4222	12700.2	11886.65
823.9235	598.5515	12608.35	11793.65
824.068	600.6802	12501.35	11686.4
824.2126	602.8083	12412.2	11597.65
824.3571	604.9358	12366.9	11548.2
824.5017	607.0626	12325.25	11508.15
824.6462	609.1888	12341.6	11523.25
824.7908	611.3144	12349.85	11530.55
824.9354	613.4393	12395.05	11577.85
825.08	615.5636	12445.4	11626.5
825.2246	617.6873	12537.5	11721.1
825.3692	619.8103	12587.55	11766.75
825.5138	621.9327	12595.45	11772.05
825.6584	624.0544	12569	11748.75
825.803	626.1756	12488.75	11667.3
825.9477	628.2961	12398.25	11578
826.0923	630.4159	12325.25	11504.55
826.237	632.5351	12328.75	11507.9
826.3816	634.6537	12299.35	11478.8
826.5263	636.7716	12287.05	11461.9
826.6709	638.8889	12299.5	11473.1
826.8156	641.0056	12317.95	11491.5
826.9603	643.1216	12337.75	11512.75
827.105	645.237	12366.4	11539.1
827.2497	647.3518	12337.75	11511.55
827.3944	649.4659	12282.95	11454.9
827.5391	651.5793	12193.75	11367.8
827.6838	653.6922	12195	11369.5
827.8285	655.8043	12171.7	11343.1
827.9733	657.9159	12117.35	11287.85
828.118	660.0268	12089.8	11259.25
828.2627	662.137	12067.75	11237.95
828.4075	664.2466	12098.4	11267.15
828.5522	666.3556	12104.4	11277.05
828.697	668.4639	12046.35	11212.6
828.8418	670.5716	12053.65	11222.75
828.9865	672.6786	12048.4	11216.5
829.1313	674.785	11977.1	11144.15
829.2761	676.8907	11945.55	11113.1
829.4209	678.9958	11979.95	11147.7
829.5657	681.1002	11921.1	11088.85
829.7105	683.204	11957.3	11121.1
829.8553	685.3072	11916.5	11081.65
830.0001	687.4097	11912.6	11080.2
830.1449	689.5115	11916.7	11078.75
830.2898	691.6127	11932.5	11096.25
830.4346	693.7132	11882.2	11044.45
830.5794	695.8131	11908.1	11056.05
830.7243	697.9123	11887.1	11050.35
830.8691	700.0109	11872.5	11033.7
831.014	702.1089	11867.15	11030.85
831.1588	704.2061	11869.15	11030.8
831.3037	706.3028	11915.45	11075.45
831.4486	708.3987	11931.8	11092.75
831.5935	710.4941	11951.95	11113.45
831.7383	712.5887	11994.85	11156
831.8832	714.6827	11953.4	11110.65
832.0281	716.7761	11942	11101.7
832.173	718.8688	11911.8	11069.8
832.3179	720.9608	11903.25	11062.6
832.4628	723.0522	11896.15	11052.65
832.6077	725.1429	11893.65	11053.45
832.7527	727.233	11934.75	11091.95
832.8976	729.3224	12028.65	11187.7
833.0425	731.4112	12082.25	11240.3
833.1874	733.4993	12111.7	11267.5
833.3324	735.5867	12038.75	11194.5
833.4773	737.6735	11931.45	11084.15
833.6222	739.7596	11818.6	10972.45
833.7672	741.845	11737.55	10890.35
833.9122	743.9298	11704.3	10856.65
834.0571	746.014	11718.75	10873.2
834.2021	748.0974	11718.45	10870.9
834.347	750.1802	11711.05	10863.25
834.492	752.2624	11660.25	10812.9
834.637	754.3439	11601.2	10752.9
834.782	756.4247	11600.5	10743.75
834.9269	758.5048	11536.1	10688.5
835.0719	760.5843	11534.45	10687
835.2169	762.6631	11530.05	10681.1
835.3619	764.7413	11582.5	10735.1
835.5069	766.8188	11705.05	10855.75
835.6519	768.8956	11758.75	10905.6
835.7969	770.9718	11862.45	11011.4
835.9419	773.0473	11797.05	10949.5
836.0869	775.1221	11767.35	10917.8
836.232	777.1962	11681.25	10831.95
836.377	779.2697	11762.4	10908.75
836.522	781.3426	11882.7	11013.5
836.667	783.4147	11974.7	11122.15
836.8121	785.4862	11996.7	11144.95
836.9571	787.557	11844.7	10992.95
837.1021	789.6271	11657	10804.7
837.2472	791.6966	11464.35	10612.55
837.3922	793.7654	11261.5	10409.8
837.5373	795.8335	11201.65	10349.5
837.6823	797.901	11122.35	10269.75
837.8274	799.9678	11092.2	10237.3
837.9724	802.0339	11051.85	10198.65
838.1175	804.0993	11071.45	10208.9
838.2626	806.1641	11018.4	10163.05
838.4076	808.2282	11004.1	10151.15
838.5527	810.2916	10961.15	10102.85
838.6978	812.3544	10922.15	10068.85
838.8428	814.4164	10863.75	10010.85
838.9879	816.4778	10882.1	10026.1
839.133	818.5385	10879.4	10024.45
839.2781	820.5986	10923.5	10067.95
839.4232	822.658	10974.6	10116.45
839.5682	824.7166	11027.35	10171.95
839.7133	826.7747	11154.2	10299.8
839.8584	828.832	11249.05	10394.25
840.0035	830.8886	11267.8	10410.25
840.1486	832.9446	11352.95	10494.1
840.2937	834.9999	11316.3	10463.1
840.4388	837.0545	11184.15	10323.5
840.5839	839.1085	11078.4	10219.1
840.729	841.1618	10948.1	10086.35
840.8741	843.2143	10819.3	9961.2
841.0192	845.2662	10735.15	9877.05
841.1643	847.3175	10682.1	9824.1
841.3095	849.368	10651.85	9794.75
841.4546	851.4179	10659.75	9800.95
841.5997	853.467	10618.9	9759.7
841.7448	855.5155	10611.9	9753.45
841.8899	857.5633	10588.15	9727.8
842.0351	859.6105	10531.95	9672.9
842.1802	861.6569	10521.25	9662.6
842.3253	863.7027	10497.9	9637.25
842.4704	865.7478	10436.7	9577.25
842.6156	867.7922	10433.75	9572.95
842.7607	869.8359	10398.15	9536.45
842.9058	871.8789	10371.6	9511.85
843.0509	873.9212	10378.05	9484.95
843.1961	875.9629	10306.6	9445.75
843.3412	878.0039	10344	9480.65
843.4863	880.0441	10344.25	9484.35
843.6315	882.0837	10349.3	9486.4
843.7766	884.1226	10362.05	9498.1
843.9218	886.1609	10402.6	9540.8
844.0669	888.1984	10444.55	9583.9
844.212	890.2352	10516.05	9654.95
844.3572	892.2714	10546.2	9679.8
844.5023	894.3069	10512.5	9647.25
844.6475	896.3416	10380.2	9517.15
844.7926	898.3757	10306.6	9443.85
844.9377	900.4091	10252.85	9389.45
845.0829	902.4418	10228.45	9361.95
845.228	904.4739	10215.05	9350.25
845.3732	906.5052	10245.2	9379.05
845.5183	908.5358	10217.45	9352.6
845.6635	910.5658	10190.3	9323.05
845.8086	912.595	10132.65	9266.7
845.9538	914.6236	10030.3	9164.4
846.0989	916.6515	9995.35	9131.6
846.2441	918.6786	9947.05	9079.95
846.3892	920.7051	9900	9034
846.5344	922.7309	9915.5	9051.35
846.6795	924.756	9890.65	9024.8
846.8246	926.7804	9873.65	9005.7
846.9698	928.8041	9785.5	8914.4
847.1149	930.8272	9823.15	8956.1
847.2601	932.8495	9812.2	8944.2
847.4052	934.8711	9823.05	8954.15
847.5504	936.892	9773.1	8906.2
847.6955	938.9123	9761.2	8891.65
847.8407	940.9318	9808.35	8940
847.9858	942.9506	9808.75	8941.75
848.131	944.9688	9762.2	8893.85
848.2761	946.9862	9707.25	8839.35
848.4213	949.003	9613.75	8745
848.5664	951.019	9572	8702.75
848.7115	953.0344	9535.4	8666.8
848.8567	955.0491	9475.8	8605.05
849.0018	957.063	9467.5	8598.2
849.147	959.0763	9442.15	8565.3
849.2921	961.0888	9417.15	8545.85
849.4373	963.1007	9406.7	8535.95
849.5824	965.1119	9386.45	8518.15
849.7275	967.1223	9352.55	8481.85
849.8727	969.1321	9319.35	8449.95
850.0178	971.1412	9282.8	8413
850.1629	973.1495	9231.1	8361.3
850.3081	975.1572	9259.25	8341.7
850.4532	977.1641	9214.6	8343.9
850.5983	979.1704	9191.5	8320.1
850.7435	981.1759	9181.3	8305.3
850.8886	983.1808	9125.35	8253.55
851.0337	985.1849	9106.05	8224.6
851.1788	987.1884	9059.8	8187.6
851.324	989.1911	9073.1	8197.95
851.4691	991.1932	9060.4	8187.2
851.6142	993.1945	9036.95	8165.85
851.7593	995.1951	8993.25	8120.2
851.9045	997.1951	8976.85	8096.4
852.0496	999.1943	8927.7	8054.5
852.1947	1001.1928	8895	8023.3
852.3398	1003.1906	8891.7	8019.65
852.4849	1005.1877	8895.95	8021.8
852.63	1007.1841	8907.2	8035.65
852.7751	1009.1798	8887.65	8016.3
852.9202	1011.1748	8870.2	7997.6
853.0653	1013.1691	8800.6	7924.3
853.2104	1015.1627	8723.85	7847.8
853.3555	1017.1556	8614	7740.8
853.5006	1019.1477	8604.2	7728.35
853.6457	1021.1392	8510.75	7637.75
853.7908	1023.1299	8453.4	7578.45
853.9359	1025.12	8437.75	7561.1
854.081	1027.1093	8430.1	7556.4
854.2261	1029.0979	8403.85	7533.1
854.3712	1031.0859	8408.2	7534.1
854.5163	1033.0731	8408.9	7532.85
854.6613	1035.0596	8402.95	7527.5
854.8064	1037.0454	8335.95	7459.15
854.9515	1039.0304	8333.8	7458.35
855.0965	1041.0148	8259.9	7385.25
855.2416	1042.9985	8189.6	7313.2
855.3867	1044.9814	8158.65	7284.3
855.5317	1046.9636	8123.55	7246
855.6768	1048.9452	8111	7234.55
855.8219	1050.926	8106.8	7231.65
855.9669	1052.9061	8111.3	7234.45
856.112	1054.8855	8111.75	7235.65
856.257	1056.8642	8091.25	7215.25
856.4021	1058.8421	8073.35	7192.4
856.5471	1060.8194	8042.5	7165.95
856.6921	1062.7959	8007.1	7130.45
856.8372	1064.7717	7990.6	7112.9
856.9822	1066.7469	7957.05	7080.6
857.1272	1068.7213	7958.8	7079.55
857.2723	1070.695	7956.2	7080.45
857.4173	1072.6679	7943.55	7064.75
857.5623	1074.6402	7977.55	7099.45
857.7073	1076.6117	7975.9	7094.35
857.8523	1078.5826	7965.8	7088.2
857.9973	1080.5527	7889.6	7008.7
858.1423	1082.5221	7796.1	6919.95
858.2873	1084.4908	7741.75	6862.7
858.4323	1086.4587	7702.05	6822.3
858.5773	1088.426	7669	6787.9
858.7223	1090.3925	7629.35	6745.2
858.8673	1092.3584	7615.75	6738.3
859.0123	1094.3235	7602.55	6727.3
859.1573	1096.2879	7609.55	6732.55
859.3022	1098.2515	7625.9	6746.7
859.4472	1100.2145	7642.65	6764.6
859.5922	1102.1767	7672.95	6793.25
859.7371	1104.1382	7690.4	6810.55
859.8821	1106.099	7775.4	6892.35
860.027	1108.0591	7824.1	6945
860.172	1110.0185	7867.8	6985.6
860.3169	1111.9771	7918.7	7038.85
860.4619	1113.9351	7926.9	7046.05
860.6068	1115.8923	8003.15	7122.85
860.7517	1117.8488	8076.25	7196.2
860.8967	1119.8045	8005.9	7128.7
861.0416	1121.7596	7884.5	7005.8
861.1865	1123.7139	7679.4	6801.8
861.3314	1125.6675	7569.95	6689.2
861.4763	1127.6204	7521	6639.45
861.6212	1129.5726	7544.7	6661.3
861.7661	1131.524	7553.45	6673.45
861.911	1133.4748	7491.2	6610.45
862.0559	1135.4248	7380.5	6498
862.2008	1137.3741	7284.05	6403
862.3457	1139.3226	7215.8	6334.25
862.4905	1141.2705	7190.5	6308.6
862.6354	1143.2176	7174.2	6287.3
862.7803	1145.164	7168.6	6285.75
862.9251	1147.1097	7176.15	6295.5
863.07	1149.0546	7172.25	6288.65
863.2148	1150.9989	7100.15	6219.75
863.3597	1152.9424	7043.55	6161.15
863.5045	1154.8852	7011.7	6128.75
863.6493	1156.8272	6990.5	6111.3
863.7942	1158.7686	6990.8	6101.45
863.939	1160.7092	6952.45	6068.65
864.0838	1162.6491	6939.75	6053.75
864.2286	1164.5883	6954.6	6073.65
864.3734	1166.5267	6948.05	6065.25
864.5182	1168.4644	6967.7	6085.3
864.663	1170.4014	6999.95	6111.75
864.8078	1172.3377	7039.95	6159.4
864.9526	1174.2732	7097.2	6215.1
865.0974	1176.2081	7176.65	6294.2
865.2421	1178.1421	7338.9	6454.85
865.3869	1180.0755	7538.25	6656.7
865.5317	1182.0082	7658.15	6776.3
865.6764	1183.9401	7675.1	6792.85
865.8212	1185.8713	7550.2	6668.35
865.9659	1187.8017	7345.85	6464
866.1106	1189.7315	7151.55	6267.9
866.2554	1191.6605	7005.7	6094.1
866.4001	1193.5888	6892.9	6008.5
866.5448	1195.5163	6831.8	5949.8
866.6895	1197.4432	6776.85	5892.85
866.8342	1199.3693	6717.9	5833.6
