Software Version:	3.9.2.0
Unit SN:	10000200
Spectrometer SN:	6960
Date:	3/26/2024 2:45:56 PM
Data Line Index:	25
Spectral Points:	2048
Integration time (ms):	125
Averages:	20
Delay (ms):	30000
Sequence Number:	1
Processing:	dark subtract
Laser Power (mW):	305
Laser Current (mA):	821
Laser Diode Temp (C):	25
Laser Case Temp (C):	27.9
System Temp (C):	28.1
Spectrometer Temp (C):	25.9
CCD Temp (C):	0.004
Secondary Temp (C):	20.006
Heatsink Temp (C):	23.273
CCDPCB Temp (C):	37.274
SecondaryPCB Temp (C):	34.862

Wavelength	RamanShift	Raw Counts	Dark Subtracted
787.061	30.1047	628.85	218.9
787.2016	32.3739	637.85	230.4
787.3422	34.6426	657.25	247.7
787.4828	36.9109	668.9	256.6
787.6235	39.1787	693.35	278.9
787.7642	41.4461	718.45	298.3
787.9049	43.7131	736.8	313.05
788.0456	45.9796	764.9	338.45
788.1863	48.2456	788.15	358.05
788.3271	50.5112	815.25	380
788.4679	52.7764	839	402.05
788.6087	55.0411	861.8	421.3
788.7496	57.3054	902	455.2
788.8904	59.5692	924.5	475.1
789.0313	61.8326	965.8	512.6
789.1722	64.0955	1005.45	548.2
789.3132	66.3579	1057.3	595.25
789.4541	68.6199	1105.6	640.85
789.5951	70.8815	1202.95	736
789.7361	73.1426	1396.9	925.3
789.8771	75.4032	1877.85	1400.7
790.0181	77.6634	3105.75	2622.6
790.1592	79.9231	6175.25	5681.7
790.3003	82.1824	13274.95	12763.75
790.4414	84.4412	28826.25	28282.2
790.5825	86.6995	55974.7	55384.5
790.7237	88.9574	65507.25	64877.55
790.8648	91.2148	65535	64872.7
791.006	93.4717	65535	64851.4
791.1472	95.7282	65535	64842.65
791.2885	97.9842	65535	64837.15
791.4297	100.2398	65535	64833.25
791.571	102.4949	65535	64831.25
791.7123	104.7495	65535	64830.9
791.8536	107.0036	65535	64824.75
791.9949	109.2573	65535	64834.15
792.1363	111.5105	65535	64827.65
792.2777	113.7632	65535	64822.7
792.4191	116.0154	65535	64816.35
792.5605	118.2672	65535	64820.25
792.7019	120.5185	65535	64820.7
792.8434	122.7693	65535	64818.15
792.9849	125.0197	65535	64811.4
793.1264	127.2696	65535	64814.8
793.2679	129.519	65535	64806.4
793.4094	131.7679	65535	64804.15
793.551	134.0163	65535	64796.4
793.6926	136.2642	65535	64798.65
793.8342	138.5117	65535	64791.4
793.9758	140.7587	65535	64788.85
794.1175	143.0052	65535	64789.2
794.2591	145.2512	65535	64790.1
794.4008	147.4967	65535	64787.15
794.5425	149.7417	65535	64790.6
794.6842	151.9863	65535	64785.6
794.826	154.2304	65535	64781.45
794.9677	156.4739	65535	64776.1
795.1095	158.717	65535	64770.4
795.2513	160.9596	65535	64767.55
795.3931	163.2017	65535	64770.1
795.535	165.4433	65535	64768.3
795.6768	167.6844	65535	64764.1
795.8187	169.925	65535	64766.65
795.9606	172.1651	65535	64763.35
796.1025	174.4047	65535	64764.5
796.2445	176.6439	65535	64761
796.3864	178.8825	65535	64757.35
796.5284	181.1206	65535	64749.5
796.6704	183.3582	65535	64745.1
796.8124	185.5954	65535	64742.85
796.9544	187.832	65535	64743.15
797.0965	190.0681	65535	64740.5
797.2386	192.3037	65535	64739.3
797.3806	194.5388	65535	64733.5
797.5228	196.7734	65535	64729.25
797.6649	199.0075	65535	64720.5
797.807	201.2411	65535	64722.95
797.9492	203.4742	65535	64725.3
798.0914	205.7068	65535	64721.2
798.2336	207.9389	65535	64718.95
798.3758	210.1704	65535	64711.25
798.518	212.4015	65535	64714.65
798.6603	214.632	65535	64722
798.8025	216.862	65535	64730.05
798.9448	219.0915	65535	64739
799.0871	221.3205	65535	64734.2
799.2294	223.549	65535	64739.1
799.3718	225.777	65535	64738.35
799.5141	228.0044	65535	64733.7
799.6565	230.2314	65535	64739.05
799.7989	232.4578	65535	64737.75
799.9413	234.6837	65535	64731.75
800.0837	236.909	65535	64729.1
800.2262	239.1339	65535	64701.95
800.3687	241.3582	65535	64720.95
800.5111	243.582	65535	64686.35
800.6536	245.8053	65535	64696.95
800.7961	248.0281	65535	64702.5
800.9387	250.2503	65535	64692.5
801.0812	252.472	65535	64694.3
801.2238	254.6932	65535	64697.7
801.3664	256.9139	65535	64696.7
801.509	259.134	65535	64690.8
801.6516	261.3536	65535	64690
801.7942	263.5727	65535	64686.4
801.9369	265.7912	65535	64686.3
802.0795	268.0092	65535	64689.25
802.2222	270.2267	65535	64688.1
802.3649	272.4436	65535	64686.35
802.5076	274.6601	65535	64681.55
802.6504	276.8759	65535	64691.2
802.7931	279.0913	65535	64681.75
802.9359	281.3061	65535	64683.5
803.0787	283.5204	65535	64677.75
803.2215	285.7341	65535	64676.7
803.3643	287.9473	65535	64666.75
803.5071	290.16	65535	64668.3
803.6499	292.3721	65535	64676.05
803.7928	294.5837	65535	64675.15
803.9357	296.7947	65535	64679.7
804.0786	299.0052	65535	64674.05
804.2215	301.2152	65535	64670.85
804.3644	303.4246	65535	64676.05
804.5074	305.6334	65535	64673.65
804.6503	307.8418	65535	64673.15
804.7933	310.0495	65535	64679
804.9363	312.2568	65535	64673.95
805.0793	314.4635	65535	64670.45
805.2223	316.6696	65535	64669.5
805.3653	318.8752	65535	64659.1
805.5084	321.0802	65535	64666
805.6514	323.2847	65535	64666.55
805.7945	325.4887	65535	64662.3
805.9376	327.692	65535	64664.8
806.0807	329.8949	65535	64663.05
806.2238	332.0972	65535	64662.8
806.367	334.2989	65535	64657.8
806.5101	336.5001	65535	64653.9
806.6533	338.7007	65535	64655.5
806.7965	340.9008	65535	64653.65
806.9397	343.1003	65535	64657.6
807.0829	345.2992	65535	64652.6
807.2261	347.4976	65535	64651.7
807.3693	349.6955	65535	64645.8
807.5126	351.8927	65535	64652.3
807.6559	354.0895	65535	64637.7
807.7991	356.2856	65535	64650.35
807.9424	358.4812	65535	64649.5
808.0857	360.6763	65535	64645.55
808.2291	362.8707	65535	64651.25
808.3724	365.0646	65535	64638.95
808.5158	367.258	65535	64644.2
808.6591	369.4508	65535	64639.15
808.8025	371.643	65535	64635.9
808.9459	373.8346	65535	64637.45
809.0893	376.0257	65535	64635.3
809.2327	378.2162	65535	64635.75
809.3762	380.4062	65535	64634.6
809.5196	382.5956	65535	64636.95
809.6631	384.7844	65535	64636.2
809.8066	386.9726	65535	64633.25
809.9501	389.1603	65535	64639.3
810.0936	391.3474	65535	64594.55
810.2371	393.5339	65535	64635.55
810.3806	395.7199	65535	64643.3
810.5241	397.9052	65535	64644
810.6677	400.09	65535	64643.8
810.8113	402.2743	65535	64642.1
810.9548	404.4579	65535	64644.85
811.0984	406.641	65535	64643.85
811.2421	408.8235	65535	64646.55
811.3857	411.0054	65535	64644.45
811.5293	413.1868	65535	64636.4
811.673	415.3675	65535	64635
811.8166	417.5477	65535	64637.65
811.9603	419.7273	65535	64635.3
812.104	421.9064	65535	64628.35
812.2477	424.0848	65535	64633.15
812.3914	426.2627	65535	64632.6
812.5351	428.4399	65535	64630.5
812.6788	430.6166	65535	64628.05
812.8226	432.7928	65535	64622.75
812.9663	434.9683	65535	64627.55
813.1101	437.1432	65535	64628.45
813.2539	439.3176	65535	64633.5
813.3977	441.4914	65535	64637.25
813.5415	443.6645	65535	64631.85
813.6853	445.8371	65535	64630.65
813.8291	448.0091	65535	64628.45
813.973	450.1806	65535	64633.95
814.1168	452.3514	65535	64631.85
814.2607	454.5216	65535	64625.6
814.4046	456.6913	65535	64630
814.5485	458.8603	65535	64627.55
814.6924	461.0288	65535	64636.65
814.8363	463.1967	65535	64634.75
814.9802	465.3639	65535	64634.45
815.1241	467.5306	65535	64628.35
815.2681	469.6967	65535	64634.15
815.412	471.8622	65535	64635.15
815.556	474.0271	65535	64626.4
815.7	476.1914	65535	64626.1
815.844	478.3551	65535	64625.55
815.988	480.5182	65535	64630.6
816.132	482.6807	65535	64637.45
816.276	484.8426	65535	64642.15
816.4201	487.0039	65535	64635
816.5641	489.1647	65535	64629.7
816.7082	491.3248	65535	64626.65
816.8522	493.4843	65535	64636.5
816.9963	495.6432	65535	64633.5
817.1404	497.8015	65535	64621.8
817.2845	499.9592	65535	64615.5
817.4286	502.1163	65535	64618.3
817.5727	504.2728	65535	64622.75
817.7168	506.4287	65535	64633.5
817.861	508.5839	65535	64633.05
818.0051	510.7386	65535	64630.85
818.1493	512.8927	65535	64614.9
818.2935	515.0461	65535	64623.65
818.4377	517.199	65535	64620.1
818.5818	519.3512	65535	64620.65
818.726	521.5029	65535	64613.7
818.8703	523.6539	65535	64618.45
819.0145	525.8043	65535	64619.55
819.1587	527.9541	65535	64614.55
819.303	530.1033	65535	64617.75
819.4472	532.2519	65535	64623.8
819.5915	534.3999	65535	64614.05
819.7357	536.5472	65535	64620.3
819.88	538.694	65535	64624.9
820.0243	540.8401	65535	64616.7
820.1686	542.9856	65535	64613.3
820.3129	545.1305	65535	64609.8
820.4572	547.2748	65535	64602.9
820.6016	549.4185	65535	64603.7
820.7459	551.5615	65535	64606
820.8902	553.704	65535	64604.95
821.0346	555.8458	65535	64610.05
821.1789	557.987	65535	64612.15
821.3233	560.1276	65535	64606.05
821.4677	562.2675	65535	64605.35
821.6121	564.4069	65535	64606.35
821.7565	566.5456	65535	64609.4
821.9009	568.6837	65535	64614.95
822.0453	570.8212	65535	64612.95
822.1897	572.958	65535	64610.85
822.3342	575.0942	65535	64616.85
822.4786	577.2299	65535	64616.1
822.6231	579.3648	65535	64627.6
822.7675	581.4992	65535	64631.7
822.912	583.6329	65535	64636.7
823.0565	585.766	65535	64631.7
823.201	587.8985	65535	64628.5
823.3454	590.0304	65535	64607.9
823.4899	592.1616	65535	64612.15
823.6345	594.2922	65535	64606.45
823.779	596.4222	65535	64604.5
823.9235	598.5515	65535	64608.85
824.068	600.6802	65535	64606.6
824.2126	602.8083	65535	64612
824.3571	604.9358	65535	64607.6
824.5017	607.0626	65535	64605.8
824.6462	609.1888	65535	64598.15
824.7908	611.3144	65535	64598.1
824.9354	613.4393	65535	64600.55
825.08	615.5636	65535	64604.8
825.2246	617.6873	65535	64603.25
825.3692	619.8103	65535	64603.95
825.5138	621.9327	65535	64604
825.6584	624.0544	65535	64610.9
825.803	626.1756	65535	64608.4
825.9477	628.2961	65535	64604.9
826.0923	630.4159	65535	64606.65
826.237	632.5351	65535	64603.9
826.3816	634.6537	65535	64605.45
826.5263	636.7716	65535	64599.8
826.6709	638.8889	65535	64596.6
826.8156	641.0056	65535	64597.65
826.9603	643.1216	65535	64599.95
827.105	645.237	65535	64597.65
827.2497	647.3518	65535	64607.4
827.3944	649.4659	65535	64611
827.5391	651.5793	65535	64608.2
827.6838	653.6922	65535	64606.85
827.8285	655.8043	65535	64608.2
827.9733	657.9159	65535	64604.7
828.118	660.0268	65535	64604.3
828.2627	662.137	65535	64602.15
828.4075	664.2466	65535	64594.6
828.5522	666.3556	65535	64598.95
828.697	668.4639	65535	64600.95
828.8418	670.5716	65535	64609.7
828.9865	672.6786	65535	64607.35
829.1313	674.785	65535	64598.1
829.2761	676.8907	65535	64601.9
829.4209	678.9958	65535	64608.45
829.5657	681.1002	65535	64598.15
829.7105	683.204	65535	64593.35
829.8553	685.3072	65535	64594.45
830.0001	687.4097	65535	64600.85
830.1449	689.5115	65535	64593.05
830.2898	691.6127	65535	64599.55
830.4346	693.7132	65535	64602.3
830.5794	695.8131	65535	64580.05
830.7243	697.9123	65535	64592.1
830.8691	700.0109	65535	64595.4
831.014	702.1089	65530.45	64592.15
831.1588	704.2061	65532.75	64597.3
831.3037	706.3028	65534.8	64593.65
831.4486	708.3987	65535	64594.8
831.5935	710.4941	65535	64596.05
831.7383	712.5887	65535	64598.4
831.8832	714.6827	65535	64595.6
832.0281	716.7761	65535	64595.35
832.173	718.8688	65535	64596.6
832.3179	720.9608	65535	64592.5
832.4628	723.0522	65535	64588.2
832.6077	725.1429	65533.5	64589.5
832.7527	727.233	65535	64598.35
832.8976	729.3224	65381	64439.25
833.0425	731.4112	65499.4	64560.55
833.1874	733.4993	65501.4	64558.7
833.3324	735.5867	65504.4	64564.8
833.4773	737.6735	65434.85	64490.55
833.6222	739.7596	65310.9	64372
833.7672	741.845	65271	64332.4
833.9122	743.9298	65485.25	64542.1
834.0571	746.014	65274.3	64331.5
834.2021	748.0974	65088.7	64140.5
834.347	750.1802	65442.8	64495.65
834.492	752.2624	64996.3	64049.85
834.637	754.3439	65044.75	64098.05
834.782	756.4247	65172.65	64218.4
834.9269	758.5048	64963.85	64019.7
835.0719	760.5843	65067.5	64121
835.2169	762.6631	65241.65	64296.65
835.3619	764.7413	65154.1	64211.3
835.5069	766.8188	65251.15	64306.1
835.6519	768.8956	65451	64508
835.7969	770.9718	65423.25	64477.25
835.9419	773.0473	65357.1	64410.2
836.0869	775.1221	64970.85	64026.45
836.232	777.1962	64921.35	63979.85
836.377	779.2697	64495.65	63548.7
836.522	781.3426	64837.55	63879.7
836.667	783.4147	64993.6	64045.8
836.8121	785.4862	64977.55	64028.25
836.9571	787.557	64566.9	63621.15
837.1021	789.6271	64905.15	63951.9
837.2472	791.6966	64467.3	63521.3
837.3922	793.7654	63863.6	62918.7
837.5373	795.8335	63857.6	62911.5
837.6823	797.901	64041.8	63096.35
837.8274	799.9678	63700.5	62752
837.9724	802.0339	63571.95	62619.7
838.1175	804.0993	63685.15	62723.8
838.2626	806.1641	63489.05	62540.55
838.4076	808.2282	63334.2	62388.75
838.5527	810.2916	63109.95	62161.75
838.6978	812.3544	63434.45	62489.35
838.8428	814.4164	62735.95	61795.2
838.9879	816.4778	62799.4	61848.7
839.133	818.5385	62825.4	61879.65
839.2781	820.5986	62719.55	61773.5
839.4232	822.658	62808.55	61854.4
839.5682	824.7166	62850.85	61906.2
839.7133	826.7747	62167.25	61219.6
839.8584	828.832	62456.95	61510.25
840.0035	830.8886	62807.25	61857.3
840.1486	832.9446	62848.9	61899.25
840.2937	834.9999	61800.1	60856.65
840.4388	837.0545	62418.9	61469.35
840.5839	839.1085	62769.75	61821
840.729	841.1618	62512.05	61558.95
840.8741	843.2143	61778.55	60830.75
841.0192	845.2662	61778.4	60832
841.1643	847.3175	61986.6	61037.75
841.3095	849.368	60930.2	59980.9
841.4546	851.4179	61738.25	60789.3
841.5997	853.467	60944.05	59996.6
841.7448	855.5155	61209.7	60259.2
841.8899	857.5633	60508.25	59562.1
842.0351	859.6105	60121.9	59173.65
842.1802	861.6569	60479.6	59527.7
842.3253	863.7027	59648.1	58696.35
842.4704	865.7478	59983.15	59033.1
842.6156	867.7922	59802.1	58853.6
842.7607	869.8359	60209.1	59257.3
842.9058	871.8789	59351.45	58406.35
843.0509	873.9212	59964.55	58983.5
843.1961	875.9629	59997.5	59048.8
843.3412	878.0039	59957.3	59004.25
843.4863	880.0441	59693.6	58745.6
843.6315	882.0837	59615.15	58667.85
843.7766	884.1226	59474.8	58524.5
843.9218	886.1609	59313.2	58361.85
844.0669	888.1984	58769.55	57822.95
844.212	890.2352	59212.75	58262.25
844.3572	892.2714	58319.35	57365.5
844.5023	894.3069	58644.3	57695.3
844.6475	896.3416	58305.75	57358.85
844.7926	898.3757	58226.4	57274.6
844.9377	900.4091	57363.85	56408.5
845.0829	902.4418	58292.75	57333.3
845.228	904.4739	57596.65	56644
845.3732	906.5052	57731.8	56781.7
845.5183	908.5358	57235.1	56280.85
845.6635	910.5658	56897.05	55944
845.8086	912.595	56807.8	55856.2
845.9538	914.6236	56127.3	55175.25
846.0989	916.6515	57065.45	56114.1
846.2441	918.6786	55843.85	54891.2
846.3892	920.7051	56134.1	55181.15
846.5344	922.7309	56070.65	55119.8
846.6795	924.756	56163.35	55211.7
846.8246	926.7804	55893.55	54942.05
846.9698	928.8041	55283.95	54332.8
847.1149	930.8272	55634.15	54679.75
847.2601	932.8495	55430.35	54475.55
847.4052	934.8711	54860.85	53908.25
847.5504	936.892	54548.05	53595
847.6955	938.9123	54368.95	53417.1
847.8407	940.9318	53960.7	53007.7
847.9858	942.9506	53746.55	52795.6
848.131	944.9688	53625.35	52675.85
848.2761	946.9862	53043.8	52090.35
848.4213	949.003	53109.5	52156
848.5664	951.019	52537.25	51586.55
848.7115	953.0344	52675.2	51723.4
848.8567	955.0491	52557.1	51606.05
849.0018	957.063	52685.4	51732.25
849.147	959.0763	52719.2	51758.9
849.2921	961.0888	52449.4	51496.95
849.4373	963.1007	52617.95	51668.2
849.5824	965.1119	52480.55	51538
849.7275	967.1223	52338.35	51402.15
849.8727	969.1321	52422.75	51486.4
850.0178	971.1412	52067.7	51125.9
850.1629	973.1495	51832.2	50881.45
850.3081	975.1572	51975.8	50993.5
850.4532	977.1641	51877	50927.5
850.5983	979.1704	51623.65	50671.75
850.7435	981.1759	51543	50588.95
850.8886	983.1808	51454.9	50503.1
851.0337	985.1849	51438.55	50475.5
851.1788	987.1884	51458.3	50504.7
851.324	989.1911	51699.65	50752.3
851.4691	991.1932	51456.15	50507.9
851.6142	993.1945	51415.4	50465.6
851.7593	995.1951	51178	50225.75
851.9045	997.1951	50918.4	49961.55
852.0496	999.1943	50610.4	49660.55
852.1947	1001.1928	50394.95	49443.2
852.3398	1003.1906	50312.85	49362.2
852.4849	1005.1877	50091.2	49139.7
852.63	1007.1841	49812.7	48861.85
852.7751	1009.1798	49531.15	48581.95
852.9202	1011.1748	49163.35	48213.8
853.0653	1013.1691	48797.2	47848.25
853.2104	1015.1627	48340.25	47392.25
853.3555	1017.1556	47912.55	46964.35
853.5006	1019.1477	47738.35	46788.7
853.6457	1021.1392	47366.3	46424.8
853.7908	1023.1299	47181.3	46242.8
853.9359	1025.12	47055	46119.15
854.081	1027.1093	46852.1	45927.95
854.2261	1029.0979	46787.75	45866.85
854.3712	1031.0859	46599.85	45669.2
854.5163	1033.0731	46425.7	45491.25
854.6613	1035.0596	46243.75	45304.9
854.8064	1037.0454	45847.2	44900.1
854.9515	1039.0304	45614.05	44667.3
855.0965	1041.0148	45351.95	44407.75
855.2416	1042.9985	45060.35	44110.35
855.3867	1044.9814	45039.85	44096.9
855.5317	1046.9636	44789.6	43842.65
855.6768	1048.9452	44537.85	43596.8
855.8219	1050.926	44415.65	43470.8
855.9669	1052.9061	44233.6	43288.7
856.112	1054.8855	44081.85	43136.55
856.257	1056.8642	44079.1	43133.35
856.4021	1058.8421	44056.9	43110.2
856.5471	1060.8194	43911.8	42963.45
856.6921	1062.7959	43795.8	42849.45
856.8372	1064.7717	43677.2	42727.85
856.9822	1066.7469	43575.05	42625.75
857.1272	1068.7213	43347.1	42400
857.2723	1070.695	43256.65	42307.7
857.4173	1072.6679	42944.85	41998.6
857.5623	1074.6402	42796.8	41853.8
857.7073	1076.6117	42761.8	41808.25
857.8523	1078.5826	42698.25	41748.15
857.9973	1080.5527	42574.3	41625.15
858.1423	1082.5221	42563.85	41617.85
858.2873	1084.4908	42756.15	41810.5
858.4323	1086.4587	42846.85	41900
858.5773	1088.426	42910.65	41963.3
858.7223	1090.3925	42766	41815.55
858.8673	1092.3584	42576.4	41628.85
859.0123	1094.3235	42143.35	41201.5
859.1573	1096.2879	41916.8	40970.15
859.3022	1098.2515	41753.05	40807.75
859.4472	1100.2145	41720.95	40774.45
859.5922	1102.1767	41615.65	40669.9
859.7371	1104.1382	41639.5	40694.6
859.8821	1106.099	41756.35	40807.3
860.027	1108.0591	41813.45	40870.75
860.172	1110.0185	41809.2	40862.6
860.3169	1111.9771	41760.9	40817.8
860.4619	1113.9351	41321.65	40375.6
860.6068	1115.8923	40845.05	39900.6
860.7517	1117.8488	40376.25	39429.6
860.8967	1119.8045	39945.4	39000.85
861.0416	1121.7596	39741.6	38796.15
861.1865	1123.7139	39459.9	38516.8
861.3314	1125.6675	39356.2	38411.6
861.4763	1127.6204	39416.4	38474
861.6212	1129.5726	39321.95	38376.9
861.7661	1131.524	39296.75	38357.05
861.911	1133.4748	39203.85	38260.15
862.0559	1135.4248	39132.1	38188.25
862.2008	1137.3741	39088	38144.3
862.3457	1139.3226	38993.7	38048.4
862.4905	1141.2705	38910.1	37969.1
862.6354	1143.2176	38601.9	37651.7
862.7803	1145.164	38600.35	37653.3
862.9251	1147.1097	38520.4	37576.75
863.07	1149.0546	38444.85	37498.95
863.2148	1150.9989	38330	37388.2
863.3597	1152.9424	38094.6	37151.65
863.5045	1154.8852	37758.95	36815.25
863.6493	1156.8272	37552.45	36610.2
863.7942	1158.7686	37431.45	36480.15
863.939	1160.7092	37287.6	36343.4
864.0838	1162.6491	37094.75	36149
864.2286	1164.5883	37088.45	36147.9
864.3734	1166.5267	37046.35	36102.65
864.5182	1168.4644	37101.25	36157.6
864.663	1170.4014	37183	36240.55
864.8078	1172.3377	37380.95	36440.7
864.9526	1174.2732	37498.05	36557.9
865.0974	1176.2081	37618.3	36678.65
865.2421	1178.1421	37674.15	36728.5
865.3869	1180.0755	37755.25	36814.8
865.5317	1182.0082	37619.6	36679.8
865.6764	1183.9401	37416.5	36475.8
865.8212	1185.8713	37135.1	36199.15
865.9659	1187.8017	36778.5	35845.7
866.1106	1189.7315	36494.25	35567.35
866.2554	1191.6605	35976.2	35049.4
866.4001	1193.5888	35710.95	34783.4
866.5448	1195.5163	35589.3	34656.25
866.6895	1197.4432	35317	34380.15
866.8342	1199.3693	35156.9	34216.85
866.9789	1201.2947	34997.6	34051.85
867.1236	1203.2193	34837.35	33896.65
867.2683	1205.1432	34776.05	33834.95
867.413	1207.0664	34726.9	33786.5
867.5576	1208.9889	34660.1	33717.8
867.7023	1210.9106	34591.35	33652.65
867.847	1212.8316	34567.3	33630.55
867.9916	1214.7519	34548.45	33600.2
868.1363	1216.6715	34488.05	33548.75
868.2809	1218.5903	34351.7	33413.15
