Software Version:	3.9.2.0
Unit SN:	10000200
Spectrometer SN:	6960
Date:	3/26/2024 1:53:48 PM
Data Line Index:	25
Spectral Points:	2048
Integration time (ms):	125
Averages:	20
Delay (ms):	30000
Sequence Number:	1
Processing:	dark subtract
Laser Power (mW):	305
Laser Current (mA):	822
Laser Diode Temp (C):	25
Laser Case Temp (C):	27.3
System Temp (C):	27.3
Spectrometer Temp (C):	25.2
CCD Temp (C):	0.009
Secondary Temp (C):	20.01
Heatsink Temp (C):	22.503
CCDPCB Temp (C):	36.752
SecondaryPCB Temp (C):	34.395

Wavelength	RamanShift	Raw Counts	Dark Subtracted
787.061	30.1047	602.35	193.15
787.2016	32.3739	609.7	201.35
787.3422	34.6426	622.2	214.2
787.4828	36.9109	638.05	227.6
787.6235	39.1787	656.95	242.85
787.7642	41.4461	677.35	258.2
787.9049	43.7131	698.7	276.25
788.0456	45.9796	713.9	286.65
788.1863	48.2456	740.3	306.95
788.3271	50.5112	755.65	319.05
788.4679	52.7764	775.7	338.5
788.6087	55.0411	810.2	369.25
788.7496	57.3054	835.4	390.55
788.8904	59.5692	856.65	408.05
789.0313	61.8326	886.6	433.85
789.1722	64.0955	921.75	463.2
789.3132	66.3579	965.1	502.6
789.4541	68.6199	1016.75	552.35
789.5951	70.8815	1093.95	628.45
789.7361	73.1426	1273.2	801.25
789.8771	75.4032	1701.5	1223.35
790.0181	77.6634	2787.05	2302.05
790.1592	79.9231	5451.5	4958.95
790.3003	82.1824	11571.6	11062.65
790.4414	84.4412	24030.3	23487.4
790.5825	86.6995	46311.45	45722.55
790.7237	88.9574	58893.5	58264.4
790.8648	91.2148	63062.85	62405.4
791.006	93.4717	63674.5	62998.35
791.1472	95.7282	63892.55	63205.45
791.2885	97.9842	63962.45	63273.85
791.4297	100.2398	63928	63232.2
791.571	102.4949	63875.6	63179.55
791.7123	104.7495	63874.5	63175.7
791.8536	107.0036	63766.1	63069.75
791.9949	109.2573	63832.65	63131.55
792.1363	111.5105	63705.4	63007.45
792.2777	113.7632	63708.25	63006
792.4191	116.0154	63719.4	63005.2
792.5605	118.2672	63759.1	63053
792.7019	120.5185	63746.4	63039.1
792.8434	122.7693	63737.5	63026.8
792.9849	125.0197	63620.7	62908.45
793.1264	127.2696	63805.2	63090.9
793.2679	129.519	63771.1	63049.95
793.4094	131.7679	63830.85	63107.15
793.551	134.0163	63602.35	62875.7
793.6926	136.2642	63694.1	62965.05
793.8342	138.5117	63800.7	63063.95
793.9758	140.7587	63725.2	62992.05
794.1175	143.0052	63706.75	62970.55
794.2591	145.2512	63575.2	62840.35
794.4008	147.4967	63728.2	62989.7
794.5425	149.7417	63677.25	62936.85
794.6842	151.9863	63646.25	62903.75
794.826	154.2304	63568.65	62823.35
794.9677	156.4739	63617.9	62862.35
795.1095	158.717	63702.7	62946.45
795.2513	160.9596	63620.4	62858.9
795.3931	163.2017	63485.7	62729.65
795.535	165.4433	63595.35	62834.1
795.6768	167.6844	63474.3	62713.7
795.8187	169.925	63558.05	62798.55
795.9606	172.1651	63454.95	62694.7
796.1025	174.4047	63468.55	62700.25
796.2445	176.6439	63433.6	62662.8
796.3864	178.8825	63352.55	62579.4
796.5284	181.1206	63516	62740.4
796.6704	183.3582	63464.5	62688.15
796.8124	185.5954	63380.9	62597.2
796.9544	187.832	63386.85	62605.6
797.0965	190.0681	63275.15	62486.95
797.2386	192.3037	63456.5	62666.15
797.3806	194.5388	63584.55	62789.4
797.5228	196.7734	63181.55	62379.85
797.6649	199.0075	63582.7	62782.85
797.807	201.2411	63467.35	62660.4
797.9492	203.4742	63630.15	62824.8
798.0914	205.7068	63599.65	62791.75
798.2336	207.9389	63596.55	62787.75
798.3758	210.1704	63588.1	62779.85
798.518	212.4015	63697.6	62888.85
798.6603	214.632	63559.65	62750.9
798.8025	216.862	63708.9	62905.25
798.9448	219.0915	63633.4	62843.4
799.0871	221.3205	63635.15	62843.55
799.2294	223.549	63742.35	62950.3
799.3718	225.777	63743.5	62956
799.5141	228.0044	63802.9	63010.15
799.6565	230.2314	63778.35	62993.45
799.7989	232.4578	63790.9	63002.9
799.9413	234.6837	63822.3	63022.2
800.0837	236.909	64006.5	63208.25
800.2262	239.1339	63737.35	62914.45
800.3687	241.3582	63836.7	63026.55
800.5111	243.582	63832.05	62996.7
800.6536	245.8053	63843.55	63017.2
800.7961	248.0281	63839.4	63017.35
800.9387	250.2503	63850.45	63023.9
801.0812	252.472	63763.3	62930.35
801.2238	254.6932	63818.2	62984.85
801.3664	256.9139	63786.15	62952.05
801.509	259.134	63976	63139.25
801.6516	261.3536	63758.15	62923.2
801.7942	263.5727	63881.4	63040.25
801.9369	265.7912	63833.7	62997.5
802.0795	268.0092	63858.6	63019.3
802.2222	270.2267	63889.1	63057.4
802.3649	272.4436	63811.45	62975.9
802.5076	274.6601	63884	63038.2
802.6504	276.8759	63912.2	63075.15
802.7931	279.0913	63843.95	63004
802.9359	281.3061	63854.95	63012.3
803.0787	283.5204	63864.55	63013.8
803.2215	285.7341	63854.9	63004.65
803.3643	287.9473	63947.75	63087.95
803.5071	290.16	63884.2	63031
803.6499	292.3721	63940.1	63087.65
803.7928	294.5837	63885.15	63029.55
803.9357	296.7947	63851.9	63001.35
804.0786	299.0052	63983	63130.8
804.2215	301.2152	63919.35	63065.15
804.3644	303.4246	63952.85	63101.85
804.5074	305.6334	63941.15	63091.3
804.6503	307.8418	63804.1	62952.45
804.7933	310.0495	63810.3	62958.6
804.9363	312.2568	63769.2	62911.55
805.0793	314.4635	63748.7	62894.45
805.2223	316.6696	63783.75	62923.85
805.3653	318.8752	63832.5	62968.8
805.5084	321.0802	63640	62783.05
805.6514	323.2847	63727.15	62865.8
805.7945	325.4887	63719.05	62859.1
805.9376	327.692	63669.3	62801.75
806.0807	329.8949	63714.2	62852.4
806.2238	332.0972	63665.05	62799.7
806.367	334.2989	63665.95	62798.85
806.5101	336.5001	63696.55	62829.35
806.6533	338.7007	63553.15	62682.35
806.7965	340.9008	63631.85	62760.05
806.9397	343.1003	63630.7	62759.5
807.0829	345.2992	63669.2	62798.45
807.2261	347.4976	63596.65	62724.8
807.3693	349.6955	63596.85	62720.5
807.5126	351.8927	63572.2	62694.75
807.6559	354.0895	63608.15	62722
807.7991	356.2856	63592.1	62714.05
807.9424	358.4812	63659.6	62782.4
808.0857	360.6763	63566.15	62686.65
808.2291	362.8707	63651.4	62770.2
808.3724	365.0646	63595.95	62714.75
808.5158	367.258	63586.35	62703.85
808.6591	369.4508	63512.05	62622.65
808.8025	371.643	63642.3	62753.95
808.9459	373.8346	63585.05	62696.7
809.0893	376.0257	63580	62686.6
809.2327	378.2162	63544.8	62657
809.3762	380.4062	63484.55	62591.75
809.5196	382.5956	63539.15	62643.9
809.6631	384.7844	63521.4	62631.95
809.8066	386.9726	63536.6	62642.05
809.9501	389.1603	63513.5	62620.65
810.0936	391.3474	63438.65	62507.35
810.2371	393.5339	63496.7	62608.4
810.3806	395.7199	63393.25	62506
810.5241	397.9052	63413.8	62528.75
810.6677	400.09	63434.55	62556.2
810.8113	402.2743	63493.8	62612.65
810.9548	404.4579	63415.45	62533.95
811.0984	406.641	63436.35	62550.6
811.2421	408.8235	63488.25	62608
811.3857	411.0054	63509.7	62628.35
811.5293	413.1868	63523.6	62637.75
811.673	415.3675	63509.55	62621.3
811.8166	417.5477	63523.45	62632.5
811.9603	419.7273	63525.3	62632.15
812.104	421.9064	63506.5	62609.95
812.2477	424.0848	63500.95	62606.1
812.3914	426.2627	63523.15	62630.85
812.5351	428.4399	63429.9	62537.5
812.6788	430.6166	63309.25	62406.4
812.8226	432.7928	63392.1	62492
812.9663	434.9683	63288.3	62388.8
813.1101	437.1432	63260.8	62364.3
813.2539	439.3176	63304.4	62411.5
813.3977	441.4914	63141.75	62250.7
813.5415	443.6645	63196.25	62300.4
813.6853	445.8371	63206.95	62306.95
813.8291	448.0091	63108.15	62210.8
813.973	450.1806	63034.75	62138.25
814.1168	452.3514	63065.25	62169.15
814.2607	454.5216	62957	62054.85
814.4046	456.6913	63066.7	62164.5
814.5485	458.8603	63112.3	62214.7
814.6924	461.0288	62952.75	62057.9
814.8363	463.1967	63100.55	62210
814.9802	465.3639	63069	62170.6
815.1241	467.5306	62781.25	61882.65
815.2681	469.6967	62974.45	62078.75
815.412	471.8622	63055.85	62164.65
815.556	474.0271	62960.3	62064.7
815.7	476.1914	62969.8	62064.8
815.844	478.3551	63004.95	62105
815.988	480.5182	63148.25	62249.5
816.132	482.6807	62934.15	62039.45
816.276	484.8426	62990.1	62104.2
816.4201	487.0039	63182.55	62290.65
816.5641	489.1647	63208.1	62311.25
816.7082	491.3248	63038.65	62137.25
816.8522	493.4843	63253.15	62356.05
816.9963	495.6432	63258.35	62360.65
817.1404	497.8015	63010.85	62104.7
817.2845	499.9592	63156.25	62251.1
817.4286	502.1163	63124.15	62214.75
817.5727	504.2728	63075.65	62170.25
817.7168	506.4287	63029.85	62134.25
817.861	508.5839	62881.45	61985.05
818.0051	510.7386	62982.85	62083.65
818.1493	512.8927	62977.3	62069.55
818.2935	515.0461	62913.95	62010.1
818.4377	517.199	63029.8	62122.85
818.5818	519.3512	62883.6	61975.9
818.726	521.5029	62894.85	61985.25
818.8703	523.6539	62914.8	62007.8
819.0145	525.8043	62724.65	61813.7
819.1587	527.9541	62899.95	61988.45
819.303	530.1033	62920.25	62013.45
819.4472	532.2519	62805.6	61898.9
819.5915	534.3999	62961.1	62050.4
819.7357	536.5472	63015.5	62108.4
819.88	538.694	62804.5	61898.15
820.0243	540.8401	62989.8	62082.05
820.1686	542.9856	63062.85	62142.45
820.3129	545.1305	63123.6	62203.65
820.4572	547.2748	62961	62038.75
820.6016	549.4185	62919.4	61991.9
820.7459	551.5615	63035.8	62115.25
820.8902	553.704	62975.9	62054.3
821.0346	555.8458	62863.6	61948.1
821.1789	557.987	62905.95	61991.6
821.3233	560.1276	62968.45	62051.25
821.4677	562.2675	62920.5	61999.4
821.6121	564.4069	62972	62053.25
821.7565	566.5456	63074.35	62162.7
821.9009	568.6837	62890.6	61972.85
822.0453	570.8212	62900.2	61982.45
822.1897	572.958	62627.1	61714.05
822.3342	575.0942	62772	61859.75
822.4786	577.2299	62587.5	61679.75
822.6231	579.3648	62544.35	61641.55
822.7675	581.4992	62482.2	61584.85
822.912	583.6329	62485.7	61592.1
823.0565	585.766	62515.6	61615.3
823.201	587.8985	62571	61666.65
823.3454	590.0304	62313.05	61378.45
823.4899	592.1616	62547	61632.95
823.6345	594.2922	62393.15	61472.6
823.779	596.4222	62198.2	61277.35
823.9235	598.5515	62233.7	61313.45
824.068	600.6802	62357.85	61439.05
824.2126	602.8083	62063.85	61145.85
824.3571	604.9358	62028.3	61107.85
824.5017	607.0626	62215.05	61294.85
824.6462	609.1888	61829.7	60904.55
824.7908	611.3144	62119.3	61193.5
824.9354	613.4393	61987.1	61059.1
825.08	615.5636	61735.8	60808.1
825.2246	617.6873	62000.45	61077.6
825.3692	619.8103	61635.1	60712.25
825.5138	621.9327	61985.65	61061.9
825.6584	624.0544	61977.25	61059.95
825.803	626.1756	61769.85	60851.95
825.9477	628.2961	61741.95	60823.75
826.0923	630.4159	61574.45	60653.55
826.237	632.5351	61465.2	60541.05
826.3816	634.6537	61989.75	61066.5
826.5263	636.7716	61411.9	60483.6
826.6709	638.8889	61568.9	60635.9
826.8156	641.0056	61509.25	60578.4
826.9603	643.1216	61619.65	60688.4
827.105	645.237	61754.1	60826.1
827.2497	647.3518	61375.8	60455.65
827.3944	649.4659	61489.75	60570.1
827.5391	651.5793	61494.6	60575.25
827.6838	653.6922	61605.5	60686.85
827.8285	655.8043	61137.75	60217.8
827.9733	657.9159	61694.95	60774.05
828.118	660.0268	60704.3	59784.05
828.2627	662.137	61277.05	60348.3
828.4075	664.2466	61363	60435.25
828.5522	666.3556	61137.85	60210.2
828.697	668.4639	61284.05	60354.55
828.8418	670.5716	61050.25	60129.8
828.9865	672.6786	61255.6	60327.95
829.1313	674.785	60939.4	60008.45
829.2761	676.8907	60979.7	60051.4
829.4209	678.9958	61125.85	60201.2
829.5657	681.1002	61171	60245.35
829.7105	683.204	60855.75	59921.9
829.8553	685.3072	60703.7	59771.85
830.0001	687.4097	60788.6	59859.1
830.1449	689.5115	60656.5	59724.7
830.2898	691.6127	60964.55	60039.05
830.4346	693.7132	60658.35	59734.6
830.5794	695.8131	60750.55	59809.2
830.7243	697.9123	60797.05	59864.65
830.8691	700.0109	60806.65	59873.45
831.014	702.1089	60418.05	59490.8
831.1588	704.2061	60554.1	59623.15
831.3037	706.3028	60581.2	59651.55
831.4486	708.3987	60669.5	59736.05
831.5935	710.4941	60498.85	59567.1
831.7383	712.5887	60716.35	59789.4
831.8832	714.6827	60609.8	59679.25
832.0281	716.7761	60830.7	59906.55
832.173	718.8688	60930.7	60000.15
832.3179	720.9608	60669.1	59736.05
832.4628	723.0522	60716.2	59777.65
832.6077	725.1429	60471.1	59536.1
832.7527	727.233	61138.7	60205.05
832.8976	729.3224	60017.85	59086.6
833.0425	731.4112	60374.15	59445.6
833.1874	733.4993	60326.75	59393.95
833.3324	735.5867	60292.25	59362.35
833.4773	737.6735	60024.25	59091.95
833.6222	739.7596	59709.75	58775.95
833.7672	741.845	59689.6	58758.6
833.9122	743.9298	60059.15	59122.65
834.0571	746.014	59668.35	58738.15
834.2021	748.0974	59344.05	58407.8
834.347	750.1802	59943.25	59004.3
834.492	752.2624	59157	58223.1
834.637	754.3439	59257.45	58321.7
834.782	756.4247	59459.7	58514.45
834.9269	758.5048	59196.85	58262.6
835.0719	760.5843	59412.8	58472.1
835.2169	762.6631	59609.85	58674.7
835.3619	764.7413	59613.7	58678.95
835.5069	766.8188	59809.1	58871.7
835.6519	768.8956	60098.25	59160.85
835.7969	770.9718	60094.85	59160.8
835.9419	773.0473	59938.4	59001.3
836.0869	775.1221	59488.6	58555.5
836.232	777.1962	59436.65	58500.95
836.377	779.2697	58968	58028.5
836.522	781.3426	59243.25	58294.8
836.667	783.4147	59357.2	58417.85
836.8121	785.4862	59274.75	58340.65
836.9571	787.557	58924.6	57989.35
837.1021	789.6271	59203.45	58267
837.2472	791.6966	58642.9	57707.05
837.3922	793.7654	58091.4	57152.55
837.5373	795.8335	58008.25	57074.05
837.6823	797.901	57982.65	57044.05
837.8274	799.9678	57723.1	56780.35
837.9724	802.0339	57638.8	56704.5
838.1175	804.0993	57704.55	56755.15
838.2626	806.1641	57515.05	56576.35
838.4076	808.2282	57381.75	56444.9
838.5527	810.2916	57278.6	56336.45
838.6978	812.3544	57474.2	56540.05
838.8428	814.4164	56912.75	55978.2
838.9879	816.4778	57070.8	56128.85
839.133	818.5385	57034.95	56092.15
839.2781	820.5986	57052.7	56108.35
839.4232	822.658	57173.75	56232
839.5682	824.7166	57291.7	56355.05
839.7133	826.7747	57008.15	56071.5
839.8584	828.832	57332.4	56395.4
840.0035	830.8886	57614.95	56675.35
840.1486	832.9446	57614.7	56672
840.2937	834.9999	56881.65	55944.55
840.4388	837.0545	57149.45	56209.75
840.5839	839.1085	57201.6	56259.7
840.729	841.1618	56956.55	56015.05
840.8741	843.2143	56452.2	55515.65
841.0192	845.2662	56313.6	55376.15
841.1643	847.3175	56480.75	55544.8
841.3095	849.368	55875.05	54937.5
841.4546	851.4179	56237.6	55299.35
841.5997	853.467	55802.1	54864.05
841.7448	855.5155	55945.4	55007.45
841.8899	857.5633	55565.05	54624.6
842.0351	859.6105	55333.55	54395.65
842.1802	861.6569	55515.6	54576.6
842.3253	863.7027	55035.35	54094.75
842.4704	865.7478	55231.8	54290.25
842.6156	867.7922	55077.6	54139.05
842.7607	869.8359	55256.55	54319.75
842.9058	871.8789	54757.05	53813.1
843.0509	873.9212	55088.5	54117.85
843.1961	875.9629	55143.4	54203.65
843.3412	878.0039	55101.9	54159.05
843.4863	880.0441	54988.95	54049.6
843.6315	882.0837	54963.7	54022.75
843.7766	884.1226	54951.85	54010
843.9218	886.1609	54857.65	53917.9
844.0669	888.1984	54637.1	53700.05
844.212	890.2352	55037.2	54097.2
844.3572	892.2714	54550.8	53603.8
844.5023	894.3069	54683.6	53745.1
844.6475	896.3416	54387	53447.8
844.7926	898.3757	54277	53337.6
844.9377	900.4091	53760.8	52817.2
845.0829	902.4418	54269	53322.55
845.228	904.4739	53921.05	52973.75
845.3732	906.5052	54058.05	53114.4
845.5183	908.5358	53726.9	52783.5
845.6635	910.5658	53486	52542.25
845.8086	912.595	53360.3	52419.15
845.9538	914.6236	52746.05	51801.55
846.0989	916.6515	53446.7	52506.7
846.2441	918.6786	52513.6	51569.55
846.3892	920.7051	52714	51768.35
846.5344	922.7309	52701.6	51760.55
846.6795	924.756	52759.65	51818.95
846.8246	926.7804	52537.35	51592.55
846.9698	928.8041	51918.2	50978.15
847.1149	930.8272	52302.95	51359.2
847.2601	932.8495	52187.9	51242.3
847.4052	934.8711	51750.35	50807.75
847.5504	936.892	51486.2	50544.5
847.6955	938.9123	51561.75	50618.6
847.8407	940.9318	51278.35	50336.55
847.9858	942.9506	51146.2	50205.1
848.131	944.9688	51114.7	50171.05
848.2761	946.9862	50525.95	49585.4
848.4213	949.003	50563.45	49619.75
848.5664	951.019	50113.6	49173.55
848.7115	953.0344	50120.25	49181.15
848.8567	955.0491	50045.35	49100
849.0018	957.063	50152.35	49209.8
849.147	959.0763	50292.9	49347.2
849.2921	961.0888	49938.95	48996.1
849.4373	963.1007	50187.35	49248.25
849.5824	965.1119	50070.95	49135.5
849.7275	967.1223	49840.7	48911.85
849.8727	969.1321	49991.3	49059.65
850.0178	971.1412	49651.8	48718.1
850.1629	973.1495	49468.6	48529.1
850.3081	975.1572	49616.55	48637.1
850.4532	977.1641	49454.05	48512.15
850.5983	979.1704	49249.95	48308.1
850.7435	981.1759	49186.7	48243.25
850.8886	983.1808	49022.2	48081.35
851.0337	985.1849	48987.1	48035.8
851.1788	987.1884	49011.75	48071.35
851.324	989.1911	49194.9	48255.05
851.4691	991.1932	48822.85	47883.9
851.6142	993.1945	48783.25	47845.9
851.7593	995.1951	48702.85	47760.4
851.9045	997.1951	48495.45	47545.9
852.0496	999.1943	48228.75	47288.5
852.1947	1001.1928	48089.35	47151.65
852.3398	1003.1906	48073.45	47134.7
852.4849	1005.1877	47851.85	46911.2
852.63	1007.1841	47675.3	46737.5
852.7751	1009.1798	47576.4	46635.75
852.9202	1011.1748	47385.7	46447.2
853.0653	1013.1691	47111.05	46170
853.2104	1015.1627	46576	45636.15
853.3555	1017.1556	46282.4	45349.1
853.5006	1019.1477	46284.25	45347.7
853.6457	1021.1392	45811.7	44879.8
853.7908	1023.1299	45541.95	44611.55
853.9359	1025.12	45531.6	44604.4
854.081	1027.1093	45348.25	44429.1
854.2261	1029.0979	45335.6	44417.95
854.3712	1031.0859	45224.9	44302.75
854.5163	1033.0731	45011.35	44080.3
854.6613	1035.0596	44901.2	43969.15
854.8064	1037.0454	44605.95	43672.85
854.9515	1039.0304	44408.8	43468.95
855.0965	1041.0148	44053.8	43116.4
855.2416	1042.9985	43918.25	42982.35
855.3867	1044.9814	43878.8	42943.5
855.5317	1046.9636	43608.7	42674.55
855.6768	1048.9452	43504.65	42566.5
855.8219	1050.926	43471.95	42538.55
855.9669	1052.9061	43393.1	42457.7
856.112	1054.8855	43300.45	42361.1
856.257	1056.8642	43188.5	42253.25
856.4021	1058.8421	43144.35	42202.2
856.5471	1060.8194	43043.65	42103.9
856.6921	1062.7959	42976.4	42037.6
856.8372	1064.7717	42996.55	42058.05
856.9822	1066.7469	42871.05	41933.9
857.1272	1068.7213	42796.1	41857.8
857.2723	1070.695	42753.25	41817.35
857.4173	1072.6679	42546.35	41610.25
857.5623	1074.6402	42437.7	41499.7
857.7073	1076.6117	42417.3	41476.3
857.8523	1078.5826	42284.4	41346.8
857.9973	1080.5527	42086.15	41147.8
858.1423	1082.5221	41999.85	41063.85
858.2873	1084.4908	42034.95	41099.05
858.4323	1086.4587	41976.75	41039.15
858.5773	1088.426	42023.75	41088.5
858.7223	1090.3925	41802.05	40857.7
858.8673	1092.3584	41773.45	40838.3
859.0123	1094.3235	41481.8	40546.05
859.1573	1096.2879	41393.25	40456.6
859.3022	1098.2515	41371.05	40433.15
859.4472	1100.2145	41451.05	40514.55
859.5922	1102.1767	41323.1	40388
859.7371	1104.1382	41472.85	40535.8
859.8821	1106.099	41530.4	40596.9
860.027	1108.0591	41581.6	40647.8
860.172	1110.0185	41585.35	40648.15
860.3169	1111.9771	41613.85	40678.2
860.4619	1113.9351	41252.85	40317.9
860.6068	1115.8923	40975	40041.45
860.7517	1117.8488	40710	39769.3
860.8967	1119.8045	40328.3	39393.65
861.0416	1121.7596	40206.15	39271.35
861.1865	1123.7139	40038.7	39106.45
861.3314	1125.6675	39931.1	38999.7
861.4763	1127.6204	39969.85	39037.4
861.6212	1129.5726	39761.65	38824.5
861.7661	1131.524	39694.65	38759.55
861.911	1133.4748	39575.15	38639.4
862.0559	1135.4248	39324.45	38387.2
862.2008	1137.3741	39216.45	38281.95
862.3457	1139.3226	39055.1	38119.4
862.4905	1141.2705	39000.4	38067.45
862.6354	1143.2176	38726.45	37785.25
862.7803	1145.164	38701.3	37768.3
862.9251	1147.1097	38554.75	37620.85
863.07	1149.0546	38453.35	37517.1
863.2148	1150.9989	38327.7	37393.7
863.3597	1152.9424	38246.2	37310.45
863.5045	1154.8852	38001.2	37067.6
863.6493	1156.8272	37973.65	37038.7
863.7942	1158.7686	37923.25	36978
863.939	1160.7092	37768.2	36831.5
864.0838	1162.6491	37655.8	36718.1
864.2286	1164.5883	37676.6	36742.1
864.3734	1166.5267	37619.75	36685.7
864.5182	1168.4644	37701.8	36766.75
864.663	1170.4014	37762.6	36826.8
864.8078	1172.3377	37985.2	37054.5
864.9526	1174.2732	38109.35	37174.25
865.0974	1176.2081	38282.45	37349.35
865.2421	1178.1421	38488.25	37546.55
865.3869	1180.0755	38791.5	37860.55
