Software Version:	3.9.2.0
Unit SN:	10000200
Spectrometer SN:	6960
Date:	3/26/2024 1:13:17 PM
Data Line Index:	25
Spectral Points:	2048
Integration time (ms):	125
Averages:	20
Delay (ms):	30000
Sequence Number:	1
Processing:	dark subtract
Laser Power (mW):	305
Laser Current (mA):	818
Laser Diode Temp (C):	25
Laser Case Temp (C):	26.3
System Temp (C):	26.2
Spectrometer Temp (C):	24
CCD Temp (C):	0.007
Secondary Temp (C):	20.006
Heatsink Temp (C):	21.925
CCDPCB Temp (C):	36.318
SecondaryPCB Temp (C):	32.45

Wavelength	RamanShift	Raw Counts	Dark Subtracted
787.061	30.1047	425.95	14.8
787.2016	32.3739	423.75	14
787.3422	34.6426	424.8	13.4
787.4828	36.9109	427.4	14
787.6235	39.1787	432	14.45
787.7642	41.4461	439.85	17.9
787.9049	43.7131	442.65	16.75
788.0456	45.9796	449	19.85
788.1863	48.2456	454	22.4
788.3271	50.5112	461.4	23.8
788.4679	52.7764	463.3	25.55
788.6087	55.0411	469.65	29.05
788.7496	57.3054	476.05	29.35
788.8904	59.5692	476.7	28.05
789.0313	61.8326	485.1	33.8
789.1722	64.0955	492.1	34.6
789.3132	66.3579	501.75	39.25
789.4541	68.6199	510.65	49.8
789.5951	70.8815	519.7	54.75
789.7361	73.1426	545.9	77.1
789.8771	75.4032	598.45	125.65
790.0181	77.6634	716.95	237.4
790.1592	79.9231	1003.9	521.75
790.3003	82.1824	1607.1	1120.3
790.4414	84.4412	2638.8	2147.1
790.5825	86.6995	4063.75	3565.5
790.7237	88.9574	5445.95	4940.1
790.8648	91.2148	6502.75	5996.6
791.006	93.4717	7066.75	6555.95
791.1472	95.7282	7309	6793.2
791.2885	97.9842	7379.1	6861.7
791.4297	100.2398	7401.45	6882.55
791.571	102.4949	7365.55	6841.7
791.7123	104.7495	7336.95	6811.1
791.8536	107.0036	7305.05	6777.4
791.9949	109.2573	7274.45	6747.9
792.1363	111.5105	7245.05	6717.15
792.2777	113.7632	7168.4	6637.5
792.4191	116.0154	7116.45	6575.8
792.5605	118.2672	7055.4	6522.35
792.7019	120.5185	7026.35	6492.85
792.8434	122.7693	6965.25	6428.45
792.9849	125.0197	6928.3	6386.8
793.1264	127.2696	6872.9	6326.1
793.2679	129.519	6842.3	6295.3
793.4094	131.7679	6824	6274.9
793.551	134.0163	6831	6278.6
793.6926	136.2642	6803.25	6245.5
793.8342	138.5117	6796.2	6228.25
793.9758	140.7587	6758.85	6198.45
794.1175	143.0052	6752.1	6186.65
794.2591	145.2512	6706.3	6142.45
794.4008	147.4967	6647.3	6083
794.5425	149.7417	6633.2	6064.95
794.6842	151.9863	6590.25	6015.7
794.826	154.2304	6585.9	6010.95
794.9677	156.4739	6557.3	5977.95
795.1095	158.717	6569.55	5990.25
795.2513	160.9596	6575.7	5989.4
795.3931	163.2017	6584	5997.85
795.535	165.4433	6580.45	5991.25
795.6768	167.6844	6578.65	5986.9
795.8187	169.925	6537.7	5943.35
795.9606	172.1651	6496.1	5897.65
796.1025	174.4047	6464.05	5862.2
796.2445	176.6439	6419.7	5814.55
796.3864	178.8825	6393.45	5787.15
796.5284	181.1206	6388.9	5778.35
796.6704	183.3582	6381.2	5765.8
796.8124	185.5954	6370.4	5755.35
796.9544	187.832	6359.9	5739.1
797.0965	190.0681	6371.4	5750.65
797.2386	192.3037	6367.3	5744.1
797.3806	194.5388	6367.5	5740.45
797.5228	196.7734	6370.5	5739.4
797.6649	199.0075	6358.35	5725.35
797.807	201.2411	6370	5731.4
797.9492	203.4742	6400.7	5764.4
798.0914	205.7068	6431.2	5795.45
798.2336	207.9389	6428.55	5789.35
798.3758	210.1704	6437.15	5792.45
798.518	212.4015	6433.85	5787.2
798.6603	214.632	6433.15	5786.85
798.8025	216.862	6429.1	5793.4
798.9448	219.0915	6431.25	5805.15
799.0871	221.3205	6428.3	5801.25
799.2294	223.549	6418.2	5792.55
799.3718	225.777	6430.5	5805.6
799.5141	228.0044	6420.95	5792.5
799.6565	230.2314	6435.35	5810.85
799.7989	232.4578	6387.05	5760.4
799.9413	234.6837	6395.05	5759.45
800.0837	236.909	6379.75	5744.65
800.2262	239.1339	6393.2	5734.15
800.3687	241.3582	6359.55	5712.75
800.5111	243.582	6372.05	5695.1
800.6536	245.8053	6366.05	5700.2
800.7961	248.0281	6353.3	5694.4
800.9387	250.2503	6353.55	5689.35
801.0812	252.472	6349.7	5680.1
801.2238	254.6932	6355.5	5680.65
801.3664	256.9139	6360.3	5683.95
801.509	259.134	6333.85	5654.65
801.6516	261.3536	6361.05	5687.1
801.7942	263.5727	6387.9	5710.75
801.9369	265.7912	6379.85	5703.45
802.0795	268.0092	6416.7	5740.4
802.2222	270.2267	6431.7	5751.45
802.3649	272.4436	6470.35	5788.1
802.5076	274.6601	6483	5792.6
802.6504	276.8759	6494.25	5811.6
802.7931	279.0913	6522	5833.9
802.9359	281.3061	6518.45	5828.8
803.0787	283.5204	6528.7	5838.1
803.2215	285.7341	6553.95	5860.75
803.3643	287.9473	6559.85	5851.85
803.5071	290.16	6549.55	5847.7
803.6499	292.3721	6505.4	5810.3
803.7928	294.5837	6479.25	5781.95
803.9357	296.7947	6451.35	5753.9
804.0786	299.0052	6442.6	5745.95
804.2215	301.2152	6414.55	5713.4
804.3644	303.4246	6407.6	5710.75
804.5074	305.6334	6377.7	5680.75
804.6503	307.8418	6348.4	5646.9
804.7933	310.0495	6347.1	5645.65
804.9363	312.2568	6309.5	5607.8
805.0793	314.4635	6243.45	5538
805.2223	316.6696	6223.45	5518.15
805.3653	318.8752	6185.25	5471.2
805.5084	321.0802	6135.15	5428.4
805.6514	323.2847	6121.25	5413.2
805.7945	325.4887	6124.6	5418.65
805.9376	327.692	6115.6	5405.25
806.0807	329.8949	6143.4	5431.95
806.2238	332.0972	6151.8	5439.1
806.367	334.2989	6182.55	5466.25
806.5101	336.5001	6172	5455.7
806.6533	338.7007	6140.85	5422.35
806.7965	340.9008	6114.7	5395.85
806.9397	343.1003	6070.4	5349.3
807.0829	345.2992	6044.75	5321.25
807.2261	347.4976	6009.75	5285.75
807.3693	349.6955	5967.05	5237.8
807.5126	351.8927	5980.35	5250.7
807.6559	354.0895	5941.55	5201.4
807.7991	356.2856	5930.2	5200.85
807.9424	358.4812	5910.4	5179
808.0857	360.6763	5927.05	5196.7
808.2291	362.8707	5894.9	5159.6
808.3724	365.0646	5904.95	5167.9
808.5158	367.258	5886.4	5149.05
808.6591	369.4508	5872.6	5131.15
808.8025	371.643	5917.35	5176.05
808.9459	373.8346	5909.95	5165.45
809.0893	376.0257	5946.55	5197.65
809.2327	378.2162	5958.85	5212.4
809.3762	380.4062	5970.45	5222.6
809.5196	382.5956	5944.7	5193.15
809.6631	384.7844	5922.25	5171.45
809.8066	386.9726	5843.95	5089.35
809.9501	389.1603	5811.5	5060.25
810.0936	391.3474	5808.7	5022.7
810.2371	393.5339	5785.05	5033.05
810.3806	395.7199	5770.9	5024.65
810.5241	397.9052	5787.75	5043.2
810.6677	400.09	5766.65	5022.1
810.8113	402.2743	5806.2	5062.65
810.9548	404.4579	5827.35	5082.65
811.0984	406.641	5866	5121.7
811.2421	408.8235	5891.75	5146.75
811.3857	411.0054	5934.1	5186.6
811.5293	413.1868	6036.55	5286.9
811.673	415.3675	6140.4	5387.45
811.8166	417.5477	6161.85	5407.3
811.9603	419.7273	6089.65	5332.45
812.104	421.9064	5961.65	5196.75
812.2477	424.0848	5856.15	5094.5
812.3914	426.2627	5787.05	5023.9
812.5351	428.4399	5756.95	4994.45
812.6788	430.6166	5740.6	4973.3
812.8226	432.7928	5682.15	4912.6
812.9663	434.9683	5600.7	4832.5
813.1101	437.1432	5593.3	4820.8
813.2539	439.3176	5576.7	4804.7
813.3977	441.4914	5546.3	4775.35
813.5415	443.6645	5523.5	4748.2
813.6853	445.8371	5527.7	4752.1
813.8291	448.0091	5507.85	4734.55
813.973	450.1806	5494.15	4719.95
814.1168	452.3514	5475.95	4699.55
814.2607	454.5216	5467.55	4685.3
814.4046	456.6913	5439.5	4660.9
814.5485	458.8603	5435.7	4657.65
814.6924	461.0288	5440.5	4662.7
814.8363	463.1967	5429.35	4651.4
814.9802	465.3639	5451	4672.35
815.1241	467.5306	5435.55	4653.8
815.2681	469.6967	5402.8	4621.05
815.412	471.8622	5392.6	4611.45
815.556	474.0271	5389.6	4609.9
815.7	476.1914	5388.75	4604.25
815.844	478.3551	5365.25	4582.15
815.988	480.5182	5383.8	4600.5
816.132	482.6807	5378.2	4593.45
816.276	484.8426	5391.55	4607.15
816.4201	487.0039	5429.4	4644.4
816.5641	489.1647	5447.25	4661.3
816.7082	491.3248	5493.45	4706.25
816.8522	493.4843	5495.1	4709.95
816.9963	495.6432	5495.3	4709
817.1404	497.8015	5458.8	4667.35
817.2845	499.9592	5435.4	4645.8
817.4286	502.1163	5392.65	4603.25
817.5727	504.2728	5363.05	4572.4
817.7168	506.4287	5348.95	4559
817.861	508.5839	5319.1	4527.85
818.0051	510.7386	5333.95	4545.75
818.1493	512.8927	5324.6	4525.25
818.2935	515.0461	5316.3	4523.5
818.4377	517.199	5323.4	4530.85
818.5818	519.3512	5347.2	4555.7
818.726	521.5029	5399	4599.95
818.8703	523.6539	5426.75	4631.5
819.0145	525.8043	5429.6	4633.35
819.1587	527.9541	5405.45	4606.85
819.303	530.1033	5359.05	4561.45
819.4472	532.2519	5323.05	4525.75
819.5915	534.3999	5296.2	4498.35
819.7357	536.5472	5294.8	4494.5
819.88	538.694	5287.3	4488.5
820.0243	540.8401	5323.75	4522.75
820.1686	542.9856	5328.45	4523.65
820.3129	545.1305	5321.95	4518.1
820.4572	547.2748	5340.75	4537.65
820.6016	549.4185	5320.25	4512.75
820.7459	551.5615	5335.55	4530.6
820.8902	553.704	5342.8	4535.75
821.0346	555.8458	5337.55	4529.4
821.1789	557.987	5345.2	4539.1
821.3233	560.1276	5355.75	4549.1
821.4677	562.2675	5409.2	4604.35
821.6121	564.4069	5451.3	4644.35
821.7565	566.5456	5464.8	4658.5
821.9009	568.6837	5466.25	4659.3
822.0453	570.8212	5424.55	4619.65
822.1897	572.958	5374.8	4566.75
822.3342	575.0942	5340.2	4534.6
822.4786	577.2299	5290.8	4482.65
822.6231	579.3648	5262.15	4455.25
822.7675	581.4992	5220.75	4413.45
822.912	583.6329	5201.4	4395.6
823.0565	585.766	5210.85	4401.8
823.201	587.8985	5232.9	4424.25
823.3454	590.0304	5275.4	4451.8
823.4899	592.1616	5280.65	4466.8
823.6345	594.2922	5295.05	4483.45
823.779	596.4222	5256.3	4442.6
823.9235	598.5515	5195.05	4382.25
824.068	600.6802	5175.5	4361.9
824.2126	602.8083	5125.8	4309.05
824.3571	604.9358	5114.1	4297.4
824.5017	607.0626	5092	4274.55
824.6462	609.1888	5101.25	4282.8
824.7908	611.3144	5096.95	4277.5
824.9354	613.4393	5125.75	4308.75
825.08	615.5636	5168.85	4349.5
825.2246	617.6873	5178.1	4357.9
825.3692	619.8103	5210.3	4389.8
825.5138	621.9327	5214.3	4392.15
825.6584	624.0544	5211.35	4392.5
825.803	626.1756	5146.5	4328.2
825.9477	628.2961	5117.4	4295.9
826.0923	630.4159	5084.05	4262.8
826.237	632.5351	5088.2	4266.15
826.3816	634.6537	5080.15	4257.3
826.5263	636.7716	5072	4249.25
826.6709	638.8889	5067.35	4246.3
826.8156	641.0056	5075.7	4253.8
826.9603	643.1216	5085.5	4262.6
827.105	645.237	5089.85	4262.05
827.2497	647.3518	5061.05	4236.85
827.3944	649.4659	5052	4226.75
827.5391	651.5793	5049.85	4222.65
827.6838	653.6922	5019.7	4196.3
827.8285	655.8043	4991.7	4166
827.9733	657.9159	4981.25	4155.05
828.118	660.0268	4975.05	4147.6
828.2627	662.137	4979.95	4149.85
828.4075	664.2466	4974.75	4144.35
828.5522	666.3556	4959.5	4130.75
828.697	668.4639	4962.8	4130.65
828.8418	670.5716	4949.8	4121.15
828.9865	672.6786	4948.75	4119
829.1313	674.785	4914.2	4083.45
829.2761	676.8907	4928.7	4098.2
829.4209	678.9958	4928	4098.8
829.5657	681.1002	4917.6	4085.9
829.7105	683.204	4917	4081.8
829.8553	685.3072	4916.45	4081.25
830.0001	687.4097	4904.75	4071.25
830.1449	689.5115	4907.5	4073.65
830.2898	691.6127	4890.85	4058.85
830.4346	693.7132	4887.15	4052.55
830.5794	695.8131	4908.4	4059
830.7243	697.9123	4909.7	4072.9
830.8691	700.0109	4899.85	4064.85
831.014	702.1089	4894.25	4060.9
831.1588	704.2061	4885.3	4050.25
831.3037	706.3028	4919.05	4081.45
831.4486	708.3987	4921.25	4082.45
831.5935	710.4941	4914.75	4077.1
831.7383	712.5887	4936.1	4099.9
831.8832	714.6827	4938.9	4095.55
832.0281	716.7761	4924.1	4088.9
832.173	718.8688	4905.3	4066.8
832.3179	720.9608	4916.9	4076.5
832.4628	723.0522	4926.25	4085.55
832.6077	725.1429	4922.5	4084.85
832.7527	727.233	4943.5	4103.65
832.8976	729.3224	4997.6	4157.8
833.0425	731.4112	5042.2	4199.75
833.1874	733.4993	5044.3	4201.25
833.3324	735.5867	5007.8	4165.05
833.4773	737.6735	4959.5	4116.75
833.6222	739.7596	4927.75	4085.7
833.7672	741.845	4903.15	4060
833.9122	743.9298	4891.65	4049
834.0571	746.014	4895.5	4054.3
834.2021	748.0974	4921.9	4078.25
834.347	750.1802	4906.2	4060.85
834.492	752.2624	4894.2	4050.55
834.637	754.3439	4857.5	4011.75
834.782	756.4247	4833.95	3980.15
834.9269	758.5048	4809.1	3965.05
835.0719	760.5843	4813.95	3970.25
835.2169	762.6631	4809.25	3964.5
835.3619	764.7413	4844.5	4000.15
835.5069	766.8188	4903.6	4057
835.6519	768.8956	4932.7	4084.35
835.7969	770.9718	4976.8	4132.45
835.9419	773.0473	4948.25	4102.7
836.0869	775.1221	4924.5	4078.2
836.232	777.1962	4912.9	4067.65
836.377	779.2697	4945.5	4095.5
836.522	781.3426	5006.25	4141.15
836.667	783.4147	5033.9	4187.2
836.8121	785.4862	5045.85	4200.8
836.9571	787.557	4968.35	4121.45
837.1021	789.6271	4890.75	4043.55
837.2472	791.6966	4798.55	3949.4
837.3922	793.7654	4725.9	3873.5
837.5373	795.8335	4677.05	3826.4
837.6823	797.901	4632.6	3785.45
837.8274	799.9678	4622.25	3770.05
837.9724	802.0339	4630.05	3780.35
838.1175	804.0993	4625.25	3765.5
838.2626	806.1641	4599.6	3747.95
838.4076	808.2282	4587.75	3738.4
838.5527	810.2916	4575.9	3722.85
838.6978	812.3544	4560.4	3711.4
838.8428	814.4164	4534.75	3684.55
838.9879	816.4778	4544.75	3690.7
839.133	818.5385	4553.75	3701.6
839.2781	820.5986	4556.95	3703.65
839.4232	822.658	4600.5	3746.55
839.5682	824.7166	4627.55	3777.4
839.7133	826.7747	4686.2	3834.05
839.8584	828.832	4725.45	3873.6
840.0035	830.8886	4760.65	3906.85
840.1486	832.9446	4787.25	3933.7
840.2937	834.9999	4763.55	3911.45
840.4388	837.0545	4718.9	3861.05
840.5839	839.1085	4652.75	3797.25
840.729	841.1618	4598.15	3739.8
840.8741	843.2143	4553.1	3701.6
841.0192	845.2662	4503.3	3646.6
841.1643	847.3175	4491.1	3638.9
841.3095	849.368	4468.55	3615.7
841.4546	851.4179	4464.35	3610.9
841.5997	853.467	4442.7	3588.15
841.7448	855.5155	4431.3	3575.85
841.8899	857.5633	4437.7	3581.7
842.0351	859.6105	4431.5	3576.3
842.1802	861.6569	4409.8	3553.2
842.3253	863.7027	4404.45	3549.7
842.4704	865.7478	4396	3537.6
842.6156	867.7922	4388.3	3530.65
842.7607	869.8359	4371.1	3514.2
842.9058	871.8789	4371	3512.85
843.0509	873.9212	4376.85	3485.2
843.1961	875.9629	4355.2	3498.45
843.3412	878.0039	4370.5	3511.3
843.4863	880.0441	4345.7	3488.3
843.6315	882.0837	4358.6	3498.45
843.7766	884.1226	4357.3	3498
843.9218	886.1609	4385.8	3527.7
844.0669	888.1984	4409.6	3551.75
844.212	890.2352	4455.7	3598.35
844.3572	892.2714	4467.7	3606.45
844.5023	894.3069	4442	3582.75
844.6475	896.3416	4404.35	3544.6
844.7926	898.3757	4354.95	3497.05
844.9377	900.4091	4337.2	3478.35
845.0829	902.4418	4322.3	3457.75
845.228	904.4739	4321.25	3458.95
845.3732	906.5052	4335.8	3475.25
845.5183	908.5358	4328.9	3468.9
845.6635	910.5658	4308.35	3448
845.8086	912.595	4270.1	3410.4
845.9538	914.6236	4230.5	3371.3
846.0989	916.6515	4220.95	3360.95
846.2441	918.6786	4183.8	3320.35
846.3892	920.7051	4180.05	3318.25
846.5344	922.7309	4179.25	3318.1
846.6795	924.756	4175.6	3313.8
846.8246	926.7804	4182	3319.25
846.9698	928.8041	4149.1	3284.55
847.1149	930.8272	4174.05	3313.05
847.2601	932.8495	4145	3281.75
847.4052	934.8711	4144.8	3281.75
847.5504	936.892	4147.95	3284.95
847.6955	938.9123	4164.45	3300.8
847.8407	940.9318	4166.1	3302
847.9858	942.9506	4162.6	3299.7
848.131	944.9688	4136.55	3272.75
848.2761	946.9862	4121.95	3257.9
848.4213	949.003	4079.4	3215.3
848.5664	951.019	4058.8	3195.05
848.7115	953.0344	4032.5	3168.45
848.8567	955.0491	4022.35	3156.25
849.0018	957.063	4006.25	3141.15
849.147	959.0763	4018.1	3148.25
849.2921	961.0888	3986.45	3119.1
849.4373	963.1007	3990.1	3126
849.5824	965.1119	3996.35	3132.75
849.7275	967.1223	3970.8	3106.8
849.8727	969.1321	3963.8	3099.15
850.0178	971.1412	3938.3	3076
850.1629	973.1495	3919.6	3054.5
850.3081	975.1572	3938.8	3054.2
850.4532	977.1641	3931.05	3067.65
850.5983	979.1704	3917.15	3050.75
850.7435	981.1759	3909.65	3041.4
850.8886	983.1808	3902.95	3036.95
851.0337	985.1849	3872.7	2993.9
851.1788	987.1884	3868.1	2998.85
851.324	989.1911	3868.8	2998.35
851.4691	991.1932	3866.05	2998.05
851.6142	993.1945	3848.85	2982.8
851.7593	995.1951	3817.85	2951
851.9045	997.1951	3839.7	2967.55
852.0496	999.1943	3806.1	2939.65
852.1947	1001.1928	3795	2926.85
852.3398	1003.1906	3785.35	2916.9
852.4849	1005.1877	3807.1	2937.95
852.63	1007.1841	3813.6	2945.35
852.7751	1009.1798	3803.55	2935.3
852.9202	1011.1748	3775.7	2908.7
853.0653	1013.1691	3767.55	2898.65
853.2104	1015.1627	3755.05	2889.05
853.3555	1017.1556	3698.3	2830.1
853.5006	1019.1477	3679.65	2809.6
853.6457	1021.1392	3657	2790.05
853.7908	1023.1299	3634.95	2765
853.9359	1025.12	3625.85	2754.9
854.081	1027.1093	3611	2747.15
854.2261	1029.0979	3624.7	2759.15
854.3712	1031.0859	3618.45	2752.25
854.5163	1033.0731	3623.5	2754.65
854.6613	1035.0596	3594.6	2726.4
854.8064	1037.0454	3602.1	2731.75
854.9515	1039.0304	3581.35	2713.15
855.0965	1041.0148	3539.2	2671.05
855.2416	1042.9985	3531.55	2661.8
855.3867	1044.9814	3517.95	2650.35
855.5317	1046.9636	3497.05	2627.2
855.6768	1048.9452	3476.05	2607.45
855.8219	1050.926	3476.15	2608.2
855.9669	1052.9061	3499.2	2628.6
856.112	1054.8855	3502.2	2632.15
856.257	1056.8642	3476.35	2605.25
856.4021	1058.8421	3478.65	2603.9
856.5471	1060.8194	3468.95	2597.45
856.6921	1062.7959	3457.5	2585.5
856.8372	1064.7717	3450.7	2578
856.9822	1066.7469	3439.4	2567.55
857.1272	1068.7213	3443.85	2570.5
857.2723	1070.695	3433.8	2563.25
857.4173	1072.6679	3435	2562.95
857.5623	1074.6402	3448.85	2579.15
857.7073	1076.6117	3468.2	2590.05
857.8523	1078.5826	3452.7	2582.6
857.9973	1080.5527	3400.65	2524.65
858.1423	1082.5221	3380.45	2505.25
858.2873	1084.4908	3345.2	2474
858.4323	1086.4587	3327.25	2455.45
858.5773	1088.426	3318.35	2446.95
858.7223	1090.3925	3314.3	2436.4
858.8673	1092.3584	3298.55	2429.15
859.0123	1094.3235	3288.4	2420.1
859.1573	1096.2879	3297.4	2423.3
859.3022	1098.2515	3312.5	2440
859.4472	1100.2145	3321.2	2446.65
859.5922	1102.1767	3335.5	2458.65
859.7371	1104.1382	3353.7	2481.55
859.8821	1106.099	3380.9	2505.1
860.027	1108.0591	3414.85	2542.55
860.172	1110.0185	3423.75	2548.1
860.3169	1111.9771	3459	2586.15
860.4619	1113.9351	3484.05	2611.45
860.6068	1115.8923	3526.5	2653.2
860.7517	1117.8488	3540.45	2664.45
860.8967	1119.8045	3501.35	2628.45
861.0416	1121.7596	3445.6	2569.4
861.1865	1123.7139	3347.95	2474.85
861.3314	1125.6675	3294	2422.2
861.4763	1127.6204	3285.4	2411.65
861.6212	1129.5726	3290.05	2414.55
861.7661	1131.524	3295	2419.9
861.911	1133.4748	3254.6	2379.8
862.0559	1135.4248	3216.1	2340.6
862.2008	1137.3741	3182.85	2310
862.3457	1139.3226	3146	2269.7
862.4905	1141.2705	3136.05	2262.75
862.6354	1143.2176	3123.25	2242.7
862.7803	1145.164	3137.95	2262.05
862.9251	1147.1097	3130.15	2254.5
863.07	1149.0546	3114.65	2237.3
863.2148	1150.9989	3085.15	2208.15
863.3597	1152.9424	3053.8	2178.5
863.5045	1154.8852	3049.9	2174.35
863.6493	1156.8272	3035.15	2163.45
863.7942	1158.7686	3038.15	2156.75
863.939	1160.7092	3024.55	2150.05
864.0838	1162.6491	3007.55	2127.6
864.2286	1164.5883	3013.8	2137.35
864.3734	1166.5267	3016.85	2138.6
864.5182	1168.4644	3038.15	2162.6
864.663	1170.4014	3063.2	2182.15
864.8078	1172.3377	3062.2	2187.75
864.9526	1174.2732	3097.4	2221.55
865.0974	1176.2081	3143.95	2268.35
865.2421	1178.1421	3239.8	2359.35
865.3869	1180.0755	3323.9	2450.5
865.5317	1182.0082	3379.15	2502.85
865.6764	1183.9401	3360.65	2481.8
865.8212	1185.8713	3306.95	2431
865.9659	1187.8017	3208.8	2333.2
866.1106	1189.7315	3122.55	2246.9
866.2554	1191.6605	3041.55	2164.9
866.4001	1193.5888	2998.6	2123.45
866.5448	1195.5163	2970.2	2092.3
866.6895	1197.4432	2948.05	2071.4
866.8342	1199.3693	2918.2	2039.95
866.9789	1201.2947	2900.85	2023.55
867.1236	1203.2193	2891.15	2014.85
867.2683	1205.1432	2886.75	2008.95
867.413	1207.0664	2866.85	1990.65
867.5576	1208.9889	2863.7	1982.6
867.7023	1210.9106	2843.45	1966.3
867.847	1212.8316	2852	1975.3
867.9916	1214.7519	2863.2	1973.6
868.1363	1216.6715	2851.65	1975.9
868.2809	1218.5903	2857.05	1980.4
868.4255	1220.5084	2856.4	1977.85
868.5701	1222.4257	2868.8	1992.7
868.7148	1224.3424	2860.35	1981.8
868.8594	1226.2583	2889.5	2009.85
869.004	1228.1735	2877.5	1999.8
869.1486	1230.0879	2901.35	2023.25
869.2932	1232.0016	2925.9	2049.8
869.4377	1233.9146	2949.65	2070.05
869.5823	1235.8269	2950.95	2073.6
869.7269	1237.7384	2955.25	2076.9
869.8715	1239.6492	2939.75	2062.9
870.016	1241.5592	2950.6	2072.3
