Software Version:	3.9.2.0
Unit SN:	10000200
Spectrometer SN:	6960
Date:	3/26/2024 12:56:34 PM
Data Line Index:	25
Spectral Points:	2048
Integration time (ms):	125
Averages:	20
Delay (ms):	30000
Sequence Number:	1
Processing:	dark subtract
Laser Power (mW):	305
Laser Current (mA):	816
Laser Diode Temp (C):	25
Laser Case Temp (C):	25.2
System Temp (C):	25.1
Spectrometer Temp (C):	23
CCD Temp (C):	0.031
Secondary Temp (C):	20.008
Heatsink Temp (C):	21.381
CCDPCB Temp (C):	35.662
SecondaryPCB Temp (C):	28.659

Wavelength	RamanShift	Raw Counts	Dark Subtracted
787.061	30.1047	427.4	15.2
787.2016	32.3739	425.35	16.3
787.3422	34.6426	429.6	18.7
787.4828	36.9109	430.2	16.65
787.6235	39.1787	436.2	18.6
787.7642	41.4461	443.3	20.35
787.9049	43.7131	446.45	19.2
788.0456	45.9796	451.95	24.75
788.1863	48.2456	458.45	25.6
788.3271	50.5112	460.9	24.35
788.4679	52.7764	465.65	25.8
788.6087	55.0411	471.65	30.95
788.7496	57.3054	477.4	30.65
788.8904	59.5692	482.75	34.8
789.0313	61.8326	487.45	36.3
789.1722	64.0955	496.95	39.85
789.3132	66.3579	504.6	42.95
789.4541	68.6199	510.2	44.2
789.5951	70.8815	523.25	57.2
789.7361	73.1426	549.5	82.05
789.8771	75.4032	608.55	136.2
790.0181	77.6634	742.2	263.65
790.1592	79.9231	1051.85	568.55
790.3003	82.1824	1718.75	1232.5
790.4414	84.4412	2834.25	2344.5
790.5825	86.6995	4343.75	3847.45
790.7237	88.9574	5856.65	5353
790.8648	91.2148	6959.5	6454.5
791.006	93.4717	7514.4	7006.15
791.1472	95.7282	7729.65	7214.8
791.2885	97.9842	7818.65	7302.9
791.4297	100.2398	7805.35	7287.15
791.571	102.4949	7804.2	7284.8
791.7123	104.7495	7757.35	7231.75
791.8536	107.0036	7694.4	7169.75
791.9949	109.2573	7646.55	7123.2
792.1363	111.5105	7580.2	7052.15
792.2777	113.7632	7509.85	6982.4
792.4191	116.0154	7435.9	6894.4
792.5605	118.2672	7385.95	6854.05
792.7019	120.5185	7269.75	6737.1
792.8434	122.7693	7216.55	6678.7
792.9849	125.0197	7141.25	6601.95
793.1264	127.2696	7041.6	6500.1
793.2679	129.519	7027.8	6482.45
793.4094	131.7679	6999.3	6449.55
793.551	134.0163	6978.55	6427.3
793.6926	136.2642	6958.3	6400.8
793.8342	138.5117	6973.85	6413.95
793.9758	140.7587	6937.55	6379.6
794.1175	143.0052	6931.9	6368.15
794.2591	145.2512	6867.75	6305.75
794.4008	147.4967	6809	6245
794.5425	149.7417	6776.65	6208.65
794.6842	151.9863	6718.45	6147.85
794.826	154.2304	6711.5	6141.4
794.9677	156.4739	6669.4	6091
795.1095	158.717	6681.1	6102.5
795.2513	160.9596	6694.65	6112.55
795.3931	163.2017	6713.6	6128.75
795.535	165.4433	6720.25	6132.95
795.6768	167.6844	6728.5	6137.45
795.8187	169.925	6713.3	6120.3
795.9606	172.1651	6629.95	6033.25
796.1025	174.4047	6593.95	5993.1
796.2445	176.6439	6533.2	5930.85
796.3864	178.8825	6514.9	5908.2
796.5284	181.1206	6494.9	5884.1
796.6704	183.3582	6479.8	5866
796.8124	185.5954	6468.15	5854.05
796.9544	187.832	6455.65	5839
797.0965	190.0681	6454.95	5835.75
797.2386	192.3037	6469.05	5847.4
797.3806	194.5388	6456.65	5829.6
797.5228	196.7734	6483.95	5854.85
797.6649	199.0075	6469.3	5837.25
797.807	201.2411	6531.45	5896.5
797.9492	203.4742	6556.15	5923.05
798.0914	205.7068	6569.95	5937.35
798.2336	207.9389	6572.65	5937.3
798.3758	210.1704	6583.25	5944.75
798.518	212.4015	6593.1	5948.65
798.6603	214.632	6602.4	5958.3
798.8025	216.862	6595.1	5961.4
798.9448	219.0915	6591.15	5965.05
799.0871	221.3205	6596.2	5971.05
799.2294	223.549	6605.45	5982.1
799.3718	225.777	6615.15	5992.55
799.5141	228.0044	6606.85	5980.25
799.6565	230.2314	6605.2	5981.7
799.7989	232.4578	6577.9	5952.3
799.9413	234.6837	6554.65	5919.45
800.0837	236.909	6564.15	5929.95
800.2262	239.1339	6577	5918.25
800.3687	241.3582	6549.95	5903.15
800.5111	243.582	6565.95	5892.35
800.6536	245.8053	6569.45	5908.3
800.7961	248.0281	6557.7	5901.5
800.9387	250.2503	6556.05	5892.05
801.0812	252.472	6589.25	5920.7
801.2238	254.6932	6595.25	5925.45
801.3664	256.9139	6559.5	5884.6
801.509	259.134	6577.3	5902.3
801.6516	261.3536	6579.3	5905.05
801.7942	263.5727	6630.8	5954.1
801.9369	265.7912	6631.25	5954.8
802.0795	268.0092	6688.75	6013.1
802.2222	270.2267	6753.25	6076.95
802.3649	272.4436	6783.55	6103.65
802.5076	274.6601	6800	6108.95
802.6504	276.8759	6836.35	6155.05
802.7931	279.0913	6845.85	6158.55
802.9359	281.3061	6859.95	6171.7
803.0787	283.5204	6892.4	6202.95
803.2215	285.7341	6908.5	6217
803.3643	287.9473	6959.85	6256.1
803.5071	290.16	6942.85	6242.75
803.6499	292.3721	6919.55	6225.9
803.7928	294.5837	6871.4	6177.4
803.9357	296.7947	6796	6103.9
804.0786	299.0052	6792.05	6095.7
804.2215	301.2152	6752.15	6052.6
804.3644	303.4246	6740.65	6043.8
804.5074	305.6334	6725.7	6030.35
804.6503	307.8418	6712.1	6011.25
804.7933	310.0495	6720.8	6021.1
804.9363	312.2568	6675.1	5976.4
805.0793	314.4635	6627.6	5926.05
805.2223	316.6696	6576	5870.8
805.3653	318.8752	6511.3	5798.2
805.5084	321.0802	6479.05	5773.75
805.6514	323.2847	6466.25	5758.85
805.7945	325.4887	6448.65	5742
805.9376	327.692	6478.05	5771.7
806.0807	329.8949	6508.4	5800.25
806.2238	332.0972	6546.75	5835.15
806.367	334.2989	6610.15	5893.9
806.5101	336.5001	6615.1	5899.1
806.6533	338.7007	6591.65	5874.15
806.7965	340.9008	6561.85	5843.6
806.9397	343.1003	6496.8	5775.8
807.0829	345.2992	6442	5720.6
807.2261	347.4976	6396.3	5674.8
807.3693	349.6955	6364	5640.35
807.5126	351.8927	6349.65	5623.85
807.6559	354.0895	6333.95	5595.05
807.7991	356.2856	6326.35	5599.75
807.9424	358.4812	6286.9	5558.65
808.0857	360.6763	6286.35	5556.1
808.2291	362.8707	6275.9	5543.3
808.3724	365.0646	6291.85	5556.5
808.5158	367.258	6286.15	5550.85
808.6591	369.4508	6283.85	5543.2
808.8025	371.643	6318.6	5581
808.9459	373.8346	6327.9	5585.15
809.0893	376.0257	6368.6	5622.3
809.2327	378.2162	6410.75	5663.65
809.3762	380.4062	6439.35	5689.95
809.5196	382.5956	6405.5	5652.65
809.6631	384.7844	6353.65	5605.7
809.8066	386.9726	6281.65	5530.8
809.9501	389.1603	6251.25	5500.85
810.0936	391.3474	6245.05	5450.5
810.2371	393.5339	6218	5466.2
810.3806	395.7199	6193	5446.95
810.5241	397.9052	6203.4	5459.3
810.6677	400.09	6237.2	5494.75
810.8113	402.2743	6293.3	5550.55
810.9548	404.4579	6328.05	5585.65
811.0984	406.641	6369.3	5624.9
811.2421	408.8235	6398.9	5652.75
811.3857	411.0054	6456.45	5710.95
811.5293	413.1868	6561.8	5812.7
811.673	415.3675	6678.8	5926.65
811.8166	417.5477	6721.15	5970.15
811.9603	419.7273	6667.7	5912.2
812.104	421.9064	6501.85	5741.25
812.2477	424.0848	6407.15	5649.15
812.3914	426.2627	6331.4	5570.6
812.5351	428.4399	6272.25	5509.75
812.6788	430.6166	6198.05	5429.75
812.8226	432.7928	6142.05	5372.4
812.9663	434.9683	6088.75	5321.45
813.1101	437.1432	6072.35	5302.9
813.2539	439.3176	6015.8	5246.8
813.3977	441.4914	5996.35	5225.25
813.5415	443.6645	5999.5	5225.55
813.6853	445.8371	5990.85	5214.55
813.8291	448.0091	5997.85	5224.15
813.973	450.1806	5976.25	5203.55
814.1168	452.3514	5968.45	5193.4
814.2607	454.5216	5966.7	5182.35
814.4046	456.6913	5929.7	5151.85
814.5485	458.8603	5945.85	5170.5
814.6924	461.0288	5953.85	5176.25
814.8363	463.1967	5942.25	5166.95
814.9802	465.3639	5943.5	5165.65
815.1241	467.5306	5923.45	5142.45
815.2681	469.6967	5907.95	5127.15
815.412	471.8622	5901.25	5120.3
815.556	474.0271	5916.3	5135.6
815.7	476.1914	5877.8	5092.85
815.844	478.3551	5881.85	5099.8
815.988	480.5182	5906.65	5122.75
816.132	482.6807	5886.35	5102.7
816.276	484.8426	5915.1	5130.85
816.4201	487.0039	5954.8	5168.25
816.5641	489.1647	6004.9	5219.5
816.7082	491.3248	6071.65	5283
816.8522	493.4843	6066.4	5282.6
816.9963	495.6432	6074.95	5288.8
817.1404	497.8015	6034.9	5242.75
817.2845	499.9592	6003.1	5214.95
817.4286	502.1163	5952.45	5163.05
817.5727	504.2728	5902.75	5110.55
817.7168	506.4287	5868.35	5078.6
817.861	508.5839	5850.25	5059.05
818.0051	510.7386	5845.4	5056.05
818.1493	512.8927	5853.25	5055.7
818.2935	515.0461	5842.4	5050
818.4377	517.199	5869.6	5077.1
818.5818	519.3512	5904.2	5111.75
818.726	521.5029	5954.55	5154.15
818.8703	523.6539	6016.25	5220.1
819.0145	525.8043	6047.35	5253.05
819.1587	527.9541	6004.55	5205.2
819.303	530.1033	5929.85	5131.15
819.4472	532.2519	5862.35	5065.35
819.5915	534.3999	5841.85	5041.5
819.7357	536.5472	5835	5035
819.88	538.694	5840.7	5039.85
820.0243	540.8401	5861.3	5060.75
820.1686	542.9856	5865.35	5062.4
820.3129	545.1305	5884.8	5080.9
820.4572	547.2748	5926.4	5122
820.6016	549.4185	5911.95	5105.55
820.7459	551.5615	5901.15	5096.75
820.8902	553.704	5921	5116.35
821.0346	555.8458	5908.05	5101.45
821.1789	557.987	5941.5	5135.7
821.3233	560.1276	5984.7	5177.75
821.4677	562.2675	6043.85	5239
821.6121	564.4069	6098.25	5292.25
821.7565	566.5456	6162.65	5357.65
821.9009	568.6837	6135.9	5330.4
822.0453	570.8212	6063.55	5257.05
822.1897	572.958	5969	5159.2
822.3342	575.0942	5933.85	5127.45
822.4786	577.2299	5892.8	5084.3
822.6231	579.3648	5830.25	5023.2
822.7675	581.4992	5794.6	4984.95
822.912	583.6329	5779.35	4971.65
823.0565	585.766	5795.2	4988.25
823.201	587.8985	5844.75	5036.75
823.3454	590.0304	5861.65	5039.3
823.4899	592.1616	5893.55	5081.15
823.6345	594.2922	5914.7	5102.85
823.779	596.4222	5890.45	5078.55
823.9235	598.5515	5832.4	5018.7
824.068	600.6802	5779.5	4965.95
824.2126	602.8083	5695.3	4881.15
824.3571	604.9358	5681.9	4863.15
824.5017	607.0626	5663.05	4846.75
824.6462	609.1888	5671.95	4853.1
824.7908	611.3144	5682.9	4865.45
824.9354	613.4393	5703.15	4885.8
825.08	615.5636	5759.1	4940.8
825.2246	617.6873	5812.7	4993.8
825.3692	619.8103	5863.5	5044.35
825.5138	621.9327	5877.85	5053.45
825.6584	624.0544	5873.6	5054.9
825.803	626.1756	5784.25	4964.65
825.9477	628.2961	5739.15	4919.3
826.0923	630.4159	5692.15	4872.55
826.237	632.5351	5677.4	4857.5
826.3816	634.6537	5674.75	4852.95
826.5263	636.7716	5651.85	4826.45
826.6709	638.8889	5638.75	4817.35
826.8156	641.0056	5664.75	4839.55
826.9603	643.1216	5682.9	4858.45
827.105	645.237	5713	4888.8
827.2497	647.3518	5682.25	4857.95
827.3944	649.4659	5662.9	4839.45
827.5391	651.5793	5620.25	4793.9
827.6838	653.6922	5592.4	4766.55
827.8285	655.8043	5582.1	4757.5
827.9733	657.9159	5550.45	4723.45
828.118	660.0268	5553.7	4724.4
828.2627	662.137	5514.85	4689
828.4075	664.2466	5531.9	4702.6
828.5522	666.3556	5541.75	4712.95
828.697	668.4639	5527.65	4695.55
828.8418	670.5716	5518.8	4688.9
828.9865	672.6786	5531.35	4703.7
829.1313	674.785	5496.4	4664.45
829.2761	676.8907	5478.95	4649
829.4209	678.9958	5502.6	4673.3
829.5657	681.1002	5481.75	4649.5
829.7105	683.204	5485.15	4650.3
829.8553	685.3072	5478.7	4646.05
830.0001	687.4097	5467.8	4636.5
830.1449	689.5115	5463.7	4627.95
830.2898	691.6127	5455.65	4623.45
830.4346	693.7132	5442.95	4607
830.5794	695.8131	5482.95	4633.7
830.7243	697.9123	5450.85	4616.85
830.8691	700.0109	5460.15	4623.75
831.014	702.1089	5464.45	4629.5
831.1588	704.2061	5479.2	4643.3
831.3037	706.3028	5490.2	4651.55
831.4486	708.3987	5515.35	4679.75
831.5935	710.4941	5510.5	4672.95
831.7383	712.5887	5538.8	4701.7
831.8832	714.6827	5522.1	4682.8
832.0281	716.7761	5500.05	4660.6
832.173	718.8688	5523.8	4686.1
832.3179	720.9608	5498.65	4657.35
832.4628	723.0522	5515.9	4673.95
832.6077	725.1429	5513.3	4676.6
832.7527	727.233	5556.95	4718.7
832.8976	729.3224	5619.15	4779.8
833.0425	731.4112	5656.75	4817.55
833.1874	733.4993	5683.65	4841.1
833.3324	735.5867	5638.2	4798.6
833.4773	737.6735	5571.4	4729.1
833.6222	739.7596	5503.95	4661.2
833.7672	741.845	5472.65	4631.65
833.9122	743.9298	5462.85	4618.9
834.0571	746.014	5464.6	4624.35
834.2021	748.0974	5494.7	4649.85
834.347	750.1802	5490.3	4647.5
834.492	752.2624	5473.3	4631.95
834.637	754.3439	5411.1	4564.75
834.782	756.4247	5397.85	4543.65
834.9269	758.5048	5374.15	4526.75
835.0719	760.5843	5386.35	4541.3
835.2169	762.6631	5381.35	4537.65
835.3619	764.7413	5422.65	4580.7
835.5069	766.8188	5487.45	4639.95
835.6519	768.8956	5573.05	4724.75
835.7969	770.9718	5619.6	4773.3
835.9419	773.0473	5595.7	4749.4
836.0869	775.1221	5562.75	4715.7
836.232	777.1962	5530.9	4684.45
836.377	779.2697	5587.65	4738.8
836.522	781.3426	5677.95	4812
836.667	783.4147	5759.25	4909
836.8121	785.4862	5774.7	4926.25
836.9571	787.557	5690.85	4841.55
837.1021	789.6271	5561	4712.85
837.2472	791.6966	5427.8	4578.55
837.3922	793.7654	5308.6	4457.3
837.5373	795.8335	5261.6	4412.75
837.6823	797.901	5183.1	4335.3
837.8274	799.9678	5154.25	4303.9
837.9724	802.0339	5154.45	4303.9
838.1175	804.0993	5164.8	4305.35
838.2626	806.1641	5142.6	4290.4
838.4076	808.2282	5141.3	4291.2
838.5527	810.2916	5112.5	4259.8
838.6978	812.3544	5093.2	4244.05
838.8428	814.4164	5064.1	4215.9
838.9879	816.4778	5075.45	4223.55
839.133	818.5385	5082.85	4232.25
839.2781	820.5986	5096.65	4246.6
839.4232	822.658	5149.35	4296.3
839.5682	824.7166	5190.6	4340.1
839.7133	826.7747	5284.9	4434.05
839.8584	828.832	5344.5	4491.3
840.0035	830.8886	5403.35	4548.6
840.1486	832.9446	5426.95	4573.95
840.2937	834.9999	5401.6	4549.25
840.4388	837.0545	5352.65	4499.3
840.5839	839.1085	5259.75	4404.25
840.729	841.1618	5162.85	4305.8
840.8741	843.2143	5088.8	4235.1
841.0192	845.2662	5047.7	4193.7
841.1643	847.3175	5015.65	4162.55
841.3095	849.368	4990.85	4136.8
841.4546	851.4179	5002.55	4147.75
841.5997	853.467	4978.95	4123.3
841.7448	855.5155	4984.4	4129.55
841.8899	857.5633	4969.45	4114.5
842.0351	859.6105	4951.55	4095.3
842.1802	861.6569	4951.2	4096.1
842.3253	863.7027	4937.1	4080.8
842.4704	865.7478	4924.1	4068.3
842.6156	867.7922	4892.25	4037.6
842.7607	869.8359	4872.75	4015.35
842.9058	871.8789	4868.95	4012.85
843.0509	873.9212	4902.55	4014.1
843.1961	875.9629	4854.9	3998.45
843.3412	878.0039	4838.4	3980.3
843.4863	880.0441	4860.55	4002.2
843.6315	882.0837	4887.9	4030.4
843.7766	884.1226	4891.6	4033.05
843.9218	886.1609	4912.45	4055.2
844.0669	888.1984	4953.9	4098.45
844.212	890.2352	5024.95	4167.95
844.3572	892.2714	5026.5	4163.75
844.5023	894.3069	5009.7	4150.7
844.6475	896.3416	4943.8	4081.25
844.7926	898.3757	4898.7	4040.85
844.9377	900.4091	4849.25	3989
845.0829	902.4418	4855.7	3992.5
845.228	904.4739	4852.45	3991.7
845.3732	906.5052	4869.2	4008.05
845.5183	908.5358	4874.35	4014.25
845.6635	910.5658	4853.1	3992.45
845.8086	912.595	4808.35	3950.5
845.9538	914.6236	4766.05	3905
846.0989	916.6515	4741.85	3881.35
846.2441	918.6786	4711.6	3850.45
846.3892	920.7051	4669.6	3806.6
846.5344	922.7309	4681.3	3821.95
846.6795	924.756	4655.95	3796
846.8246	926.7804	4675.2	3810.6
846.9698	928.8041	4655	3792.55
847.1149	930.8272	4674.45	3812.75
847.2601	932.8495	4658	3794.1
847.4052	934.8711	4660.35	3796.15
847.5504	936.892	4658.25	3794.35
847.6955	938.9123	4674.1	3810.65
847.8407	940.9318	4680.2	3817.75
847.9858	942.9506	4692.9	3828.95
848.131	944.9688	4675.35	3812.85
848.2761	946.9862	4646.9	3782.5
848.4213	949.003	4608.2	3743.5
848.5664	951.019	4579.15	3716.85
848.7115	953.0344	4543.3	3681.75
848.8567	955.0491	4527.3	3662.05
849.0018	957.063	4499.25	3633.5
849.147	959.0763	4521.3	3650.35
849.2921	961.0888	4488.7	3622.25
849.4373	963.1007	4486.65	3622.35
849.5824	965.1119	4472.7	3607.1
849.7275	967.1223	4463.35	3598.4
849.8727	969.1321	4445.45	3582.35
850.0178	971.1412	4427.25	3564.5
850.1629	973.1495	4416.4	3551.8
850.3081	975.1572	4441.85	3527.4
850.4532	977.1641	4408.7	3541.55
850.5983	979.1704	4384.3	3518.55
850.7435	981.1759	4381.3	3509.95
850.8886	983.1808	4383.8	3518.25
851.0337	985.1849	4352.9	3475.2
851.1788	987.1884	4353.1	3486.6
851.324	989.1911	4347.3	3478.65
851.4691	991.1932	4347.2	3479.25
851.6142	993.1945	4341.9	3475.55
851.7593	995.1951	4332.55	3464.45
851.9045	997.1951	4315.95	3443.2
852.0496	999.1943	4283.15	3416.35
852.1947	1001.1928	4265.35	3397.05
852.3398	1003.1906	4278.45	3411.3
852.4849	1005.1877	4306.9	3434.95
852.63	1007.1841	4307.95	3438.5
852.7751	1009.1798	4323.2	3455.3
852.9202	1011.1748	4312.55	3445.3
853.0653	1013.1691	4278.4	3408.85
853.2104	1015.1627	4232.95	3365.05
853.3555	1017.1556	4165.05	3295.95
853.5006	1019.1477	4146.9	3277.5
853.6457	1021.1392	4100.6	3230.9
853.7908	1023.1299	4091.2	3221.75
853.9359	1025.12	4085.05	3216.65
854.081	1027.1093	4069.3	3201.3
854.2261	1029.0979	4089.4	3222.25
854.3712	1031.0859	4080.75	3212.95
854.5163	1033.0731	4107.95	3237.5
854.6613	1035.0596	4099.95	3230.95
854.8064	1037.0454	4064.4	3194.6
854.9515	1039.0304	4070.25	3200.45
855.0965	1041.0148	4024.6	3156.7
855.2416	1042.9985	3980.15	3110.85
855.3867	1044.9814	3969.45	3100.7
855.5317	1046.9636	3947.2	3074.55
855.6768	1048.9452	3956.75	3086.5
855.8219	1050.926	3948.4	3078.65
855.9669	1052.9061	3957.35	3086.95
856.112	1054.8855	3974.85	3104.75
856.257	1056.8642	3983.15	3114.85
856.4021	1058.8421	3965.2	3089.4
856.5471	1060.8194	3947.9	3076.5
856.6921	1062.7959	3935.4	3064.55
856.8372	1064.7717	3920.05	3046
856.9822	1066.7469	3904.6	3030
857.1272	1068.7213	3897.05	3022.95
857.2723	1070.695	3907.25	3035.4
857.4173	1072.6679	3922.15	3050.35
857.5623	1074.6402	3944.55	3072.1
857.7073	1076.6117	3953.65	3077.3
857.8523	1078.5826	3935.45	3064.15
857.9973	1080.5527	3895.7	3021.35
858.1423	1082.5221	3844.85	2971.4
858.2873	1084.4908	3807.65	2935.05
858.4323	1086.4587	3790.95	2917.3
858.5773	1088.426	3764.85	2891.4
858.7223	1090.3925	3759.5	2882.9
858.8673	1092.3584	3748.55	2875.3
859.0123	1094.3235	3732.95	2864.1
859.1573	1096.2879	3749.7	2875.85
859.3022	1098.2515	3766.5	2892.3
859.4472	1100.2145	3793.25	2921.05
859.5922	1102.1767	3806.1	2929.45
859.7371	1104.1382	3849.7	2975.9
859.8821	1106.099	3891.7	3015.25
860.027	1108.0591	3931.25	3059.4
860.172	1110.0185	3962.05	3086.5
860.3169	1111.9771	3999.55	3127
860.4619	1113.9351	4024.35	3150.5
860.6068	1115.8923	4100.5	3227.25
860.7517	1117.8488	4125.8	3249.7
860.8967	1119.8045	4122.2	3249
861.0416	1121.7596	4018.6	3142.95
861.1865	1123.7139	3894.55	3019.25
861.3314	1125.6675	3816.7	2940.8
861.4763	1127.6204	3786.85	2912.5
861.6212	1129.5726	3805.85	2928.85
861.7661	1131.524	3813.65	2940.15
861.911	1133.4748	3794.3	2920.35
862.0559	1135.4248	3712.7	2837
862.2008	1137.3741	3665.65	2790.75
862.3457	1139.3226	3612.3	2737.4
862.4905	1141.2705	3596.05	2718.65
862.6354	1143.2176	3587.9	2705.75
862.7803	1145.164	3611.75	2735.1
862.9251	1147.1097	3611.45	2735.95
863.07	1149.0546	3603.35	2728.55
863.2148	1150.9989	3555.15	2678.15
863.3597	1152.9424	3526.85	2651.55
863.5045	1154.8852	3509.45	2633.3
863.6493	1156.8272	3482.7	2608.95
863.7942	1158.7686	3489.8	2606.75
863.939	1160.7092	3474.9	2599.1
864.0838	1162.6491	3477.85	2598.85
864.2286	1164.5883	3482.6	2608.7
864.3734	1166.5267	3481.95	2603.85
864.5182	1168.4644	3494	2617.3
864.663	1170.4014	3519.95	2639.95
864.8078	1172.3377	3570	2696.3
864.9526	1174.2732	3592.85	2716.9
865.0974	1176.2081	3668.35	2792.75
865.2421	1178.1421	3774.4	2893.45
865.3869	1180.0755	3913	3039
865.5317	1182.0082	4005.15	3128.75
865.6764	1183.9401	4027.25	3148.95
865.8212	1185.8713	3951.2	3071.25
865.9659	1187.8017	3807.35	2932.3
866.1106	1189.7315	3685.3	2809.25
866.2554	1191.6605	3578.9	2674.15
866.4001	1193.5888	3503.75	2627
866.5448	1195.5163	3446.2	2570.85
866.6895	1197.4432	3424.5	2546.9
866.8342	1199.3693	3391.4	2516
866.9789	1201.2947	3381.55	2496.65
867.1236	1203.2193	3349.45	2473
867.2683	1205.1432	3358.65	2479
867.413	1207.0664	3333.8	2457.25
867.5576	1208.9889	3334.15	2453.5
867.7023	1210.9106	3322.1	2445.35
867.847	1212.8316	3339	2462.3
867.9916	1214.7519	3323.8	2436.7
868.1363	1216.6715	3323.2	2445.15
868.2809	1218.5903	3314.1	2436.65
868.4255	1220.5084	3327.45	2449.7
868.5701	1222.4257	3338.05	2461.4
868.7148	1224.3424	3336.75	2458.25
868.8594	1226.2583	3348.2	2470.8
869.004	1228.1735	3372.7	2493
869.1486	1230.0879	3402.65	2523.5
869.2932	1232.0016	3428.55	2550.25
869.4377	1233.9146	3459.7	2578
869.5823	1235.8269	3469.55	2591.35
869.7269	1237.7384	3490.05	2610.35
869.8715	1239.6492	3471.1	2592.9
