Software Version:	3.9.2.0
Unit SN:	10000200
Spectrometer SN:	6960
Date:	3/26/2024 1:59:24 PM
Data Line Index:	25
Spectral Points:	2048
Integration time (ms):	125
Averages:	20
Delay (ms):	30000
Sequence Number:	1
Processing:	dark subtract
Laser Power (mW):	305
Laser Current (mA):	820
Laser Diode Temp (C):	25.1
Laser Case Temp (C):	27.4
System Temp (C):	27.3
Spectrometer Temp (C):	25.2
CCD Temp (C):	0
Secondary Temp (C):	20.017
Heatsink Temp (C):	22.776
CCDPCB Temp (C):	36.885
SecondaryPCB Temp (C):	34.373

Wavelength	RamanShift	Raw Counts	Dark Subtracted
787.061	30.1047	600.45	190.75
787.2016	32.3739	605.65	198.85
787.3422	34.6426	622.3	215.2
787.4828	36.9109	633.5	222.35
787.6235	39.1787	652	237.3
787.7642	41.4461	675.6	255.8
787.9049	43.7131	697.2	275.3
788.0456	45.9796	714.05	287.75
788.1863	48.2456	738.7	306.85
788.3271	50.5112	758.1	322.25
788.4679	52.7764	780.8	343.3
788.6087	55.0411	808.1	368.4
788.7496	57.3054	828.25	384.1
788.8904	59.5692	854.95	405.5
789.0313	61.8326	887.25	435
789.1722	64.0955	920.65	463.55
789.3132	66.3579	964.45	503.5
789.4541	68.6199	1011.55	548.65
789.5951	70.8815	1089.6	622.85
789.7361	73.1426	1253.6	781
789.8771	75.4032	1688.35	1211.9
790.0181	77.6634	2725.35	2241.8
790.1592	79.9231	5343.8	4849.55
790.3003	82.1824	11347.95	10832.65
790.4414	84.4412	23758.1	23206.45
790.5825	86.6995	45548.05	44942.75
790.7237	88.9574	57482.45	56834.6
790.8648	91.2148	61468.6	60784.75
791.006	93.4717	62257	61552.35
791.1472	95.7282	62584.4	61865.3
791.2885	97.9842	62733.9	62008.25
791.4297	100.2398	62664.9	61936.65
791.571	102.4949	62642.55	61913.5
791.7123	104.7495	62590.8	61860.8
791.8536	107.0036	62475.35	61743.5
791.9949	109.2573	62540.1	61806.35
792.1363	111.5105	62403.45	61668.8
792.2777	113.7632	62361.85	61622.5
792.4191	116.0154	62390.4	61641.65
792.5605	118.2672	62461.95	61714
792.7019	120.5185	62443.3	61701.3
792.8434	122.7693	62430.7	61687.55
792.9849	125.0197	62237.4	61485.35
793.1264	127.2696	62513.9	61763
793.2679	129.519	62439.45	61684.65
793.4094	131.7679	62562.75	61806.65
793.551	134.0163	62231.05	61469.6
793.6926	136.2642	62339.85	61575.3
793.8342	138.5117	62522.4	61751.75
793.9758	140.7587	62438.05	61669.45
794.1175	143.0052	62410.4	61636.4
794.2591	145.2512	62219.5	61448.45
794.4008	147.4967	62434.95	61663.4
794.5425	149.7417	62357.1	61585.55
794.6842	151.9863	62327.95	61549.2
794.826	154.2304	62215.25	61432.65
794.9677	156.4739	62284.6	61496.3
795.1095	158.717	62406.9	61623.4
795.2513	160.9596	62283.05	61488.15
795.3931	163.2017	62112.3	61318.4
795.535	165.4433	62267.8	61472.6
795.6768	167.6844	62132.6	61339.25
795.8187	169.925	62194.15	61395.9
795.9606	172.1651	62052.15	61252.05
796.1025	174.4047	62099.55	61300.15
796.2445	176.6439	62073.75	61273.05
796.3864	178.8825	61978.65	61169.3
796.5284	181.1206	62101.6	61287.35
796.6704	183.3582	62043.2	61222.9
796.8124	185.5954	61964.95	61144.9
796.9544	187.832	61987.7	61168.2
797.0965	190.0681	61850.3	61028.85
797.2386	192.3037	62069.85	61244.95
797.3806	194.5388	62282.85	61450.3
797.5228	196.7734	61762.75	60926.15
797.6649	199.0075	62238.5	61396.25
797.807	201.2411	62086.8	61241.3
797.9492	203.4742	62306.8	61465
798.0914	205.7068	62250	61405.55
798.2336	207.9389	62242.05	61403.3
798.3758	210.1704	62208.65	61362.2
798.518	212.4015	62379.75	61531.2
798.6603	214.632	62197.65	61349.3
798.8025	216.862	62434.7	61591.2
798.9448	219.0915	62329.65	61495.95
799.0871	221.3205	62332.1	61500.35
799.2294	223.549	62511.4	61684.3
799.3718	225.777	62494.15	61669.2
799.5141	228.0044	62618.25	61789.3
799.6565	230.2314	62563.15	61739.95
799.7989	232.4578	62586.95	61767.8
799.9413	234.6837	62653.2	61825.65
800.0837	236.909	62936.75	62100.8
800.2262	239.1339	62488.3	61629.45
800.3687	241.3582	62690.6	61840.3
800.5111	243.582	62665.95	61787.55
800.6536	245.8053	62619.65	61754.95
800.7961	248.0281	62605.2	61748.75
800.9387	250.2503	62674.85	61809.85
801.0812	252.472	62519.65	61653.65
801.2238	254.6932	62594.75	61726.3
801.3664	256.9139	62511.85	61640.7
801.509	259.134	62812.9	61936.8
801.6516	261.3536	62479.05	61603.6
801.7942	263.5727	62651.3	61772.05
801.9369	265.7912	62548.6	61668.05
802.0795	268.0092	62603.35	61728.3
802.2222	270.2267	62633.55	61755.2
802.3649	272.4436	62481.9	61607.85
802.5076	274.6601	62634.25	61749.45
802.6504	276.8759	62694.2	61815.45
802.7931	279.0913	62571.25	61689.8
802.9359	281.3061	62615.65	61736.8
803.0787	283.5204	62606.35	61719.25
803.2215	285.7341	62589.15	61701.65
803.3643	287.9473	62746.3	61847.15
803.5071	290.16	62666.75	61775.45
803.6499	292.3721	62762.35	61873.35
803.7928	294.5837	62661.25	61765.7
803.9357	296.7947	62587.75	61700.05
804.0786	299.0052	62809.05	61918.45
804.2215	301.2152	62703.9	61808.85
804.3644	303.4246	62769.85	61885
804.5074	305.6334	62745	61861.7
804.6503	307.8418	62516.45	61628.3
804.7933	310.0495	62507.9	61618.1
804.9363	312.2568	62463	61566.8
805.0793	314.4635	62421.85	61522.75
805.2223	316.6696	62533.15	61636.45
805.3653	318.8752	62583.7	61675.2
805.5084	321.0802	62255.95	61355.35
805.6514	323.2847	62400.65	61496.75
805.7945	325.4887	62376.5	61476.3
805.9376	327.692	62293.65	61395.05
806.0807	329.8949	62370.6	61472.15
806.2238	332.0972	62269.5	61366.8
806.367	334.2989	62311.4	61405.35
806.5101	336.5001	62393.05	61486.25
806.6533	338.7007	62148.1	61240.5
806.7965	340.9008	62275.65	61369.65
806.9397	343.1003	62281.1	61370.65
807.0829	345.2992	62344.5	61435.4
807.2261	347.4976	62233.8	61321.55
807.3693	349.6955	62276.85	61360.75
807.5126	351.8927	62188.4	61269.75
807.6559	354.0895	62291.15	61363.25
807.7991	356.2856	62280.6	61362.85
807.9424	358.4812	62376.1	61457.2
808.0857	360.6763	62180.6	61261.5
808.2291	362.8707	62353.35	61435.3
808.3724	365.0646	62254.75	61339.75
808.5158	367.258	62231.95	61314.45
808.6591	369.4508	62120.6	61197
808.8025	371.643	62292.25	61369.6
808.9459	373.8346	62205.65	61283.65
809.0893	376.0257	62186	61255.2
809.2327	378.2162	62136.85	61209.05
809.3762	380.4062	61994.6	61064.5
809.5196	382.5956	62119.25	61186.6
809.6631	384.7844	62112.95	61186.45
809.8066	386.9726	62163.85	61234.1
809.9501	389.1603	62140.45	61209.45
810.0936	391.3474	61995.55	61024.85
810.2371	393.5339	62104.75	61172.85
810.3806	395.7199	61922.55	60996.9
810.5241	397.9052	61954.2	61030.95
810.6677	400.09	61994.85	61071.1
810.8113	402.2743	62100.15	61177.55
810.9548	404.4579	61946.7	61027.15
811.0984	406.641	61960.65	61043
811.2421	408.8235	62045.35	61127.1
811.3857	411.0054	62079.3	61158.6
811.5293	413.1868	62147.4	61223.85
811.673	415.3675	62126.75	61198.7
811.8166	417.5477	62108.6	61181.5
811.9603	419.7273	62137.3	61214.1
812.104	421.9064	62089.75	61159.65
812.2477	424.0848	62102	61171.2
812.3914	426.2627	62164.25	61235.4
812.5351	428.4399	61965.15	61031.15
812.6788	430.6166	61818.7	60882.4
812.8226	432.7928	61946.45	61004.95
812.9663	434.9683	61780.25	60847.8
813.1101	437.1432	61732.6	60796.2
813.2539	439.3176	61841.45	60916.15
813.3977	441.4914	61625.8	60695.1
813.5415	443.6645	61671.1	60739.9
813.6853	445.8371	61679	60743.3
813.8291	448.0091	61541.45	60611.1
813.973	450.1806	61477.8	60539.65
814.1168	452.3514	61498.4	60568.8
814.2607	454.5216	61382.95	60441.85
814.4046	456.6913	61472.4	60541.8
814.5485	458.8603	61499.35	60569.9
814.6924	461.0288	61381.4	60455.8
814.8363	463.1967	61536.95	60613.65
814.9802	465.3639	61509.25	60578.9
815.1241	467.5306	61254.5	60323.55
815.2681	469.6967	61409.15	60480.15
815.412	471.8622	61503.45	60578.15
815.556	474.0271	61420.85	60491.3
815.7	476.1914	61437.65	60496.9
815.844	478.3551	61438.8	60504.85
815.988	480.5182	61621.1	60691.25
816.132	482.6807	61397.6	60478.85
816.276	484.8426	61414.3	60502.85
816.4201	487.0039	61609.45	60686.1
816.5641	489.1647	61649.25	60719.6
816.7082	491.3248	61480.35	60544.75
816.8522	493.4843	61713.65	60788.65
816.9963	495.6432	61721.2	60796.6
817.1404	497.8015	61444.85	60504.65
817.2845	499.9592	61621.75	60673.4
817.4286	502.1163	61606.5	60663.25
817.5727	504.2728	61565.35	60632.95
817.7168	506.4287	61526.5	60605.95
817.861	508.5839	61343.05	60420.6
818.0051	510.7386	61403.35	60474.15
818.1493	512.8927	61407.95	60466.5
818.2935	515.0461	61355.65	60415.35
818.4377	517.199	61444.15	60502.9
818.5818	519.3512	61343.95	60402.45
818.726	521.5029	61324.8	60385.05
818.8703	523.6539	61349.85	60412.25
819.0145	525.8043	61185.95	60246.75
819.1587	527.9541	61360.2	60414.55
819.303	530.1033	61333.95	60397.55
819.4472	532.2519	61234.8	60295.45
819.5915	534.3999	61361.6	60418
819.7357	536.5472	61449.75	60510.15
819.88	538.694	61279.45	60343.4
820.0243	540.8401	61481.75	60539.75
820.1686	542.9856	61511.75	60561.8
820.3129	545.1305	61628.15	60670.3
820.4572	547.2748	61450.7	60485.5
820.6016	549.4185	61393.7	60428.05
820.7459	551.5615	61464.9	60503.8
820.8902	553.704	61409.5	60446.45
821.0346	555.8458	61304.2	60347.7
821.1789	557.987	61313.5	60363.3
821.3233	560.1276	61373.25	60416.1
821.4677	562.2675	61321.35	60366.45
821.6121	564.4069	61339.6	60383.95
821.7565	566.5456	61425.5	60476.1
821.9009	568.6837	61238.7	60290.65
822.0453	570.8212	61298.85	60351.55
822.1897	572.958	61028.55	60081.25
822.3342	575.0942	61190.3	60243.6
822.4786	577.2299	61007.3	60069.4
822.6231	579.3648	60960.05	60034.85
822.7675	581.4992	60934.85	60022.35
822.912	583.6329	60918.1	59998.95
823.0565	585.766	60938.25	60013.5
823.201	587.8985	60981	60052.5
823.3454	590.0304	60769.9	59817.75
823.4899	592.1616	60934.95	59977.3
823.6345	594.2922	60845.1	59894.35
823.779	596.4222	60702	59746.55
823.9235	598.5515	60692.1	59736.15
824.068	600.6802	60752.3	59797.7
824.2126	602.8083	60523.35	59574.45
824.3571	604.9358	60495.3	59542.45
824.5017	607.0626	60660.75	59703.7
824.6462	609.1888	60414.1	59449.45
824.7908	611.3144	60548.5	59581.75
824.9354	613.4393	60427.65	59464.05
825.08	615.5636	60301.75	59337.1
825.2246	617.6873	60387.65	59426.85
825.3692	619.8103	60251.7	59290.15
825.5138	621.9327	60404.1	59446.45
825.6584	624.0544	60388.05	59439.3
825.803	626.1756	60269.1	59316.7
825.9477	628.2961	60286	59332.25
826.0923	630.4159	60188.45	59231.25
826.237	632.5351	60159.55	59200.4
826.3816	634.6537	60373.3	59414.85
826.5263	636.7716	60085.2	59120.45
826.6709	638.8889	60178.65	59209.4
826.8156	641.0056	60157.05	59189.25
826.9603	643.1216	60161.95	59197.65
827.105	645.237	60228.5	59265.75
827.2497	647.3518	60066	59113.1
827.3944	649.4659	60123.95	59171.7
827.5391	651.5793	60121.45	59173.6
827.6838	653.6922	60119.35	59167.1
827.8285	655.8043	59926.2	58974.9
827.9733	657.9159	60192.45	59238.6
828.118	660.0268	59707.35	58753.75
828.2627	662.137	59980.1	59019.95
828.4075	664.2466	60015.05	59045.15
828.5522	666.3556	59888.7	58923.05
828.697	668.4639	59953.8	58989.95
828.8418	670.5716	59834.65	58880.75
828.9865	672.6786	59933.9	58974.75
829.1313	674.785	59768.55	58803.35
829.2761	676.8907	59801.05	58839.3
829.4209	678.9958	59860.4	58907.9
829.5657	681.1002	59887.6	58926.65
829.7105	683.204	59682.8	58714.4
829.8553	685.3072	59597.05	58629.5
830.0001	687.4097	59671.35	58704.15
830.1449	689.5115	59608.05	58640.4
830.2898	691.6127	59711.35	58753.05
830.4346	693.7132	59557.7	58601.7
830.5794	695.8131	59549.2	58568.6
830.7243	697.9123	59617.95	58648.3
830.8691	700.0109	59629.95	58656.8
831.014	702.1089	59356.9	58387.15
831.1588	704.2061	59440.9	58477.65
831.3037	706.3028	59456.95	58491.7
831.4486	708.3987	59500.1	58533.1
831.5935	710.4941	59383.1	58422.35
831.7383	712.5887	59540	58578.35
831.8832	714.6827	59437	58472.45
832.0281	716.7761	59611.35	58653.75
832.173	718.8688	59727.65	58762.45
832.3179	720.9608	59595.65	58622.2
832.4628	723.0522	59626	58646.5
832.6077	725.1429	59403.55	58432.6
832.7527	727.233	59716.75	58749.3
832.8976	729.3224	58951.2	57985.45
833.0425	731.4112	59216.55	58248.15
833.1874	733.4993	59206.25	58238.7
833.3324	735.5867	59154.4	58188.25
833.4773	737.6735	58879.3	57910.15
833.6222	739.7596	58638.6	57667.45
833.7672	741.845	58633.65	57665.7
833.9122	743.9298	58971.5	58006.2
834.0571	746.014	58579.1	57610.4
834.2021	748.0974	58328.35	57350.8
834.347	750.1802	58776.15	57804.2
834.492	752.2624	58139.4	57170.15
834.637	754.3439	58216.9	57243
834.782	756.4247	58393.75	57409.2
834.9269	758.5048	58149.1	57176.7
835.0719	760.5843	58300.3	57327.4
835.2169	762.6631	58483.65	57509.8
835.3619	764.7413	58451.6	57481.6
835.5069	766.8188	58615.15	57640.25
835.6519	768.8956	58869.1	57893.5
835.7969	770.9718	58886.15	57914.35
835.9419	773.0473	58724.15	57754
836.0869	775.1221	58283.45	57310.7
836.232	777.1962	58184.9	57211.7
836.377	779.2697	57751.85	56773.1
836.522	781.3426	57986.85	56993.3
836.667	783.4147	58100.7	57128.6
836.8121	785.4862	58127.6	57158.25
836.9571	787.557	57794.15	56814.2
837.1021	789.6271	58015.1	57036.3
837.2472	791.6966	57564.2	56588.3
837.3922	793.7654	57064.7	56089.5
837.5373	795.8335	57019.55	56049.25
837.6823	797.901	57050.5	56075.55
837.8274	799.9678	56822.55	55847.6
837.9724	802.0339	56757.7	55781.15
838.1175	804.0993	56770.4	55784.85
838.2626	806.1641	56594.4	55614.55
838.4076	808.2282	56510.3	55536.45
838.5527	810.2916	56389.4	55415.7
838.6978	812.3544	56578.3	55607.85
838.8428	814.4164	56128.75	55156.4
838.9879	816.4778	56260.6	55282.8
839.133	818.5385	56218.95	55241.1
839.2781	820.5986	56203.7	55222.7
839.4232	822.658	56271.8	55291.95
839.5682	824.7166	56309.25	55334.3
839.7133	826.7747	56069.95	55091.7
839.8584	828.832	56254	55273.25
840.0035	830.8886	56450.05	55467.6
840.1486	832.9446	56431.65	55448.95
840.2937	834.9999	55852.55	54878.3
840.4388	837.0545	56131.4	55151.35
840.5839	839.1085	56184.2	55207.55
840.729	841.1618	56064.9	55083.8
840.8741	843.2143	55607.15	54628.6
841.0192	845.2662	55525.1	54547.1
841.1643	847.3175	55661	54686.1
841.3095	849.368	55107.9	54134.6
841.4546	851.4179	55488.1	54509.65
841.5997	853.467	55039	54060.55
841.7448	855.5155	55206	54224.8
841.8899	857.5633	54860	53887.85
842.0351	859.6105	54636.95	53658.85
842.1802	861.6569	54811.6	53832.7
842.3253	863.7027	54335.15	53353.85
842.4704	865.7478	54489.95	53505.75
842.6156	867.7922	54359.3	53379.35
842.7607	869.8359	54560.85	53576.9
842.9058	871.8789	54086	53108
843.0509	873.9212	54398.1	53385.45
843.1961	875.9629	54418.85	53436.9
843.3412	878.0039	54435.45	53456.65
843.4863	880.0441	54254.85	53281.8
843.6315	882.0837	54236.7	53258.2
843.7766	884.1226	54214.15	53233
843.9218	886.1609	54076.3	53101.6
844.0669	888.1984	53827.2	52850.35
844.212	890.2352	54234.3	53257.95
844.3572	892.2714	53690.4	52708.35
844.5023	894.3069	53848.45	52864.55
844.6475	896.3416	53521.7	52546.4
844.7926	898.3757	53445.75	52466.15
844.9377	900.4091	52948.75	51965.55
845.0829	902.4418	53534.15	52551.6
845.228	904.4739	53093.7	52108.35
845.3732	906.5052	53190.9	52209.5
845.5183	908.5358	52877.75	51895.25
845.6635	910.5658	52629.7	51644.8
845.8086	912.595	52557.85	51575.65
845.9538	914.6236	52043.25	51065.5
846.0989	916.6515	52657.75	51678.75
846.2441	918.6786	51884.1	50899.8
846.3892	920.7051	52095.4	51111.9
846.5344	922.7309	52034.85	51052.2
846.6795	924.756	52048.75	51069.95
846.8246	926.7804	51860.85	50880.7
846.9698	928.8041	51309.05	50326.45
847.1149	930.8272	51606.6	50625.7
847.2601	932.8495	51502.3	50520.85
847.4052	934.8711	51088.65	50106.85
847.5504	936.892	50840.95	49861.55
847.6955	938.9123	50886.7	49903.95
847.8407	940.9318	50583	49604.6
847.9858	942.9506	50485.95	49501.55
848.131	944.9688	50380.5	49402
848.2761	946.9862	49911.95	48930.2
848.4213	949.003	49923.05	48939
848.5664	951.019	49495.5	48511.2
848.7115	953.0344	49601.75	48620.1
848.8567	955.0491	49470.15	48491.05
849.0018	957.063	49588.65	48607.75
849.147	959.0763	49701.85	48717.5
849.2921	961.0888	49372.1	48391.4
849.4373	963.1007	49521.7	48545.9
849.5824	965.1119	49474.45	48504.6
849.7275	967.1223	49301.3	48340.8
849.8727	969.1321	49442.35	48481.15
850.0178	971.1412	49105.3	48140.7
850.1629	973.1495	48874.4	47896.05
850.3081	975.1572	48976.05	47963.7
850.4532	977.1641	48914.3	47933.65
850.5983	979.1704	48778.85	47798.45
850.7435	981.1759	48692.95	47707.75
850.8886	983.1808	48589.35	47609.3
851.0337	985.1849	48529.9	47537.1
851.1788	987.1884	48570.1	47589.9
851.324	989.1911	48768.9	47791.55
851.4691	991.1932	48360.95	47380.7
851.6142	993.1945	48385.4	47411.3
851.7593	995.1951	48329.1	47355.75
851.9045	997.1951	48119.4	47132.75
852.0496	999.1943	47891.15	46911.5
852.1947	1001.1928	47645.45	46668.2
852.3398	1003.1906	47612.9	46633.2
852.4849	1005.1877	47393.95	46417.25
852.63	1007.1841	47187	46207.6
852.7751	1009.1798	47071.8	46096.3
852.9202	1011.1748	46904.5	45925.25
853.0653	1013.1691	46684.25	45709.15
853.2104	1015.1627	46162.3	45190.2
853.3555	1017.1556	45878.3	44908.05
853.5006	1019.1477	45839.2	44867.95
853.6457	1021.1392	45439.5	44475.35
853.7908	1023.1299	45237.05	44270.85
853.9359	1025.12	45206.25	44245.75
854.081	1027.1093	44954.45	44010.15
854.2261	1029.0979	44905.75	43964.9
854.3712	1031.0859	44865.15	43917.4
854.5163	1033.0731	44599.6	43640.2
854.6613	1035.0596	44568	43602.35
854.8064	1037.0454	44306.1	43339.85
854.9515	1039.0304	44063.75	43089.4
855.0965	1041.0148	43707.6	42739.1
855.2416	1042.9985	43565.85	42593.45
855.3867	1044.9814	43606.85	42633.25
855.5317	1046.9636	43271.15	42299.65
855.6768	1048.9452	43178.35	42208.5
855.8219	1050.926	43101.25	42133.3
855.9669	1052.9061	42941.6	41968.6
856.112	1054.8855	42868.6	41894.55
856.257	1056.8642	42809.9	41834.65
856.4021	1058.8421	42764.6	41788.75
856.5471	1060.8194	42664.8	41688.2
856.6921	1062.7959	42569.35	41595.6
856.8372	1064.7717	42558.25	41584.65
856.9822	1066.7469	42471.7	41495.8
857.1272	1068.7213	42333.95	41359.75
857.2723	1070.695	42255.8	41284.8
857.4173	1072.6679	42012.8	41041.25
857.5623	1074.6402	41960.5	40990.05
857.7073	1076.6117	41846.35	40869.75
857.8523	1078.5826	41805.05	40831
857.9973	1080.5527	41672.25	40693.45
858.1423	1082.5221	41563.3	40593.85
858.2873	1084.4908	41614.35	40641.75
858.4323	1086.4587	41618.8	40646.65
858.5773	1088.426	41661.45	40687.75
858.7223	1090.3925	41466.3	40491.4
858.8673	1092.3584	41366.4	40392.75
859.0123	1094.3235	41099.25	40129.6
859.1573	1096.2879	40899.15	39930.45
859.3022	1098.2515	40908.55	39936.6
859.4472	1100.2145	40920.15	39946.3
859.5922	1102.1767	40808.2	39837.4
859.7371	1104.1382	40893.1	39926.05
859.8821	1106.099	40998.75	40024.5
860.027	1108.0591	40960.1	39989.5
860.172	1110.0185	40969.55	39997.45
860.3169	1111.9771	41027.45	40060.5
860.4619	1113.9351	40644.6	39671.7
860.6068	1115.8923	40328.5	39357.15
860.7517	1117.8488	40030.2	39056.25
860.8967	1119.8045	39627.3	38656.95
861.0416	1121.7596	39534.85	38570.6
861.1865	1123.7139	39347.05	38379.85
861.3314	1125.6675	39291.4	38322.25
861.4763	1127.6204	39277.05	38306.7
861.6212	1129.5726	39108.55	38134.4
861.7661	1131.524	39064.95	38095
861.911	1133.4748	39034.6	38061.75
862.0559	1135.4248	38769.65	37801.85
862.2008	1137.3741	38695.3	37726.75
862.3457	1139.3226	38598.45	37627.65
862.4905	1141.2705	38510.5	37538.6
862.6354	1143.2176	38196.15	37222.3
862.7803	1145.164	38177.7	37205.15
862.9251	1147.1097	38046.05	37076
863.07	1149.0546	37992.45	37016.85
863.2148	1150.9989	37888.6	36920.1
863.3597	1152.9424	37716.4	36744.15
863.5045	1154.8852	37583.55	36611.55
863.6493	1156.8272	37383.65	36416
863.7942	1158.7686	37369.55	36394.4
863.939	1160.7092	37154.6	36186.2
864.0838	1162.6491	37045.45	36075.45
864.2286	1164.5883	37107.5	36137
864.3734	1166.5267	37031.55	36062.8
864.5182	1168.4644	37086.95	36120.35
864.663	1170.4014	37177.85	36205.75
864.8078	1172.3377	37346	36379.4
864.9526	1174.2732	37433.6	36464.95
865.0974	1176.2081	37630.1	36662.05
865.2421	1178.1421	37686.85	36714.9
865.3869	1180.0755	37937.85	36972.6
