Software Version:	3.9.2.0
Unit SN:	10000200
Spectrometer SN:	6960
Date:	3/26/2024 1:27:35 PM
Data Line Index:	25
Spectral Points:	2048
Integration time (ms):	125
Averages:	20
Delay (ms):	30000
Sequence Number:	1
Processing:	dark subtract
Laser Power (mW):	300
Laser Current (mA):	822
Laser Diode Temp (C):	25
Laser Case Temp (C):	26.8
System Temp (C):	26.8
Spectrometer Temp (C):	24.5
CCD Temp (C):	0
Secondary Temp (C):	20.006
Heatsink Temp (C):	22.311
CCDPCB Temp (C):	36.474
SecondaryPCB Temp (C):	33.961

Wavelength	RamanShift	Raw Counts	Dark Subtracted
787.061	30.1047	486.05	77.6
787.2016	32.3739	489.45	82.5
787.3422	34.6426	499.3	89
787.4828	36.9109	502.6	88.1
787.6235	39.1787	511.15	94.5
787.7642	41.4461	522.9	101.45
787.9049	43.7131	532.7	109.3
788.0456	45.9796	542.45	113.65
788.1863	48.2456	554.05	121.25
788.3271	50.5112	566.1	128.8
788.4679	52.7764	569.65	130.9
788.6087	55.0411	581	140
788.7496	57.3054	600.15	154.4
788.8904	59.5692	613.5	164.85
789.0313	61.8326	628.3	176.3
789.1722	64.0955	639	181.25
789.3132	66.3579	659	196.95
789.4541	68.6199	684.5	220.2
789.5951	70.8815	720.7	255.55
789.7361	73.1426	803.2	332.35
789.8771	75.4032	1012.6	537.6
790.0181	77.6634	1523.05	1043.45
790.1592	79.9231	2728.9	2240.25
790.3003	82.1824	5402.95	4903
790.4414	84.4412	10279.95	9762.95
790.5825	86.6995	17131.9	16588.35
790.7237	88.9574	24026.65	23464.1
790.8648	91.2148	29053.75	28472.65
791.006	93.4717	31734.45	31141.35
791.1472	95.7282	32806.25	32208
791.2885	97.9842	33264.35	32661.8
791.4297	100.2398	33295.45	32688.9
791.571	102.4949	33213.3	32603.05
791.7123	104.7495	33028.65	32416.1
791.8536	107.0036	32793.3	32181.05
791.9949	109.2573	32699	32083.85
792.1363	111.5105	32544.65	31929.7
792.2777	113.7632	32367.5	31753.15
792.4191	116.0154	32293.9	31668.5
792.5605	118.2672	32335.9	31714.95
792.7019	120.5185	32280.3	31657.7
792.8434	122.7693	32250.1	31628.8
792.9849	125.0197	32312.3	31686.2
793.1264	127.2696	32255.85	31628.65
793.2679	129.519	32360.5	31725.05
793.4094	131.7679	32312.35	31675.85
793.551	134.0163	32316.65	31673.9
793.6926	136.2642	32254.85	31611.75
793.8342	138.5117	32193.1	31542.75
793.9758	140.7587	32134	31487.65
794.1175	143.0052	32112.85	31461.75
794.2591	145.2512	31990.6	31339.75
794.4008	147.4967	31878.85	31228.6
794.5425	149.7417	31809.15	31157.4
794.6842	151.9863	31780.65	31123
794.826	154.2304	31777.25	31117.5
794.9677	156.4739	31623.95	30958.9
795.1095	158.717	31595.45	30930.05
795.2513	160.9596	31539.1	30867.9
795.3931	163.2017	31477.5	30805.9
795.535	165.4433	31411.9	30737.9
795.6768	167.6844	31272.8	30598.6
795.8187	169.925	31240.95	30560.25
795.9606	172.1651	31020.75	30336.95
796.1025	174.4047	31025.25	30341.65
796.2445	176.6439	30992.15	30302.85
796.3864	178.8825	30924	30235.4
796.5284	181.1206	30924.2	30230.65
796.6704	183.3582	30858.75	30159.25
796.8124	185.5954	30844.75	30144.85
796.9544	187.832	30796.75	30089.8
797.0965	190.0681	30862.9	30156.3
797.2386	192.3037	30882.1	30172.5
797.3806	194.5388	30849.65	30135
797.5228	196.7734	30867.7	30151.75
797.6649	199.0075	30975.15	30256.95
797.807	201.2411	31143.9	30419.75
797.9492	203.4742	31090.35	30370.15
798.0914	205.7068	31246.15	30522.5
798.2336	207.9389	31199.3	30477
798.3758	210.1704	31284.9	30557.1
798.518	212.4015	31246.6	30514.65
798.6603	214.632	31307.25	30574.1
798.8025	216.862	31325.7	30602.9
798.9448	219.0915	31324.55	30612.15
799.0871	221.3205	31402.7	30688.5
799.2294	223.549	31514.15	30805.75
799.3718	225.777	31537.3	30830.4
799.5141	228.0044	31495.05	30784.2
799.6565	230.2314	31592.3	30885.15
799.7989	232.4578	31555.05	30846.3
799.9413	234.6837	31607.25	30895.85
800.0837	236.909	31637.8	30922.05
800.2262	239.1339	31678.95	30938.55
800.3687	241.3582	31699.2	30967.7
800.5111	243.582	31615.7	30859.2
800.6536	245.8053	31643.1	30898.2
800.7961	248.0281	31599.85	30854.65
800.9387	250.2503	31571.8	30822.2
801.0812	252.472	31619	30865.95
801.2238	254.6932	31709.1	30957.65
801.3664	256.9139	31596.7	30840.2
801.509	259.134	31702.05	30940.65
801.6516	261.3536	31673.95	30911.65
801.7942	263.5727	31822.05	31058.35
801.9369	265.7912	31791	31031.35
802.0795	268.0092	31886.1	31123.75
802.2222	270.2267	31880	31120
802.3649	272.4436	31869.8	31107.55
802.5076	274.6601	31866.3	31095.25
802.6504	276.8759	31821.45	31059.8
802.7931	279.0913	31870.05	31102.05
802.9359	281.3061	31813.2	31045.85
803.0787	283.5204	31865.85	31092.65
803.2215	285.7341	31847.75	31073.35
803.3643	287.9473	31903.1	31117.4
803.5071	290.16	31880.95	31101.7
803.6499	292.3721	31852.25	31072.5
803.7928	294.5837	31872.35	31095.65
803.9357	296.7947	31878.7	31098.95
804.0786	299.0052	31934.1	31157
804.2215	301.2152	31869.3	31087.4
804.3644	303.4246	31911.2	31131.5
804.5074	305.6334	31752.9	30974.85
804.6503	307.8418	31674.35	30892.6
804.7933	310.0495	31550.9	30768.8
804.9363	312.2568	31425.75	30645.8
805.0793	314.4635	31235.35	30450.5
805.2223	316.6696	31149.6	30361.6
805.3653	318.8752	31021.4	30225.55
805.5084	321.0802	30944.4	30156.95
805.6514	323.2847	30950.5	30163
805.7945	325.4887	30945.35	30158.5
805.9376	327.692	30806.75	30020.55
806.0807	329.8949	30925.1	30133.8
806.2238	332.0972	30830.1	30035.05
806.367	334.2989	30800.35	30002.55
806.5101	336.5001	30705.85	29913.85
806.6533	338.7007	30658.45	29860.75
806.7965	340.9008	30686.55	29883
806.9397	343.1003	30590.3	29788.9
807.0829	345.2992	30569.7	29764.8
807.2261	347.4976	30481.6	29676.2
807.3693	349.6955	30431.1	29621.45
807.5126	351.8927	30564	29755.8
807.6559	354.0895	30411.55	29592.45
807.7991	356.2856	30415.25	29604.3
807.9424	358.4812	30338	29530.85
808.0857	360.6763	30387.35	29576.45
808.2291	362.8707	30280.1	29466.7
808.3724	365.0646	30361.6	29548.15
808.5158	367.258	30346.8	29532.35
808.6591	369.4508	30232.4	29415.15
808.8025	371.643	30264.15	29445.8
808.9459	373.8346	30160.05	29337.75
809.0893	376.0257	30169.65	29344.05
809.2327	378.2162	30099.25	29276.25
809.3762	380.4062	30137.75	29311.9
809.5196	382.5956	30037.7	29209.45
809.6631	384.7844	29981.25	29154.35
809.8066	386.9726	29859.9	29031.8
809.9501	389.1603	29830.4	29001.3
810.0936	391.3474	29813.1	28953.85
810.2371	393.5339	29745.3	28917.7
810.3806	395.7199	29659.15	28837.75
810.5241	397.9052	29683.6	28862.95
810.6677	400.09	29599.2	28779.6
810.8113	402.2743	29616.45	28798.05
810.9548	404.4579	29599.1	28782.25
811.0984	406.641	29743.65	28922.35
811.2421	408.8235	29725.5	28908
811.3857	411.0054	29792.5	28975.25
811.5293	413.1868	29885.55	29058.85
811.673	415.3675	29824.55	29000.8
811.8166	417.5477	29813.1	28984.3
811.9603	419.7273	29784.05	28955.15
812.104	421.9064	29699.1	28863.85
812.2477	424.0848	29600.15	28768.1
812.3914	426.2627	29458.9	28625
812.5351	428.4399	29384.15	28546.25
812.6788	430.6166	29273.85	28434.5
812.8226	432.7928	29173.7	28332.8
812.9663	434.9683	29035.7	28196.4
813.1101	437.1432	28902.35	28065.3
813.2539	439.3176	28817.6	27982.75
813.3977	441.4914	28711.95	27872.4
813.5415	443.6645	28718.3	27876.2
813.6853	445.8371	28572.6	27728.65
813.8291	448.0091	28415.8	27573.45
813.973	450.1806	28382.8	27546.9
814.1168	452.3514	28238.35	27396.75
814.2607	454.5216	28288.75	27440.35
814.4046	456.6913	28202.3	27357.85
814.5485	458.8603	28152.05	27307.5
814.6924	461.0288	28185	27346.4
814.8363	463.1967	28113.4	27273.7
814.9802	465.3639	28155.85	27311.75
815.1241	467.5306	28082.85	27237.85
815.2681	469.6967	28021.6	27176.9
815.412	471.8622	27945.25	27102.55
815.556	474.0271	28006.4	27160.1
815.7	476.1914	27985	27134.15
815.844	478.3551	27944.55	27096.15
815.988	480.5182	27986.15	27140
816.132	482.6807	27972.5	27128.65
816.276	484.8426	28063.5	27221.2
816.4201	487.0039	28160.55	27316.95
816.5641	489.1647	28218	27369.7
816.7082	491.3248	28315.15	27465.7
816.8522	493.4843	28296.95	27450.8
816.9963	495.6432	28263.45	27415.95
817.1404	497.8015	28132.35	27278.2
817.2845	499.9592	28168	27312.45
817.4286	502.1163	28104.9	27246.8
817.5727	504.2728	27924.95	27072.3
817.7168	506.4287	27951.4	27102.35
817.861	508.5839	27804.4	26956.55
818.0051	510.7386	27691.1	26840.6
818.1493	512.8927	27676.15	26817.2
818.2935	515.0461	27690.15	26833.8
818.4377	517.199	27700.9	26846.7
818.5818	519.3512	27739.7	26881.9
818.726	521.5029	27725.75	26864.25
818.8703	523.6539	27807.55	26946.95
819.0145	525.8043	27789.8	26929.75
819.1587	527.9541	27747.95	26888.25
819.303	530.1033	27646.45	26788.65
819.4472	532.2519	27615.45	26755.75
819.5915	534.3999	27573.4	26713
819.7357	536.5472	27555.8	26695.65
819.88	538.694	27549	26691.9
820.0243	540.8401	27606.9	26746
820.1686	542.9856	27716.85	26848.15
820.3129	545.1305	27677.25	26808.1
820.4572	547.2748	27713.75	26841.7
820.6016	549.4185	27650.75	26777.6
820.7459	551.5615	27530.65	26657.95
820.8902	553.704	27530.45	26656.15
821.0346	555.8458	27472.65	26605.45
821.1789	557.987	27522.05	26653.5
821.3233	560.1276	27511.9	26641
821.4677	562.2675	27611.7	26741.35
821.6121	564.4069	27676.55	26808.8
821.7565	566.5456	27748.2	26878.75
821.9009	568.6837	27793.45	26925.5
822.0453	570.8212	27659.45	26793.8
822.1897	572.958	27410.95	26536.7
822.3342	575.0942	27221.45	26354.7
822.4786	577.2299	27074.7	26210.45
822.6231	579.3648	26992.25	26133.3
822.7675	581.4992	26811.15	25955.55
822.912	583.6329	26750.85	25894
823.0565	585.766	26752.4	25895.25
823.201	587.8985	26731.95	25873.05
823.3454	590.0304	26739.55	25862.85
823.4899	592.1616	26696.9	25822
823.6345	594.2922	26606.95	25733.65
823.779	596.4222	26534.1	25656.65
823.9235	598.5515	26451.6	25572.4
824.068	600.6802	26330.25	25454.35
824.2126	602.8083	26194.65	25315.25
824.3571	604.9358	26194.25	25319.05
824.5017	607.0626	26120.75	25241.15
824.6462	609.1888	26102.05	25222.65
824.7908	611.3144	26129.1	25251.35
824.9354	613.4393	26113.7	25235.75
825.08	615.5636	26120.95	25242.15
825.2246	617.6873	26108.85	25228.1
825.3692	619.8103	26135.05	25253.3
825.5138	621.9327	26027.95	25147
825.6584	624.0544	25959.55	25086.15
825.803	626.1756	25904.4	25025
825.9477	628.2961	25812.25	24930.6
826.0923	630.4159	25766.1	24885.85
826.237	632.5351	25734.65	24855.75
826.3816	634.6537	25688.95	24805.5
826.5263	636.7716	25725.05	24837
826.6709	638.8889	25693.85	24806.05
826.8156	641.0056	25755.15	24868.7
826.9603	643.1216	25700.9	24813.7
827.105	645.237	25737.15	24850.3
827.2497	647.3518	25616.05	24735.95
827.3944	649.4659	25626.35	24746.25
827.5391	651.5793	25545	24665.45
827.6838	653.6922	25494.8	24613.6
827.8285	655.8043	25465.8	24584.35
827.9733	657.9159	25413.65	24529.3
828.118	660.0268	25341.8	24458.65
828.2627	662.137	25287.5	24400.2
828.4075	664.2466	25320.8	24432.15
828.5522	666.3556	25275.3	24390.35
828.697	668.4639	25212.65	24324.65
828.8418	670.5716	25206.65	24325.5
828.9865	672.6786	25155.65	24272.35
829.1313	674.785	25077.7	24187.55
829.2761	676.8907	25019.9	24136.05
829.4209	678.9958	25034.5	24150.8
829.5657	681.1002	24918.85	24028.05
829.7105	683.204	24915.85	24023.55
829.8553	685.3072	24878.15	23986.8
830.0001	687.4097	24837.65	23947.85
830.1449	689.5115	24819.55	23927.55
830.2898	691.6127	24827.8	23940.7
830.4346	693.7132	24750.55	23863.75
830.5794	695.8131	24789.4	23888.7
830.7243	697.9123	24771.35	23876.65
830.8691	700.0109	24713.1	23815.7
831.014	702.1089	24662.7	23771.4
831.1588	704.2061	24662.5	23770.9
831.3037	706.3028	24695.2	23797.3
831.4486	708.3987	24676.35	23781.5
831.5935	710.4941	24644.1	23751.95
831.7383	712.5887	24587.8	23695.6
831.8832	714.6827	24609.85	23711.85
832.0281	716.7761	24618.15	23726.25
832.173	718.8688	24629.3	23735.85
832.3179	720.9608	24607.85	23711.15
832.4628	723.0522	24586.3	23687.35
832.6077	725.1429	24561.9	23664.7
832.7527	727.233	24562.5	23666.65
832.8976	729.3224	24622.7	23725.6
833.0425	731.4112	24510	23614.75
833.1874	733.4993	24441.35	23543.05
833.3324	735.5867	24284.8	23390.75
833.4773	737.6735	24214.95	23319.45
833.6222	739.7596	24184.3	23286.65
833.7672	741.845	24109.9	23211.9
833.9122	743.9298	24028.4	23134.35
834.0571	746.014	23988.75	23093.25
834.2021	748.0974	23962.45	23062.65
834.347	750.1802	23873.9	22974.65
834.492	752.2624	23777.95	22877.5
834.637	754.3439	23702.2	22799.95
834.782	756.4247	23647.55	22737.3
834.9269	758.5048	23627.85	22725.25
835.0719	760.5843	23661.55	22759.55
835.2169	762.6631	23668.2	22765.15
835.3619	764.7413	23739.3	22840.85
835.5069	766.8188	23847.3	22945.75
835.6519	768.8956	23875.8	22976.7
835.7969	770.9718	24007.95	23109.15
835.9419	773.0473	23960.2	23058.25
836.0869	775.1221	23834.35	22932.6
836.232	777.1962	23716.3	22811.95
836.377	779.2697	23640.9	22737.75
836.522	781.3426	23596.9	22676.15
836.667	783.4147	23560.1	22654.6
836.8121	785.4862	23581.5	22679.65
836.9571	787.557	23528.85	22626.85
837.1021	789.6271	23367.45	22464
837.2472	791.6966	23192.25	22288.45
837.3922	793.7654	22946.65	22041.15
837.5373	795.8335	22834.1	21932.35
837.6823	797.901	22661.95	21759.4
837.8274	799.9678	22639.75	21732.5
837.9724	802.0339	22568.35	21666.4
838.1175	804.0993	22530.35	21620.8
838.2626	806.1641	22436.3	21529.65
838.4076	808.2282	22371.95	21470
838.5527	810.2916	22344.35	21440.7
838.6978	812.3544	22272.7	21368.7
838.8428	814.4164	22208.9	21305.65
838.9879	816.4778	22229.6	21323.45
839.133	818.5385	22143.5	21236.35
839.2781	820.5986	22149.9	21244.05
839.4232	822.658	22202.25	21295.25
839.5682	824.7166	22197.5	21289.85
839.7133	826.7747	22342.6	21435.95
839.8584	828.832	22395.5	21486.75
840.0035	830.8886	22396.55	21486.9
840.1486	832.9446	22477.1	21570.05
840.2937	834.9999	22371	21464.4
840.4388	837.0545	22227.85	21317.65
840.5839	839.1085	22120.55	21212.8
840.729	841.1618	22020.8	21110.4
840.8741	843.2143	21915.6	21008.4
841.0192	845.2662	21805.3	20897.35
841.1643	847.3175	21744.25	20839.6
841.3095	849.368	21666.7	20758.05
841.4546	851.4179	21621.75	20715.35
841.5997	853.467	21512.3	20606.5
841.7448	855.5155	21430.35	20523.5
841.8899	857.5633	21373.55	20465.8
842.0351	859.6105	21300.2	20393
842.1802	861.6569	21259.3	20350.35
842.3253	863.7027	21218.2	20308.35
842.4704	865.7478	21192.95	20284.1
842.6156	867.7922	21141.8	20229.4
842.7607	869.8359	21070.15	20160.85
842.9058	871.8789	21028.4	20117.85
843.0509	873.9212	21077.3	20137.25
843.1961	875.9629	20969.85	20059.4
843.3412	878.0039	21025.05	20115.35
843.4863	880.0441	21009.1	20102.4
843.6315	882.0837	20986.35	20074.55
843.7766	884.1226	20938.7	20026.35
843.9218	886.1609	20940.35	20029.75
844.0669	888.1984	20919.3	20008.7
844.212	890.2352	20960.8	20050.1
844.3572	892.2714	20872.6	19957.55
844.5023	894.3069	20859.4	19945.3
844.6475	896.3416	20728.15	19815.7
844.7926	898.3757	20668.55	19758.9
844.9377	900.4091	20619.95	19707.9
845.0829	902.4418	20560.6	19643.5
845.228	904.4739	20463.1	19548.8
845.3732	906.5052	20507.9	19596.55
845.5183	908.5358	20430.65	19517.45
845.6635	910.5658	20411.35	19496.6
845.8086	912.595	20285.1	19373.4
845.9538	914.6236	20187.25	19276.8
846.0989	916.6515	20146.2	19232.85
846.2441	918.6786	20047.85	19133.1
846.3892	920.7051	20033.8	19117.85
846.5344	922.7309	20000.1	19086.75
846.6795	924.756	19896.65	18985.35
846.8246	926.7804	19913	18999.45
846.9698	928.8041	19740.75	18823.25
847.1149	930.8272	19752.9	18839.1
847.2601	932.8495	19665.3	18748.15
847.4052	934.8711	19640.4	18723.15
847.5504	936.892	19603.75	18689.9
847.6955	938.9123	19486.5	18569.7
847.8407	940.9318	19496.95	18582.1
847.9858	942.9506	19370.55	18455
848.131	944.9688	19337	18422.7
848.2761	946.9862	19291.35	18378.4
848.4213	949.003	19145.75	18231.15
848.5664	951.019	19071.35	18159.75
848.7115	953.0344	18986.55	18071.8
848.8567	955.0491	18928.05	18013.1
849.0018	957.063	18945.95	18030.4
849.147	959.0763	18988.8	18065.8
849.2921	961.0888	18920.4	18004.75
849.4373	963.1007	18905.55	17990.6
849.5824	965.1119	18855.1	17942.9
849.7275	967.1223	18812.1	17903.85
849.8727	969.1321	18743.55	17838.3
850.0178	971.1412	18734.25	17822.75
850.1629	973.1495	18638.45	17724.5
850.3081	975.1572	18624.25	17694.55
850.4532	977.1641	18570.9	17656.8
850.5983	979.1704	18487.95	17573.55
850.7435	981.1759	18447.35	17529.9
850.8886	983.1808	18426.6	17511.35
851.0337	985.1849	18373.8	17450.15
851.1788	987.1884	18331	17414.55
851.324	989.1911	18307.9	17392.5
851.4691	991.1932	18262.8	17346.45
851.6142	993.1945	18220.25	17304.85
851.7593	995.1951	18096.25	17182.4
851.9045	997.1951	18101.7	17181.5
852.0496	999.1943	18045	17129.65
852.1947	1001.1928	17940.3	17023.25
852.3398	1003.1906	17865.15	16950.35
852.4849	1005.1877	17877.4	16958.85
852.63	1007.1841	17811.5	16897.25
852.7751	1009.1798	17724.45	16809.6
852.9202	1011.1748	17653.85	16738.1
853.0653	1013.1691	17588.5	16672.75
853.2104	1015.1627	17489.1	16575.4
853.3555	1017.1556	17300.85	16387.7
853.5006	1019.1477	17218.65	16301.7
853.6457	1021.1392	17114.6	16202.45
853.7908	1023.1299	17043.55	16135.4
853.9359	1025.12	16977.7	16070.6
854.081	1027.1093	16904.65	16002.45
854.2261	1029.0979	16870.15	15971.1
854.3712	1031.0859	16846.4	15943.95
854.5163	1033.0731	16839.95	15931.4
854.6613	1035.0596	16755.15	15845.15
854.8064	1037.0454	16639.15	15727.45
854.9515	1039.0304	16589.3	15676.25
855.0965	1041.0148	16462.05	15548.4
855.2416	1042.9985	16409.95	15494.2
855.3867	1044.9814	16367.35	15452.8
855.5317	1046.9636	16272.95	15354.9
855.6768	1048.9452	16207.9	15296.45
855.8219	1050.926	16213.5	15301.55
855.9669	1052.9061	16141.5	15231.25
856.112	1054.8855	16127.45	15212.65
856.257	1056.8642	16083.2	15168.35
856.4021	1058.8421	16087.55	15167.15
856.5471	1060.8194	16031.35	15115.1
856.6921	1062.7959	15974.55	15059.9
856.8372	1064.7717	15949.3	15033.35
856.9822	1066.7469	15932.3	15016
857.1272	1068.7213	15915.15	14997.6
857.2723	1070.695	15916.55	15001.9
857.4173	1072.6679	15845.65	14931.35
857.5623	1074.6402	15872.1	14955.95
857.7073	1076.6117	15828.45	14906.05
857.8523	1078.5826	15749.5	14833.25
857.9973	1080.5527	15668	14751.95
858.1423	1082.5221	15569.95	14653.05
858.2873	1084.4908	15562.8	14647.05
858.4323	1086.4587	15472.65	14558.25
858.5773	1088.426	15435.5	14521.35
858.7223	1090.3925	15389.6	14467.5
858.8673	1092.3584	15380.3	14466
859.0123	1094.3235	15287	14377
859.1573	1096.2879	15232.45	14320
859.3022	1098.2515	15253.7	14337.05
859.4472	1100.2145	15307.1	14391.6
859.5922	1102.1767	15258.6	14343.05
859.7371	1104.1382	15307.7	14396.25
859.8821	1106.099	15344.05	14425.9
860.027	1108.0591	15354.7	14442.1
860.172	1110.0185	15349.8	14432.25
860.3169	1111.9771	15333.2	14418.85
860.4619	1113.9351	15279.5	14365.45
860.6068	1115.8923	15204.7	14288.1
860.7517	1117.8488	15125.45	14209.55
860.8967	1119.8045	14997.35	14082.85
861.0416	1121.7596	14925.1	14009.9
861.1865	1123.7139	14823.45	13912.45
861.3314	1125.6675	14792.95	13879.15
861.4763	1127.6204	14809.85	13894.9
861.6212	1129.5726	14740.65	13826
861.7661	1131.524	14694.05	13779.95
861.911	1133.4748	14671.1	13755.15
862.0559	1135.4248	14528.2	13612.85
862.2008	1137.3741	14466.8	13554
862.3457	1139.3226	14386.45	13468.9
862.4905	1141.2705	14361.65	13446.6
862.6354	1143.2176	14288.1	13368.95
862.7803	1145.164	14258.8	13340.25
862.9251	1147.1097	14178.75	13263.8
863.07	1149.0546	14131.3	13213.5
863.2148	1150.9989	14073.55	13161
863.3597	1152.9424	14054.65	13139.95
863.5045	1154.8852	13990.4	13076.35
863.6493	1156.8272	13964.5	13049.05
863.7942	1158.7686	13944.65	13020.85
863.939	1160.7092	13866.85	12949.35
864.0838	1162.6491	13830.4	12914.7
864.2286	1164.5883	13863.6	12949.25
864.3734	1166.5267	13845.45	12932.55
864.5182	1168.4644	13833.7	12920.45
864.663	1170.4014	13878.35	12959.75
864.8078	1172.3377	13922.9	13007.15
864.9526	1174.2732	13954.45	13038.65
865.0974	1176.2081	14050.4	13139.75
865.2421	1178.1421	14145.2	13226.6
865.3869	1180.0755	14256.65	13345.6
865.5317	1182.0082	14320.35	13406.1
