Software Version:	3.9.2.0
Unit SN:	10000200
Spectrometer SN:	6960
Date:	3/26/2024 2:46:44 PM
Data Line Index:	25
Spectral Points:	2048
Integration time (ms):	125
Averages:	20
Delay (ms):	30000
Sequence Number:	1
Processing:	dark subtract
Laser Power (mW):	305
Laser Current (mA):	821
Laser Diode Temp (C):	25
Laser Case Temp (C):	27.9
System Temp (C):	28
Spectrometer Temp (C):	25.9
CCD Temp (C):	0
Secondary Temp (C):	20.013
Heatsink Temp (C):	23.418
CCDPCB Temp (C):	37.296
SecondaryPCB Temp (C):	34.762

Wavelength	RamanShift	Raw Counts	Dark Subtracted
787.061	30.1047	628.85	220
787.2016	32.3739	639.55	231.05
787.3422	34.6426	655.6	247.3
787.4828	36.9109	673.2	262.45
787.6235	39.1787	695.8	278.85
787.7642	41.4461	720.45	297.9
787.9049	43.7131	741.2	316.05
788.0456	45.9796	768.15	342.25
788.1863	48.2456	789.55	358.05
788.3271	50.5112	822.55	386.9
788.4679	52.7764	842.75	407.05
788.6087	55.0411	869.85	429.95
788.7496	57.3054	903.55	457.7
788.8904	59.5692	927.6	478.35
789.0313	61.8326	967.7	513.05
789.1722	64.0955	1013.75	556.8
789.3132	66.3579	1055.8	593.65
789.4541	68.6199	1109.45	645.05
789.5951	70.8815	1199.75	733.6
789.7361	73.1426	1389.6	916.75
789.8771	75.4032	1887.6	1411
790.0181	77.6634	3108.2	2621.95
790.1592	79.9231	6208.25	5714.45
790.3003	82.1824	13280.5	12766.55
790.4414	84.4412	28936.05	28391.65
790.5825	86.6995	56088.2	55500.3
790.7237	88.9574	65446.15	64813
790.8648	91.2148	65535	64872.2
791.006	93.4717	65535	64852
791.1472	95.7282	65535	64842
791.2885	97.9842	65535	64838.65
791.4297	100.2398	65535	64832.5
791.571	102.4949	65535	64829.15
791.7123	104.7495	65535	64830.4
791.8536	107.0036	65535	64828.2
791.9949	109.2573	65535	64830.3
792.1363	111.5105	65535	64825.55
792.2777	113.7632	65535	64821.5
792.4191	116.0154	65535	64810.35
792.5605	118.2672	65535	64821.15
792.7019	120.5185	65535	64820.55
792.8434	122.7693	65535	64817.7
792.9849	125.0197	65535	64814.5
793.1264	127.2696	65535	64808.9
793.2679	129.519	65535	64804.6
793.4094	131.7679	65535	64806.65
793.551	134.0163	65535	64803.1
793.6926	136.2642	65535	64795.9
793.8342	138.5117	65535	64791.7
793.9758	140.7587	65535	64790.35
794.1175	143.0052	65535	64786.95
794.2591	145.2512	65535	64792.25
794.4008	147.4967	65535	64790.65
794.5425	149.7417	65535	64784.45
794.6842	151.9863	65535	64784.05
794.826	154.2304	65535	64779.55
794.9677	156.4739	65535	64775.6
795.1095	158.717	65535	64774.75
795.2513	160.9596	65535	64771.4
795.3931	163.2017	65535	64769.7
795.535	165.4433	65535	64766.65
795.6768	167.6844	65535	64766.4
795.8187	169.925	65535	64763.5
795.9606	172.1651	65535	64760.85
796.1025	174.4047	65535	64756.75
796.2445	176.6439	65535	64761.3
796.3864	178.8825	65535	64755.05
796.5284	181.1206	65535	64751.1
796.6704	183.3582	65535	64747.75
796.8124	185.5954	65535	64743.35
796.9544	187.832	65535	64744.15
797.0965	190.0681	65535	64736.55
797.2386	192.3037	65535	64734.75
797.3806	194.5388	65535	64732.15
797.5228	196.7734	65535	64729.75
797.6649	199.0075	65535	64724.8
797.807	201.2411	65535	64717.3
797.9492	203.4742	65535	64721.35
798.0914	205.7068	65535	64720.45
798.2336	207.9389	65535	64722.15
798.3758	210.1704	65535	64716.9
798.518	212.4015	65535	64715.75
798.6603	214.632	65535	64716.6
798.8025	216.862	65535	64723.15
798.9448	219.0915	65535	64729.85
799.0871	221.3205	65535	64732.15
799.2294	223.549	65535	64738.55
799.3718	225.777	65535	64738.3
799.5141	228.0044	65535	64735.3
799.6565	230.2314	65535	64740.25
799.7989	232.4578	65535	64740.5
799.9413	234.6837	65535	64733.25
800.0837	236.909	65535	64734.15
800.2262	239.1339	65535	64704.05
800.3687	241.3582	65535	64715.8
800.5111	243.582	65535	64690.55
800.6536	245.8053	65535	64704.05
800.7961	248.0281	65535	64703.9
800.9387	250.2503	65535	64701.2
801.0812	252.472	65535	64698.15
801.2238	254.6932	65535	64694.7
801.3664	256.9139	65535	64690.55
801.509	259.134	65535	64687.05
801.6516	261.3536	65535	64692.75
801.7942	263.5727	65535	64684.9
801.9369	265.7912	65535	64683.75
802.0795	268.0092	65535	64685.25
802.2222	270.2267	65535	64686.8
802.3649	272.4436	65535	64686.75
802.5076	274.6601	65535	64678
802.6504	276.8759	65535	64688.9
802.7931	279.0913	65535	64682.6
802.9359	281.3061	65535	64686.35
803.0787	283.5204	65535	64677.05
803.2215	285.7341	65535	64670.75
803.3643	287.9473	65535	64664.1
803.5071	290.16	65535	64670.4
803.6499	292.3721	65535	64674
803.7928	294.5837	65535	64671.25
803.9357	296.7947	65535	64673.75
804.0786	299.0052	65535	64674
804.2215	301.2152	65535	64673.35
804.3644	303.4246	65535	64680.3
804.5074	305.6334	65535	64675.75
804.6503	307.8418	65535	64670.55
804.7933	310.0495	65535	64675.45
804.9363	312.2568	65535	64673
805.0793	314.4635	65535	64668.35
805.2223	316.6696	65535	64667.35
805.3653	318.8752	65535	64657.7
805.5084	321.0802	65535	64667.5
805.6514	323.2847	65535	64662.55
805.7945	325.4887	65535	64661.05
805.9376	327.692	65535	64660.05
806.0807	329.8949	65535	64658.9
806.2238	332.0972	65535	64659.95
806.367	334.2989	65535	64656.55
806.5101	336.5001	65535	64657.35
806.6533	338.7007	65535	64651.9
806.7965	340.9008	65535	64655
806.9397	343.1003	65535	64651.05
807.0829	345.2992	65535	64656.3
807.2261	347.4976	65535	64651.95
807.3693	349.6955	65535	64646.95
807.5126	351.8927	65535	64645.05
807.6559	354.0895	65535	64635.1
807.7991	356.2856	65535	64644.9
807.9424	358.4812	65535	64646.25
808.0857	360.6763	65535	64648.95
808.2291	362.8707	65535	64645.2
808.3724	365.0646	65535	64639.25
808.5158	367.258	65535	64643.05
808.6591	369.4508	65535	64637.75
808.8025	371.643	65535	64639.3
808.9459	373.8346	65535	64637.85
809.0893	376.0257	65535	64633.8
809.2327	378.2162	65535	64631.9
809.3762	380.4062	65535	64633.95
809.5196	382.5956	65535	64631.8
809.6631	384.7844	65535	64637.2
809.8066	386.9726	65535	64631
809.9501	389.1603	65535	64631.9
810.0936	391.3474	65535	64597.15
810.2371	393.5339	65535	64630.45
810.3806	395.7199	65535	64643.3
810.5241	397.9052	65535	64641.85
810.6677	400.09	65535	64642.1
810.8113	402.2743	65535	64642.55
810.9548	404.4579	65535	64649.3
811.0984	406.641	65535	64646.35
811.2421	408.8235	65535	64647.05
811.3857	411.0054	65535	64644.15
811.5293	413.1868	65535	64640
811.673	415.3675	65535	64633.7
811.8166	417.5477	65535	64634.9
811.9603	419.7273	65535	64633.9
812.104	421.9064	65535	64623.4
812.2477	424.0848	65535	64634.05
812.3914	426.2627	65535	64632.45
812.5351	428.4399	65535	64631.5
812.6788	430.6166	65535	64625.95
812.8226	432.7928	65535	64622.8
812.9663	434.9683	65535	64633.6
813.1101	437.1432	65535	64630.4
813.2539	439.3176	65535	64631.15
813.3977	441.4914	65535	64634.05
813.5415	443.6645	65535	64631.5
813.6853	445.8371	65535	64626.45
813.8291	448.0091	65535	64627.85
813.973	450.1806	65535	64627.7
814.1168	452.3514	65535	64634.3
814.2607	454.5216	65535	64618.75
814.4046	456.6913	65535	64626.15
814.5485	458.8603	65535	64627.8
814.6924	461.0288	65535	64633.8
814.8363	463.1967	65535	64637
814.9802	465.3639	65535	64629.85
815.1241	467.5306	65535	64629.55
815.2681	469.6967	65535	64631.2
815.412	471.8622	65535	64632.8
815.556	474.0271	65535	64633.3
815.7	476.1914	65535	64622.25
815.844	478.3551	65535	64627.6
815.988	480.5182	65535	64627.6
816.132	482.6807	65535	64635.55
816.276	484.8426	65535	64642.2
816.4201	487.0039	65535	64636
816.5641	489.1647	65535	64627.85
816.7082	491.3248	65535	64623.9
816.8522	493.4843	65535	64628.05
816.9963	495.6432	65535	64630.55
817.1404	497.8015	65535	64619.65
817.2845	499.9592	65535	64618
817.4286	502.1163	65535	64616.95
817.5727	504.2728	65535	64625.2
817.7168	506.4287	65535	64635.25
817.861	508.5839	65535	64636.3
818.0051	510.7386	65535	64626.25
818.1493	512.8927	65535	64618.2
818.2935	515.0461	65535	64621.15
818.4377	517.199	65535	64620.5
818.5818	519.3512	65535	64617.95
818.726	521.5029	65535	64618.25
818.8703	523.6539	65535	64619.6
819.0145	525.8043	65535	64622.2
819.1587	527.9541	65535	64613.35
819.303	530.1033	65535	64619.25
819.4472	532.2519	65535	64618.65
819.5915	534.3999	65535	64618.25
819.7357	536.5472	65535	64619.25
819.88	538.694	65535	64625.6
820.0243	540.8401	65535	64620.45
820.1686	542.9856	65535	64607.9
820.3129	545.1305	65535	64605.45
820.4572	547.2748	65535	64596.2
820.6016	549.4185	65535	64601.1
820.7459	551.5615	65535	64604.65
820.8902	553.704	65535	64602.5
821.0346	555.8458	65535	64611.1
821.1789	557.987	65535	64610.75
821.3233	560.1276	65535	64609.55
821.4677	562.2675	65535	64604.55
821.6121	564.4069	65535	64603.95
821.7565	566.5456	65535	64609.15
821.9009	568.6837	65535	64610.75
822.0453	570.8212	65535	64614.4
822.1897	572.958	65535	64612.5
822.3342	575.0942	65535	64615.05
822.4786	577.2299	65535	64619.1
822.6231	579.3648	65535	64628.8
822.7675	581.4992	65535	64635.9
822.912	583.6329	65535	64639.3
823.0565	585.766	65535	64632.7
823.201	587.8985	65535	64627.1
823.3454	590.0304	65535	64609.1
823.4899	592.1616	65535	64609
823.6345	594.2922	65535	64609.55
823.779	596.4222	65535	64605.4
823.9235	598.5515	65535	64606.05
824.068	600.6802	65535	64608.95
824.2126	602.8083	65535	64611.75
824.3571	604.9358	65535	64608.8
824.5017	607.0626	65535	64607.95
824.6462	609.1888	65535	64600.95
824.7908	611.3144	65535	64596.4
824.9354	613.4393	65535	64602.55
825.08	615.5636	65535	64604.15
825.2246	617.6873	65535	64603.7
825.3692	619.8103	65534.5	64602.3
825.5138	621.9327	65535	64604.8
825.6584	624.0544	65535	64606.35
825.803	626.1756	65535	64611.2
825.9477	628.2961	65535	64602.85
826.0923	630.4159	65535	64602
826.237	632.5351	65532.5	64598.25
826.3816	634.6537	65535	64597.55
826.5263	636.7716	65529.6	64592.9
826.6709	638.8889	65535	64597.85
826.8156	641.0056	65535	64593.05
826.9603	643.1216	65535	64596.95
827.105	645.237	65535	64596.6
827.2497	647.3518	65529	64602.35
827.3944	649.4659	65535	64611.1
827.5391	651.5793	65535	64609.65
827.6838	653.6922	65535	64608.25
827.8285	655.8043	65521.4	64590.8
827.9733	657.9159	65535	64600.4
828.118	660.0268	65478.95	64548.2
828.2627	662.137	65530.7	64596.4
828.4075	664.2466	65531.65	64594.25
828.5522	666.3556	65522.6	64591.25
828.697	668.4639	65529.9	64594.85
828.8418	670.5716	65512.2	64586.2
828.9865	672.6786	65527.65	64591.2
829.1313	674.785	65517.5	64581.2
829.2761	676.8907	65519.7	64588.95
829.4209	678.9958	65527.65	64598.95
829.5657	681.1002	65524.85	64589.8
829.7105	683.204	65504.25	64560.95
829.8553	685.3072	65473.3	64535.65
830.0001	687.4097	65504.45	64565.9
830.1449	689.5115	65463.35	64523.95
830.2898	691.6127	65511.3	64580.95
830.4346	693.7132	65449.5	64515.3
830.5794	695.8131	65454.3	64496.7
830.7243	697.9123	65471.35	64528.45
830.8691	700.0109	65467.7	64527.75
831.014	702.1089	65399.35	64459.55
831.1588	704.2061	65421.7	64480.35
831.3037	706.3028	65436.65	64495.9
831.4486	708.3987	65459.05	64517.1
831.5935	710.4941	65418.8	64479.4
831.7383	712.5887	65466.1	64526.15
831.8832	714.6827	65440.95	64501.6
832.0281	716.7761	65491	64556.05
832.173	718.8688	65518.55	64579.65
832.3179	720.9608	65479.8	64536.4
832.4628	723.0522	65475.45	64528.2
832.6077	725.1429	65422.45	64479.65
832.7527	727.233	65517.4	64576.8
832.8976	729.3224	65202.2	64264.3
833.0425	731.4112	65360.6	64421.35
833.1874	733.4993	65353.8	64413.35
833.3324	735.5867	65362.95	64422
833.4773	737.6735	65237.85	64293.8
833.6222	739.7596	65115.2	64172.2
833.7672	741.845	65087.5	64142.2
833.9122	743.9298	65305.15	64359.3
834.0571	746.014	65097.9	64158.2
834.2021	748.0974	64905.55	63958.2
834.347	750.1802	65251.7	64305.65
834.492	752.2624	64832.05	63884.95
834.637	754.3439	64889	63943
834.782	756.4247	65033.35	64079.25
834.9269	758.5048	64796.4	63848.2
835.0719	760.5843	64907.2	63961.05
835.2169	762.6631	65056	64108.2
835.3619	764.7413	64973.3	64029.8
835.5069	766.8188	65071.55	64124.95
835.6519	768.8956	65268.05	64321.35
835.7969	770.9718	65245.55	64301.6
835.9419	773.0473	65153.1	64210.55
836.0869	775.1221	64814.45	63867.05
836.232	777.1962	64782.8	63839.05
836.377	779.2697	64337.4	63387.5
836.522	781.3426	64660.55	63701.6
836.667	783.4147	64829.7	63879.95
836.8121	785.4862	64839.4	63895.1
836.9571	787.557	64423.25	63472.8
837.1021	789.6271	64774.5	63825.9
837.2472	791.6966	64308.95	63365.8
837.3922	793.7654	63763.15	62818.75
837.5373	795.8335	63739.25	62797.95
837.6823	797.901	63857.6	62913.7
837.8274	799.9678	63590.4	62639.75
837.9724	802.0339	63505.6	62555.85
838.1175	804.0993	63589.65	62632.3
838.2626	806.1641	63358.55	62410.9
838.4076	808.2282	63228	62282.95
838.5527	810.2916	63064.2	62114.25
838.6978	812.3544	63334.15	62389.2
838.8428	814.4164	62712.95	61768.25
838.9879	816.4778	62749.4	61797.2
839.133	818.5385	62793.2	61842.25
839.2781	820.5986	62699.7	61750.05
839.4232	822.658	62784.5	61832.7
839.5682	824.7166	62803.35	61856
839.7133	826.7747	62139.3	61192.1
839.8584	828.832	62409.9	61460.4
840.0035	830.8886	62816.35	61864.8
840.1486	832.9446	62826.25	61870.25
840.2937	834.9999	61778.65	60831.8
840.4388	837.0545	62351.85	61399.75
840.5839	839.1085	62731.4	61782
840.729	841.1618	62534.35	61582
840.8741	843.2143	61714.1	60764.15
841.0192	845.2662	61688.3	60739.1
841.1643	847.3175	61937.05	60988.75
841.3095	849.368	60844.5	59896.65
841.4546	851.4179	61620.95	60673
841.5997	853.467	60863.2	59916.3
841.7448	855.5155	61177.5	60231.65
841.8899	857.5633	60447.95	59500.5
842.0351	859.6105	60065.4	59113.5
842.1802	861.6569	60430.75	59480.1
842.3253	863.7027	59525.55	58572.85
842.4704	865.7478	59847.45	58899.75
842.6156	867.7922	59660.2	58712.85
842.7607	869.8359	60111.8	59160.4
842.9058	871.8789	59237.8	58285.4
843.0509	873.9212	59896.75	58914.8
843.1961	875.9629	59913.9	58961.15
843.3412	878.0039	59812.8	58863
843.4863	880.0441	59562.95	58616.3
843.6315	882.0837	59458.85	58509.85
843.7766	884.1226	59368.7	58420.1
843.9218	886.1609	59140.65	58192.3
844.0669	888.1984	58648.05	57701.4
844.212	890.2352	59155.25	58205.2
844.3572	892.2714	58271.7	57314.35
844.5023	894.3069	58551.3	57601
844.6475	896.3416	58210.15	57257.35
844.7926	898.3757	58060.25	57108.5
844.9377	900.4091	57247.6	56291.65
845.0829	902.4418	58141.7	57187.05
845.228	904.4739	57474.1	56520.6
845.3732	906.5052	57608.05	56657.95
845.5183	908.5358	57181.7	56227.5
845.6635	910.5658	56822.95	55869.6
845.8086	912.595	56713.15	55761.85
845.9538	914.6236	55959.5	55006.35
846.0989	916.6515	56888.65	55938.35
846.2441	918.6786	55678.9	54725.25
846.3892	920.7051	55961.2	55003.45
846.5344	922.7309	55945.05	54992.6
846.6795	924.756	56061.3	55110.9
846.8246	926.7804	55678.75	54727.6
846.9698	928.8041	55050.45	54100.95
847.1149	930.8272	55453.45	54501.2
847.2601	932.8495	55323.15	54372.15
847.4052	934.8711	54742.85	53790.4
847.5504	936.892	54406.3	53456.15
847.6955	938.9123	54238.6	53286.25
847.8407	940.9318	53840.5	52888.8
847.9858	942.9506	53595.25	52643.05
848.131	944.9688	53465.45	52517.55
848.2761	946.9862	52858.45	51906.75
848.4213	949.003	52874.5	51921.6
848.5664	951.019	52373.75	51420.9
848.7115	953.0344	52513.75	51560.95
848.8567	955.0491	52387.15	51434.25
849.0018	957.063	52538.9	51584.9
849.147	959.0763	52585.95	51627.45
849.2921	961.0888	52315.55	51360.05
849.4373	963.1007	52459.85	51511.6
849.5824	965.1119	52361.95	51419.75
849.7275	967.1223	52173.7	51234.15
849.8727	969.1321	52296.75	51355.2
850.0178	971.1412	51960.4	51019.85
850.1629	973.1495	51796.85	50848.35
850.3081	975.1572	51884.75	50905.75
850.4532	977.1641	51735.85	50782.25
850.5983	979.1704	51536	50582.15
850.7435	981.1759	51378.7	50424.1
850.8886	983.1808	51237.25	50286.25
851.0337	985.1849	51240.6	50276.4
851.1788	987.1884	51241.2	50286.6
851.324	989.1911	51537.45	50585.35
851.4691	991.1932	51252.75	50300.95
851.6142	993.1945	51257.75	50307.25
851.7593	995.1951	51079.35	50130.75
851.9045	997.1951	50817.2	49860.9
852.0496	999.1943	50524.05	49574.3
852.1947	1001.1928	50328.15	49377.55
852.3398	1003.1906	50127.35	49176.55
852.4849	1005.1877	49866.55	48915
852.63	1007.1841	49629.75	48679.75
852.7751	1009.1798	49324	48372
852.9202	1011.1748	48919.4	47970.05
853.0653	1013.1691	48681.8	47730.45
853.2104	1015.1627	48192.35	47246.4
853.3555	1017.1556	47757.5	46807.25
853.5006	1019.1477	47613.5	46667.35
853.6457	1021.1392	47220.05	46278.45
853.7908	1023.1299	46980.25	46040.15
853.9359	1025.12	46887.95	45954.85
854.081	1027.1093	46667.35	45739.6
854.2261	1029.0979	46641.6	45719.75
854.3712	1031.0859	46462.4	45535.4
854.5163	1033.0731	46216.8	45279.45
854.6613	1035.0596	46102.65	45160.3
854.8064	1037.0454	45651.05	44707.75
854.9515	1039.0304	45457.1	44509.15
855.0965	1041.0148	45157.35	44212.15
855.2416	1042.9985	44913.7	43965.55
855.3867	1044.9814	44889.5	43942.6
855.5317	1046.9636	44593.15	43648.5
855.6768	1048.9452	44377.4	43429.9
855.8219	1050.926	44321.6	43372.7
855.9669	1052.9061	44107.7	43160.45
856.112	1054.8855	43941.9	42995.5
856.257	1056.8642	43848	42902.05
856.4021	1058.8421	43878.85	42930.5
856.5471	1060.8194	43753.4	42807.7
856.6921	1062.7959	43601.8	42652.95
856.8372	1064.7717	43533.95	42587.2
856.9822	1066.7469	43455.95	42511.25
857.1272	1068.7213	43243.15	42293.7
857.2723	1070.695	43077.85	42131.3
857.4173	1072.6679	42741.65	41795.55
857.5623	1074.6402	42691.6	41746.1
857.7073	1076.6117	42548.55	41596
857.8523	1078.5826	42552.9	41606.25
857.9973	1080.5527	42448.65	41501.85
858.1423	1082.5221	42455.95	41509.5
858.2873	1084.4908	42545.2	41597.55
858.4323	1086.4587	42675.75	41726.8
858.5773	1088.426	42761.25	41811.3
858.7223	1090.3925	42543.3	41590.4
858.8673	1092.3584	42433	41485.95
859.0123	1094.3235	41990.7	41042.5
859.1573	1096.2879	41812.75	40865.6
859.3022	1098.2515	41611	40666.55
859.4472	1100.2145	41572.45	40627.25
859.5922	1102.1767	41434.85	40485.45
859.7371	1104.1382	41477.2	40528.65
859.8821	1106.099	41575.35	40629.5
860.027	1108.0591	41608.05	40664.05
860.172	1110.0185	41598.95	40646.3
860.3169	1111.9771	41642.65	40696.35
860.4619	1113.9351	41142	40196.7
860.6068	1115.8923	40657.1	39711.85
860.7517	1117.8488	40192	39247.25
860.8967	1119.8045	39709.1	38767.25
861.0416	1121.7596	39550.9	38605.15
861.1865	1123.7139	39350	38409.1
861.3314	1125.6675	39214.65	38270.9
861.4763	1127.6204	39254.75	38310.6
861.6212	1129.5726	39108.65	38160.25
861.7661	1131.524	39090.7	38145.1
861.911	1133.4748	39113.2	38169.25
862.0559	1135.4248	39010.35	38067.5
862.2008	1137.3741	38989.85	38045.95
862.3457	1139.3226	38803.3	37854.75
862.4905	1141.2705	38715.05	37768.1
862.6354	1143.2176	38426.25	37475.6
862.7803	1145.164	38424.3	37479.15
862.9251	1147.1097	38335.1	37392.55
863.07	1149.0546	38250	37300.45
863.2148	1150.9989	38087.4	37143.05
863.3597	1152.9424	37890.15	36945.7
863.5045	1154.8852	37584.6	36637.4
863.6493	1156.8272	37381	36437.85
863.7942	1158.7686	37258.7	36307.65
863.939	1160.7092	37020.55	36074.55
864.0838	1162.6491	36862.55	35918.55
864.2286	1164.5883	36899.1	35953
864.3734	1166.5267	36813.4	35866.95
864.5182	1168.4644	36941.8	35998.8
864.663	1170.4014	37012.1	36068.45
864.8078	1172.3377	37207.75	36266.25
864.9526	1174.2732	37328.1	36388.05
865.0974	1176.2081	37439.85	36500.75
865.2421	1178.1421	37519.9	36575.4
865.3869	1180.0755	37594.15	36651.9
865.5317	1182.0082	37440.7	36499.95
865.6764	1183.9401	37238.4	36298.1
865.8212	1185.8713	36925.45	35991.85
865.9659	1187.8017	36606.65	35674.9
866.1106	1189.7315	36342	35415.95
866.2554	1191.6605	35925.05	35001.3
866.4001	1193.5888	35545.9	34618.5
866.5448	1195.5163	35378.2	34442.55
866.6895	1197.4432	35173.1	34234.85
866.8342	1199.3693	34957.5	34016.1
866.9789	1201.2947	34791.25	33844.15
867.1236	1203.2193	34601.15	33659.65
867.2683	1205.1432	34578.3	33634.7
867.413	1207.0664	34520.55	33579.8
867.5576	1208.9889	34512.85	33569.1
867.7023	1210.9106	34409.45	33473.65
867.847	1212.8316	34358	33418.45
