Software Version:	3.9.2.0
Unit SN:	10000200
Spectrometer SN:	6960
Date:	3/26/2024 1:51:26 PM
Data Line Index:	25
Spectral Points:	2048
Integration time (ms):	125
Averages:	20
Delay (ms):	30000
Sequence Number:	1
Processing:	dark subtract
Laser Power (mW):	305
Laser Current (mA):	820
Laser Diode Temp (C):	25
Laser Case Temp (C):	27.2
System Temp (C):	27.2
Spectrometer Temp (C):	25.2
CCD Temp (C):	-0.002
Secondary Temp (C):	20.007
Heatsink Temp (C):	22.718
CCDPCB Temp (C):	36.852
SecondaryPCB Temp (C):	34.295

Wavelength	RamanShift	Raw Counts	Dark Subtracted
787.061	30.1047	609.15	197.65
787.2016	32.3739	614.2	202.15
787.3422	34.6426	625.65	215.2
787.4828	36.9109	646.05	233.45
787.6235	39.1787	666.85	250.1
787.7642	41.4461	684.7	262.05
787.9049	43.7131	701.3	274.95
788.0456	45.9796	725.1	294.45
788.1863	48.2456	748.7	317.15
788.3271	50.5112	770.5	333.45
788.4679	52.7764	795.65	357.8
788.6087	55.0411	822.2	382.15
788.7496	57.3054	847.8	401.65
788.8904	59.5692	874.9	425.95
789.0313	61.8326	903.5	450
789.1722	64.0955	935.9	475.8
789.3132	66.3579	980.45	517.65
789.4541	68.6199	1034.15	569.35
789.5951	70.8815	1116.3	651.05
789.7361	73.1426	1288.05	816.95
789.8771	75.4032	1750.7	1272.7
790.0181	77.6634	2868.4	2382.85
790.1592	79.9231	5635.3	5142.85
790.3003	82.1824	11988.5	11476.35
790.4414	84.4412	25400.8	24854.75
790.5825	86.6995	48442.4	47849.05
790.7237	88.9574	59543.4	58912.85
790.8648	91.2148	62452.6	61793.65
791.006	93.4717	63020.75	62344.35
791.1472	95.7282	63275.05	62591.2
791.2885	97.9842	63406.1	62714.25
791.4297	100.2398	63370.05	62672.45
791.571	102.4949	63325.55	62627.9
791.7123	104.7495	63301.45	62598.8
791.8536	107.0036	63190.85	62491.1
791.9949	109.2573	63265.6	62564.05
792.1363	111.5105	63143.35	62439
792.2777	113.7632	63143.1	62439.15
792.4191	116.0154	63167	62451.95
792.5605	118.2672	63219.7	62509.95
792.7019	120.5185	63200.6	62487.7
792.8434	122.7693	63186.95	62473.25
792.9849	125.0197	63051.05	62333.7
793.1264	127.2696	63267.35	62551
793.2679	129.519	63223.4	62501.1
793.4094	131.7679	63311.7	62586.55
793.551	134.0163	63048.45	62316.55
793.6926	136.2642	63132.55	62399.05
793.8342	138.5117	63266.65	62528.75
793.9758	140.7587	63185.25	62443.3
794.1175	143.0052	63171.7	62430.35
794.2591	145.2512	63031.55	62293.55
794.4008	147.4967	63201.85	62462
794.5425	149.7417	63132.5	62390.1
794.6842	151.9863	63123.7	62374.8
794.826	154.2304	63018.3	62266.6
794.9677	156.4739	63077.45	62324.7
795.1095	158.717	63173.55	62423
795.2513	160.9596	63091.95	62330
795.3931	163.2017	62944.05	62180.65
795.535	165.4433	63054.95	62291.3
795.6768	167.6844	62956.8	62191.15
795.8187	169.925	63015.4	62253.85
795.9606	172.1651	62922.9	62152.3
796.1025	174.4047	62935.1	62164.8
796.2445	176.6439	62906.5	62134.85
796.3864	178.8825	62872.05	62101.95
796.5284	181.1206	62960.15	62180.95
796.6704	183.3582	62916.35	62136.15
796.8124	185.5954	62856.9	62071.3
796.9544	187.832	62867.85	62083.95
797.0965	190.0681	62794.9	62006.05
797.2386	192.3037	62926.4	62133.1
797.3806	194.5388	63073.15	62277.85
797.5228	196.7734	62730.8	61927.95
797.6649	199.0075	63040.55	62237.05
797.807	201.2411	62921.7	62115.9
797.9492	203.4742	63116.45	62310.55
798.0914	205.7068	63069.4	62259.9
798.2336	207.9389	63047.25	62237.75
798.3758	210.1704	63028.15	62217.4
798.518	212.4015	63156.35	62347.7
798.6603	214.632	62993.2	62184.8
798.8025	216.862	63177.05	62379.2
798.9448	219.0915	63096.5	62300.05
799.0871	221.3205	63074.55	62280.65
799.2294	223.549	63225.4	62436.45
799.3718	225.777	63227.4	62440.1
799.5141	228.0044	63302.5	62511.75
799.6565	230.2314	63257.6	62464.4
799.7989	232.4578	63258.95	62471.15
799.9413	234.6837	63291.1	62496.8
800.0837	236.909	63515.8	62715.5
800.2262	239.1339	63160.25	62331.55
800.3687	241.3582	63314.1	62503.15
800.5111	243.582	63311.8	62468.45
800.6536	245.8053	63295.05	62465.85
800.7961	248.0281	63317.3	62494.35
800.9387	250.2503	63334.4	62499.95
801.0812	252.472	63221.65	62386.75
801.2238	254.6932	63322.35	62487.3
801.3664	256.9139	63280.55	62446.65
801.509	259.134	63478.9	62639.15
801.6516	261.3536	63229.85	62385.85
801.7942	263.5727	63407	62564.2
801.9369	265.7912	63330.35	62495.6
802.0795	268.0092	63366.05	62527.5
802.2222	270.2267	63376.1	62534.5
802.3649	272.4436	63242.2	62402.7
802.5076	274.6601	63357.6	62510.9
802.6504	276.8759	63416.95	62575.9
802.7931	279.0913	63343.6	62498.35
802.9359	281.3061	63367.05	62515.6
803.0787	283.5204	63393.65	62544.3
803.2215	285.7341	63357.15	62506.55
803.3643	287.9473	63468.45	62601.55
803.5071	290.16	63394.3	62533.35
803.6499	292.3721	63447.3	62590.9
803.7928	294.5837	63385.95	62533.35
803.9357	296.7947	63318.5	62466.3
804.0786	299.0052	63455.05	62602.9
804.2215	301.2152	63401.15	62542.9
804.3644	303.4246	63458.65	62611.75
804.5074	305.6334	63431.05	62580.65
804.6503	307.8418	63252.75	62395.75
804.7933	310.0495	63254.3	62398.45
804.9363	312.2568	63242.25	62384.05
805.0793	314.4635	63203.5	62344.95
805.2223	316.6696	63259.25	62402.7
805.3653	318.8752	63302.45	62432.1
805.5084	321.0802	63040.55	62181.55
805.6514	323.2847	63143.6	62277.9
805.7945	325.4887	63154.5	62291.5
805.9376	327.692	63088	62222.7
806.0807	329.8949	63137.15	62270.9
806.2238	332.0972	63066.3	62201.8
806.367	334.2989	63094.15	62223.9
806.5101	336.5001	63162.7	62291.7
806.6533	338.7007	62952.55	62081.5
806.7965	340.9008	63049.15	62178.45
806.9397	343.1003	63060.35	62189.65
807.0829	345.2992	63116.45	62246.05
807.2261	347.4976	63002.5	62128.6
807.3693	349.6955	63037.85	62152.85
807.5126	351.8927	62969.1	62091.15
807.6559	354.0895	63044.45	62154.25
807.7991	356.2856	63023.05	62143.2
807.9424	358.4812	63113	62233.55
808.0857	360.6763	62966.75	62083.65
808.2291	362.8707	63098.55	62218.5
808.3724	365.0646	62999.75	62114.85
808.5158	367.258	63010.35	62125.05
808.6591	369.4508	62933.4	62045.85
808.8025	371.643	63062.65	62172.25
808.9459	373.8346	62976.9	62086.35
809.0893	376.0257	62994.8	62102.65
809.2327	378.2162	62961.3	62068.65
809.3762	380.4062	62843.9	61951.95
809.5196	382.5956	62919.9	62025.7
809.6631	384.7844	62906.3	62010.7
809.8066	386.9726	62914.3	62019.6
809.9501	389.1603	62902.9	62007.65
810.0936	391.3474	62801	61868.35
810.2371	393.5339	62910.15	62014.45
810.3806	395.7199	62761.1	61875.1
810.5241	397.9052	62765.35	61879.75
810.6677	400.09	62803.55	61920.5
810.8113	402.2743	62876	61990.25
810.9548	404.4579	62782.9	61895.3
811.0984	406.641	62796.3	61909.05
811.2421	408.8235	62850.25	61969.65
811.3857	411.0054	62861.25	61977.8
811.5293	413.1868	62906.7	62017
811.673	415.3675	62890.55	61998.75
811.8166	417.5477	62906	62016.1
811.9603	419.7273	62881.2	61988.2
812.104	421.9064	62853.8	61952.85
812.2477	424.0848	62869.2	61978.55
812.3914	426.2627	62898.1	62005
812.5351	428.4399	62773.1	61873.05
812.6788	430.6166	62676.2	61772.05
812.8226	432.7928	62735.2	61833.3
812.9663	434.9683	62629.4	61731.85
813.1101	437.1432	62614.55	61719.6
813.2539	439.3176	62680.35	61785.4
813.3977	441.4914	62548.45	61656.1
813.5415	443.6645	62534.5	61636.6
813.6853	445.8371	62531.85	61629.9
813.8291	448.0091	62440.7	61543.15
813.973	450.1806	62404.8	61507.6
814.1168	452.3514	62446.7	61553.35
814.2607	454.5216	62405.8	61500.05
814.4046	456.6913	62433.6	61535.65
814.5485	458.8603	62428.3	61529.05
814.6924	461.0288	62361.3	61464.15
814.8363	463.1967	62430.95	61543.7
814.9802	465.3639	62433.05	61538.2
815.1241	467.5306	62287.2	61390.05
815.2681	469.6967	62355.3	61456.05
815.412	471.8622	62377.7	61484.2
815.556	474.0271	62355.55	61457.5
815.7	476.1914	62353.6	61448.55
815.844	478.3551	62366.1	61464.9
815.988	480.5182	62421.65	61523.5
816.132	482.6807	62324.7	61429.2
816.276	484.8426	62355.25	61468.25
816.4201	487.0039	62469.45	61572.95
816.5641	489.1647	62493.35	61592.05
816.7082	491.3248	62390.8	61486.35
816.8522	493.4843	62502.95	61604.9
816.9963	495.6432	62509.95	61610.55
817.1404	497.8015	62391.3	61480.85
817.2845	499.9592	62454.8	61544
817.4286	502.1163	62439.35	61529.45
817.5727	504.2728	62417.8	61516.75
817.7168	506.4287	62393.6	61499.85
817.861	508.5839	62307.25	61412
818.0051	510.7386	62300.35	61400.65
818.1493	512.8927	62326.65	61419.35
818.2935	515.0461	62297.2	61391.9
818.4377	517.199	62332.6	61424.3
818.5818	519.3512	62307.35	61399.55
818.726	521.5029	62281.1	61367.15
818.8703	523.6539	62295.65	61388.15
819.0145	525.8043	62219.5	61309.65
819.1587	527.9541	62292.45	61381.7
819.303	530.1033	62270.05	61359.95
819.4472	532.2519	62226.6	61312.5
819.5915	534.3999	62259.6	61347.45
819.7357	536.5472	62333.05	61426.45
819.88	538.694	62232.45	61326.1
820.0243	540.8401	62347.85	61435.25
820.1686	542.9856	62337.95	61416.6
820.3129	545.1305	62371.15	61446.7
820.4572	547.2748	62313.1	61385.6
820.6016	549.4185	62291.05	61360
820.7459	551.5615	62326.55	61400.45
820.8902	553.704	62293.5	61370.25
821.0346	555.8458	62237.3	61316.6
821.1789	557.987	62258.05	61340.2
821.3233	560.1276	62297.75	61378.25
821.4677	562.2675	62257.45	61338.45
821.6121	564.4069	62288.85	61370.9
821.7565	566.5456	62334.65	61415.95
821.9009	568.6837	62249.55	61335.55
822.0453	570.8212	62266.6	61352.5
822.1897	572.958	62145.85	61231.65
822.3342	575.0942	62171.35	61259
822.4786	577.2299	62087.4	61176.25
822.6231	579.3648	62057.95	61156.65
822.7675	581.4992	62039.85	61146.05
822.912	583.6329	62039.05	61147.05
823.0565	585.766	62017.65	61116.35
823.201	587.8985	62021.7	61121.1
823.3454	590.0304	61934.45	61000.45
823.4899	592.1616	62012.1	61094.15
823.6345	594.2922	61940.15	61022.6
823.779	596.4222	61868	60946.7
823.9235	598.5515	61875.3	60951.15
824.068	600.6802	61880.15	60960.95
824.2126	602.8083	61768.25	60848.5
824.3571	604.9358	61748.05	60827.75
824.5017	607.0626	61811.05	60885.35
824.6462	609.1888	61659.85	60732.4
824.7908	611.3144	61771.8	60841.8
824.9354	613.4393	61678.75	60751.5
825.08	615.5636	61608.25	60681.85
825.2246	617.6873	61733.25	60807.3
825.3692	619.8103	61573.3	60648.55
825.5138	621.9327	61670.9	60749.05
825.6584	624.0544	61655.95	60735.15
825.803	626.1756	61592	60673.5
825.9477	628.2961	61565.75	60645.8
826.0923	630.4159	61495.2	60572.65
826.237	632.5351	61438.7	60513.75
826.3816	634.6537	61660.7	60736.8
826.5263	636.7716	61423.25	60496.3
826.6709	638.8889	61499.9	60569.6
826.8156	641.0056	61493.8	60559.6
826.9603	643.1216	61519.45	60590.8
827.105	645.237	61554	60626.05
827.2497	647.3518	61366.55	60447.1
827.3944	649.4659	61429.2	60509.45
827.5391	651.5793	61417	60498.65
827.6838	653.6922	61460.2	60537.25
827.8285	655.8043	61241.45	60321.7
827.9733	657.9159	61491.9	60567.35
828.118	660.0268	60995.65	60071.25
828.2627	662.137	61296.2	60369.7
828.4075	664.2466	61325.95	60393
828.5522	666.3556	61222.6	60291.4
828.697	668.4639	61278.15	60351.65
828.8418	670.5716	61154.95	60233.55
828.9865	672.6786	61239.9	60309.4
829.1313	674.785	61081.1	60152.05
829.2761	676.8907	61116.3	60191.5
829.4209	678.9958	61169.2	60247.85
829.5657	681.1002	61181.9	60251.4
829.7105	683.204	61020.95	60086.05
829.8553	685.3072	60930.45	59999.75
830.0001	687.4097	60987.25	60054.85
830.1449	689.5115	60941.5	60008.05
830.2898	691.6127	61101.15	60172.85
830.4346	693.7132	60922.8	59994.8
830.5794	695.8131	60936.7	59987.35
830.7243	697.9123	60969.05	60036.45
830.8691	700.0109	60990.2	60054.15
831.014	702.1089	60773.2	59840.3
831.1588	704.2061	60836.7	59903.25
831.3037	706.3028	60862.1	59929.6
831.4486	708.3987	60899.9	59967.15
831.5935	710.4941	60786.8	59858.2
831.7383	712.5887	60945.4	60018.05
831.8832	714.6827	60811.15	59882.8
832.0281	716.7761	60967.9	60040.4
832.173	718.8688	61014.85	60084.2
832.3179	720.9608	60884.5	59947.55
832.4628	723.0522	60899.5	59956.7
832.6077	725.1429	60775.55	59838.2
832.7527	727.233	61061.45	60127.1
832.8976	729.3224	60475.8	59541.8
833.0425	731.4112	60705	59774.1
833.1874	733.4993	60637.3	59704
833.3324	735.5867	60622.95	59688.4
833.4773	737.6735	60461.5	59524.1
833.6222	739.7596	60308.8	59374.55
833.7672	741.845	60280.55	59345.05
833.9122	743.9298	60488.1	59556.65
834.0571	746.014	60204.5	59270.2
834.2021	748.0974	60033	59091.45
834.347	750.1802	60388.75	59449.3
834.492	752.2624	59940.45	59002.35
834.637	754.3439	60018.85	59081.05
834.782	756.4247	60108.75	59160.15
834.9269	758.5048	59919.95	58981.8
835.0719	760.5843	60029.6	59091.35
835.2169	762.6631	60162.95	59222.65
835.3619	764.7413	60138.55	59204.35
835.5069	766.8188	60280.6	59337.75
835.6519	768.8956	60436.95	59499.8
835.7969	770.9718	60428.7	59495.55
835.9419	773.0473	60313.6	59379.25
836.0869	775.1221	60065.55	59131.8
836.232	777.1962	60013.35	59078.85
836.377	779.2697	59746.85	58804.55
836.522	781.3426	59893.45	58942.55
836.667	783.4147	59952.1	59010.85
836.8121	785.4862	59951.05	59013.2
836.9571	787.557	59657.3	58717.5
837.1021	789.6271	59849.1	58907.8
837.2472	791.6966	59535.25	58596.35
837.3922	793.7654	59147.7	58209.65
837.5373	795.8335	59069.25	58134.45
837.6823	797.901	59132.35	58197.15
837.8274	799.9678	58939.1	57997.1
837.9724	802.0339	58827.85	57889.3
838.1175	804.0993	58825.35	57874.8
838.2626	806.1641	58745.35	57801.4
838.4076	808.2282	58642.8	57705.55
838.5527	810.2916	58567.1	57625.6
838.6978	812.3544	58704.45	57768.6
838.8428	814.4164	58318.2	57378.95
838.9879	816.4778	58393.65	57452.75
839.133	818.5385	58418.35	57475.35
839.2781	820.5986	58393.15	57453.6
839.4232	822.658	58485.9	57545.8
839.5682	824.7166	58545.6	57606
839.7133	826.7747	58389.45	57448.25
839.8584	828.832	58604.5	57664.95
840.0035	830.8886	58744.25	57801.25
840.1486	832.9446	58755.3	57813.5
840.2937	834.9999	58185.15	57244.2
840.4388	837.0545	58420.3	57480.1
840.5839	839.1085	58498.3	57556.7
840.729	841.1618	58311.85	57369
840.8741	843.2143	57835.6	56895.05
841.0192	845.2662	57817.8	56875.5
841.1643	847.3175	57914.65	56973.05
841.3095	849.368	57302.15	56361.05
841.4546	851.4179	57726.8	56786.9
841.5997	853.467	57338.65	56398.8
841.7448	855.5155	57523.15	56581.35
841.8899	857.5633	57201.75	56263.05
842.0351	859.6105	56964.2	56022.2
842.1802	861.6569	57152.1	56208.65
842.3253	863.7027	56658.6	55717.25
842.4704	865.7478	56830.95	55886.3
842.6156	867.7922	56698.6	55755.7
842.7607	869.8359	56937.3	55996.1
842.9058	871.8789	56416.4	55473.15
843.0509	873.9212	56742.5	55771.25
843.1961	875.9629	56758.75	55817.9
843.3412	878.0039	56672.9	55728.3
843.4863	880.0441	56515.65	55578.35
843.6315	882.0837	56515.4	55573.2
843.7766	884.1226	56494.3	55549.7
843.9218	886.1609	56456.4	55518.7
844.0669	888.1984	56239.75	55296.25
844.212	890.2352	56677.05	55735.5
844.3572	892.2714	56127	55180.4
844.5023	894.3069	56346.25	55403.25
844.6475	896.3416	56005.4	55061.15
844.7926	898.3757	55925	54982.85
844.9377	900.4091	55299.75	54359.2
845.0829	902.4418	55997.95	55050.6
845.228	904.4739	55538.45	54592.2
845.3732	906.5052	55699.75	54754.65
845.5183	908.5358	55375.1	54428.7
845.6635	910.5658	55126.95	54182.15
845.8086	912.595	55018.9	54074.85
845.9538	914.6236	54258.35	53316.65
846.0989	916.6515	55170.8	54229.8
846.2441	918.6786	54074	53129.95
846.3892	920.7051	54336.35	53389.6
846.5344	922.7309	54211.8	53267
846.6795	924.756	54371.55	53431.25
846.8246	926.7804	54063.9	53121.65
846.9698	928.8041	53353.9	52405.7
847.1149	930.8272	53830.55	52882.2
847.2601	932.8495	53790.75	52844.95
847.4052	934.8711	53347.1	52403
847.5504	936.892	52965.8	52022.3
847.6955	938.9123	53148.8	52205.65
847.8407	940.9318	52817.6	51875.65
847.9858	942.9506	52735.35	51789.55
848.131	944.9688	52706.75	51765.35
848.2761	946.9862	51999.8	51057.85
848.4213	949.003	52171.6	51228.4
848.5664	951.019	51532.4	50588.15
848.7115	953.0344	51601.6	50657.55
848.8567	955.0491	51496.55	50550
849.0018	957.063	51671.7	50729.6
849.147	959.0763	51784.55	50832.15
849.2921	961.0888	51327.55	50382.45
849.4373	963.1007	51663.05	50721.85
849.5824	965.1119	51560.1	50623.6
849.7275	967.1223	51213.85	50280.75
849.8727	969.1321	51505	50570.65
850.0178	971.1412	50994.35	50056.05
850.1629	973.1495	50804.25	49865.05
850.3081	975.1572	50973.05	49995.15
850.4532	977.1641	50835	49892.6
850.5983	979.1704	50595.7	49650.8
850.7435	981.1759	50601.8	49656.6
850.8886	983.1808	50300.4	49355.65
851.0337	985.1849	50372.55	49418.4
851.1788	987.1884	50390.5	49446.2
851.324	989.1911	50612.6	49668.8
851.4691	991.1932	50003.75	49061.65
851.6142	993.1945	50042.3	49098.6
851.7593	995.1951	50109	49165.55
851.9045	997.1951	49772.85	48824.85
852.0496	999.1943	49558.5	48619.5
852.1947	1001.1928	49382.45	48437.5
852.3398	1003.1906	49377.85	48437.45
852.4849	1005.1877	49109.55	48168.25
852.63	1007.1841	48919.35	47977
852.7751	1009.1798	48774.1	47836.15
852.9202	1011.1748	48606.15	47666.8
853.0653	1013.1691	48420.6	47476.75
853.2104	1015.1627	47760	46817
853.3555	1017.1556	47516.85	46581.5
853.5006	1019.1477	47523.6	46586.9
853.6457	1021.1392	47046.4	46113.6
853.7908	1023.1299	46691.25	45756.95
853.9359	1025.12	46779.35	45849.15
854.081	1027.1093	46538.55	45618.85
854.2261	1029.0979	46509.65	45590.55
854.3712	1031.0859	46425.75	45500.4
854.5163	1033.0731	46120.3	45191.4
854.6613	1035.0596	46073.4	45140.8
854.8064	1037.0454	45761.15	44822.3
854.9515	1039.0304	45488	44553.6
855.0965	1041.0148	45223.1	44285.2
855.2416	1042.9985	45146.5	44205.85
855.3867	1044.9814	45070.95	44133.05
855.5317	1046.9636	44761.6	43821.85
855.6768	1048.9452	44563.1	43625.75
855.8219	1050.926	44533.25	43596.8
855.9669	1052.9061	44441.9	43506.4
856.112	1054.8855	44399.85	43462.9
856.257	1056.8642	44238.45	43298.8
856.4021	1058.8421	44216.25	43270.75
856.5471	1060.8194	44125.75	43186.9
856.6921	1062.7959	44066.65	43128.75
856.8372	1064.7717	43995.3	43057.25
856.9822	1066.7469	43932.4	42994.45
857.1272	1068.7213	43902.35	42962.65
857.2723	1070.695	43790.35	42851.2
857.4173	1072.6679	43550.1	42613
857.5623	1074.6402	43556.65	42617.15
857.7073	1076.6117	43507.7	42561.3
857.8523	1078.5826	43373.95	42436.05
857.9973	1080.5527	43175.75	42234.7
858.1423	1082.5221	43019.35	42084.6
858.2873	1084.4908	42989.5	42051.3
858.4323	1086.4587	42982	42045
858.5773	1088.426	42952.95	42013.2
858.7223	1090.3925	42801.8	41856.6
858.8673	1092.3584	42729.3	41793.65
859.0123	1094.3235	42411.1	41475.45
859.1573	1096.2879	42383.4	41445.3
859.3022	1098.2515	42328.2	41391.05
859.4472	1100.2145	42393.05	41453.4
859.5922	1102.1767	42370.95	41432.05
859.7371	1104.1382	42417.7	41480.3
859.8821	1106.099	42477.3	41539.1
860.027	1108.0591	42521.2	41586.95
860.172	1110.0185	42490.55	41552.5
860.3169	1111.9771	42543.15	41607.9
860.4619	1113.9351	42211.7	41274.5
860.6068	1115.8923	41986.25	41048.55
860.7517	1117.8488	41694.3	40754.6
860.8967	1119.8045	41354.75	40416.7
861.0416	1121.7596	41215.7	40281.3
861.1865	1123.7139	40925.65	39988.7
861.3314	1125.6675	40911.35	39976.6
861.4763	1127.6204	40961.95	40029.05
861.6212	1129.5726	40699.65	39762.95
861.7661	1131.524	40653.95	39720.8
861.911	1133.4748	40530.85	39592
862.0559	1135.4248	40291.35	39353.15
862.2008	1137.3741	40118.75	39182.35
862.3457	1139.3226	39961	39024.9
862.4905	1141.2705	39897.5	38962.8
862.6354	1143.2176	39599.55	38659.15
862.7803	1145.164	39544.35	38606.35
862.9251	1147.1097	39426.4	38490.1
863.07	1149.0546	39325.5	38387.5
863.2148	1150.9989	39195.8	38259.25
863.3597	1152.9424	39050.45	38115.4
863.5045	1154.8852	38915.45	37978.8
863.6493	1156.8272	38772.55	37835.5
863.7942	1158.7686	38778.6	37833.9
863.939	1160.7092	38631.85	37693.95
864.0838	1162.6491	38460.45	37522.35
864.2286	1164.5883	38541.9	37606.7
864.3734	1166.5267	38475.9	37537.9
864.5182	1168.4644	38538.55	37601.7
864.663	1170.4014	38630.85	37691.8
864.8078	1172.3377	38770.25	37836.5
864.9526	1174.2732	38898.4	37965.7
865.0974	1176.2081	39139	38203.3
865.2421	1178.1421	39311.65	38376.3
865.3869	1180.0755	39582.65	38649.3
