Software Version:	3.9.2.0
Unit SN:	10000200
Spectrometer SN:	6960
Date:	3/26/2024 2:47:31 PM
Data Line Index:	25
Spectral Points:	2048
Integration time (ms):	125
Averages:	20
Delay (ms):	30000
Sequence Number:	1
Processing:	dark subtract
Laser Power (mW):	305
Laser Current (mA):	820
Laser Diode Temp (C):	25
Laser Case Temp (C):	27.9
System Temp (C):	28
Spectrometer Temp (C):	25.9
CCD Temp (C):	0.007
Secondary Temp (C):	20.01
Heatsink Temp (C):	23.441
CCDPCB Temp (C):	37.53
SecondaryPCB Temp (C):	34.851

Wavelength	RamanShift	Raw Counts	Dark Subtracted
787.061	30.1047	616.7	207.7
787.2016	32.3739	631.85	225.15
787.3422	34.6426	646.35	239.9
787.4828	36.9109	662.5	253.2
787.6235	39.1787	684.7	271.15
787.7642	41.4461	706.2	287.25
787.9049	43.7131	728.75	305.7
788.0456	45.9796	746.75	320.05
788.1863	48.2456	776.3	345.4
788.3271	50.5112	797.2	361.9
788.4679	52.7764	822.7	384.75
788.6087	55.0411	857.8	416.8
788.7496	57.3054	882.35	435.75
788.8904	59.5692	913.15	462.95
789.0313	61.8326	945.55	493.1
789.1722	64.0955	984.85	528.85
789.3132	66.3579	1033.2	571.5
789.4541	68.6199	1083	619.6
789.5951	70.8815	1169.15	698
789.7361	73.1426	1362.8	890.25
789.8771	75.4032	1836.45	1359.75
790.0181	77.6634	3028.2	2544.5
790.1592	79.9231	5988.5	5496.45
790.3003	82.1824	12809.55	12296.7
790.4414	84.4412	27488.15	26941.95
790.5825	86.6995	53731.85	53142.95
790.7237	88.9574	64756.25	64122.3
790.8648	91.2148	65535	64872.1
791.006	93.4717	65535	64854.8
791.1472	95.7282	65535	64841.1
791.2885	97.9842	65535	64835.75
791.4297	100.2398	65535	64834.8
791.571	102.4949	65535	64827.55
791.7123	104.7495	65535	64834.25
791.8536	107.0036	65535	64827.55
791.9949	109.2573	65535	64832.6
792.1363	111.5105	65535	64825.8
792.2777	113.7632	65535	64825.45
792.4191	116.0154	65535	64813.1
792.5605	118.2672	65535	64818.15
792.7019	120.5185	65535	64817.95
792.8434	122.7693	65535	64816.6
792.9849	125.0197	65535	64816.3
793.1264	127.2696	65535	64814.75
793.2679	129.519	65535	64808.75
793.4094	131.7679	65535	64801.2
793.551	134.0163	65535	64797.75
793.6926	136.2642	65535	64795.4
793.8342	138.5117	65535	64788.15
793.9758	140.7587	65535	64790.3
794.1175	143.0052	65535	64784.85
794.2591	145.2512	65535	64788.25
794.4008	147.4967	65535	64789
794.5425	149.7417	65535	64785.2
794.6842	151.9863	65535	64781
794.826	154.2304	65535	64773.75
794.9677	156.4739	65535	64773.7
795.1095	158.717	65535	64773.65
795.2513	160.9596	65535	64772.35
795.3931	163.2017	65535	64768.75
795.535	165.4433	65535	64766.05
795.6768	167.6844	65535	64766.1
795.8187	169.925	65535	64767.55
795.9606	172.1651	65534.85	64766.45
796.1025	174.4047	65535	64762.2
796.2445	176.6439	65534.65	64760.85
796.3864	178.8825	65526.35	64750.15
796.5284	181.1206	65535	64746.7
796.6704	183.3582	65535	64741.8
796.8124	185.5954	65535	64745.8
796.9544	187.832	65533.35	64737.75
797.0965	190.0681	65523.55	64727.8
797.2386	192.3037	65535	64733.65
797.3806	194.5388	65535	64732.15
797.5228	196.7734	65518.2	64708.5
797.6649	199.0075	65535	64721.85
797.807	201.2411	65535	64723.25
797.9492	203.4742	65535	64724.15
798.0914	205.7068	65535	64718.75
798.2336	207.9389	65535	64717.55
798.3758	210.1704	65535	64713.95
798.518	212.4015	65535	64717.25
798.6603	214.632	65535	64718.85
798.8025	216.862	65535	64731.6
798.9448	219.0915	65535	64734.25
799.0871	221.3205	65535	64733
799.2294	223.549	65535	64734.55
799.3718	225.777	65535	64738.55
799.5141	228.0044	65535	64736.55
799.6565	230.2314	65535	64738.65
799.7989	232.4578	65535	64738.25
799.9413	234.6837	65535	64734.25
800.0837	236.909	65535	64725
800.2262	239.1339	65535	64697.75
800.3687	241.3582	65535	64713.65
800.5111	243.582	65535	64681.55
800.6536	245.8053	65535	64698.75
800.7961	248.0281	65535	64706.3
800.9387	250.2503	65535	64700.15
801.0812	252.472	65535	64694
801.2238	254.6932	65535	64696.65
801.3664	256.9139	65535	64695.6
801.509	259.134	65535	64688.75
801.6516	261.3536	65535	64687.3
801.7942	263.5727	65535	64686.65
801.9369	265.7912	65535	64689.9
802.0795	268.0092	65535	64687.05
802.2222	270.2267	65535	64690.8
802.3649	272.4436	65535	64689.35
802.5076	274.6601	65535	64680.85
802.6504	276.8759	65535	64685.15
802.7931	279.0913	65535	64685.85
802.9359	281.3061	65535	64684.55
803.0787	283.5204	65535	64680.35
803.2215	285.7341	65535	64674.9
803.3643	287.9473	65535	64661.9
803.5071	290.16	65535	64667.45
803.6499	292.3721	65535	64672.5
803.7928	294.5837	65535	64673.9
803.9357	296.7947	65535	64674.85
804.0786	299.0052	65535	64673.4
804.2215	301.2152	65535	64673.15
804.3644	303.4246	65535	64678
804.5074	305.6334	65535	64680.3
804.6503	307.8418	65535	64674.65
804.7933	310.0495	65535	64671.3
804.9363	312.2568	65535	64671.15
805.0793	314.4635	65535	64665.1
805.2223	316.6696	65535	64670.4
805.3653	318.8752	65535	64660.05
805.5084	321.0802	65535	64664.05
805.6514	323.2847	65535	64668.05
805.7945	325.4887	65535	64665.75
805.9376	327.692	65535	64664.25
806.0807	329.8949	65535	64662.9
806.2238	332.0972	65535	64661.5
806.367	334.2989	65535	64655.75
806.5101	336.5001	65535	64652.05
806.6533	338.7007	65535	64661.85
806.7965	340.9008	65535	64656.05
806.9397	343.1003	65535	64654.3
807.0829	345.2992	65535	64653.5
807.2261	347.4976	65535	64659.85
807.3693	349.6955	65535	64648.8
807.5126	351.8927	65535	64646.3
807.6559	354.0895	65535	64639.25
807.7991	356.2856	65535	64648.3
807.9424	358.4812	65535	64645.55
808.0857	360.6763	65535	64644.45
808.2291	362.8707	65535	64644.7
808.3724	365.0646	65535	64645.4
808.5158	367.258	65535	64646.3
808.6591	369.4508	65535	64638.4
808.8025	371.643	65535	64635.95
808.9459	373.8346	65535	64636.5
809.0893	376.0257	65535	64637.85
809.2327	378.2162	65535	64633.7
809.3762	380.4062	65535	64630.65
809.5196	382.5956	65535	64628.4
809.6631	384.7844	65535	64637
809.8066	386.9726	65535	64633.3
809.9501	389.1603	65535	64635.9
810.0936	391.3474	65535	64595.7
810.2371	393.5339	65535	64633.5
810.3806	395.7199	65535	64638.95
810.5241	397.9052	65535	64647.05
810.6677	400.09	65535	64641.6
810.8113	402.2743	65535	64644.8
810.9548	404.4579	65535	64643.95
811.0984	406.641	65535	64643.1
811.2421	408.8235	65535	64644.75
811.3857	411.0054	65535	64641.75
811.5293	413.1868	65535	64636.75
811.673	415.3675	65535	64637.5
811.8166	417.5477	65535	64637.65
811.9603	419.7273	65535	64635.85
812.104	421.9064	65535	64630.6
812.2477	424.0848	65535	64632.8
812.3914	426.2627	65535	64628.8
812.5351	428.4399	65535	64630.85
812.6788	430.6166	65534.2	64622.85
812.8226	432.7928	65535	64619.6
812.9663	434.9683	65534.9	64626.55
813.1101	437.1432	65530.2	64623.95
813.2539	439.3176	65535	64632.6
813.3977	441.4914	65524.85	64626.7
813.5415	443.6645	65527.05	64628.3
813.6853	445.8371	65528.55	64622
813.8291	448.0091	65522.4	64617.2
813.973	450.1806	65514.95	64611.2
814.1168	452.3514	65521.6	64616.25
814.2607	454.5216	65491.75	64579.65
814.4046	456.6913	65520.2	64613.85
814.5485	458.8603	65523.1	64617.95
814.6924	461.0288	65481.8	64577.4
814.8363	463.1967	65523.6	64626.85
814.9802	465.3639	65519.75	64615.05
815.1241	467.5306	65457.7	64551.75
815.2681	469.6967	65518.45	64616.55
815.412	471.8622	65529.35	64629
815.556	474.0271	65517.8	64609.75
815.7	476.1914	65524.45	64618.05
815.844	478.3551	65522.05	64611.2
815.988	480.5182	65535	64628.9
816.132	482.6807	65499.45	64599.9
816.276	484.8426	65518.9	64625.1
816.4201	487.0039	65535	64635.45
816.5641	489.1647	65535	64634.35
816.7082	491.3248	65521.9	64615
816.8522	493.4843	65535	64631.35
816.9963	495.6432	65535	64629.1
817.1404	497.8015	65523.9	64609.55
817.2845	499.9592	65535	64616.35
817.4286	502.1163	65533.3	64616.5
817.5727	504.2728	65530.95	64621.15
817.7168	506.4287	65523.2	64621.95
817.861	508.5839	65510.95	64610.9
818.0051	510.7386	65520.35	64614.1
818.1493	512.8927	65516.75	64598.95
818.2935	515.0461	65507.8	64596.75
818.4377	517.199	65520.75	64605.3
818.5818	519.3512	65472.35	64552.8
818.726	521.5029	65479.1	64562
818.8703	523.6539	65480.8	64568.6
819.0145	525.8043	65435.6	64517.95
819.1587	527.9541	65483.7	64565.55
819.303	530.1033	65487.6	64570.85
819.4472	532.2519	65467.6	64550.55
819.5915	534.3999	65520.9	64605.45
819.7357	536.5472	65527.7	64610.45
819.88	538.694	65498.75	64587.6
820.0243	540.8401	65526.9	64612.45
820.1686	542.9856	65534.15	64606.9
820.3129	545.1305	65535	64605.7
820.4572	547.2748	65523.55	64589.35
820.6016	549.4185	65516.85	64582
820.7459	551.5615	65527.3	64593.55
820.8902	553.704	65521	64592.3
821.0346	555.8458	65500.25	64579.05
821.1789	557.987	65509.75	64584.15
821.3233	560.1276	65516.95	64589.05
821.4677	562.2675	65485.9	64559.9
821.6121	564.4069	65486.45	64559.6
821.7565	566.5456	65502.45	64577.65
821.9009	568.6837	65434.5	64513.3
822.0453	570.8212	65442.2	64521.5
822.1897	572.958	65376.5	64452.2
822.3342	575.0942	65445.1	64526.5
822.4786	577.2299	65405.3	64487.5
822.6231	579.3648	65398.1	64492.45
822.7675	581.4992	65401.1	64501.5
822.912	583.6329	65403.3	64504.65
823.0565	585.766	65408.15	64505.9
823.201	587.8985	65436.6	64526.35
823.3454	590.0304	65374	64448.8
823.4899	592.1616	65427.7	64505.5
823.6345	594.2922	65389.6	64461.9
823.779	596.4222	65351.35	64422.9
823.9235	598.5515	65364.5	64435.9
824.068	600.6802	65392.5	64461.75
824.2126	602.8083	65327	64405.85
824.3571	604.9358	65315.5	64390.55
824.5017	607.0626	65353.65	64422.65
824.6462	609.1888	65273.85	64339.9
824.7908	611.3144	65313.2	64379.95
824.9354	613.4393	65274.95	64342.7
825.08	615.5636	65206.5	64273
825.2246	617.6873	65251.6	64319.15
825.3692	619.8103	65140.8	64208.05
825.5138	621.9327	65266.3	64335.05
825.6584	624.0544	65278.7	64354.25
825.803	626.1756	65238.9	64315.95
825.9477	628.2961	65222.55	64292.3
826.0923	630.4159	65162.15	64230.95
826.237	632.5351	65117.35	64184.3
826.3816	634.6537	65268.65	64333.25
826.5263	636.7716	65102.75	64166.35
826.6709	638.8889	65171.6	64235.6
826.8156	641.0056	65158.15	64220.75
826.9603	643.1216	65179.1	64240.4
827.105	645.237	65201.55	64266.8
827.2497	647.3518	65075.05	64140.65
827.3944	649.4659	65132.15	64205.45
827.5391	651.5793	65168.05	64243.85
827.6838	653.6922	65197.5	64267.7
827.8285	655.8043	64946.85	64015.9
827.9733	657.9159	65200.3	64273.85
828.118	660.0268	64672.95	63739.35
828.2627	662.137	65056.5	64122.3
828.4075	664.2466	65081.65	64140.45
828.5522	666.3556	64938.05	64002.9
828.697	668.4639	65049.25	64118.65
828.8418	670.5716	64866.65	63942.85
828.9865	672.6786	65023	64091.9
829.1313	674.785	64845.1	63906.05
829.2761	676.8907	64880.55	63945.35
829.4209	678.9958	65007.6	64075.5
829.5657	681.1002	65013.25	64079.25
829.7105	683.204	64804.05	63859.1
829.8553	685.3072	64681.35	63744.7
830.0001	687.4097	64755.55	63818.1
830.1449	689.5115	64617.4	63678.9
830.2898	691.6127	64836.25	63899.7
830.4346	693.7132	64608.45	63671.85
830.5794	695.8131	64614.8	63657.6
830.7243	697.9123	64658.9	63714.5
830.8691	700.0109	64647.3	63705.5
831.014	702.1089	64368	63428.8
831.1588	704.2061	64441.8	63501.25
831.3037	706.3028	64469.8	63528.75
831.4486	708.3987	64523.9	63583.4
831.5935	710.4941	64439.85	63502.2
831.7383	712.5887	64659.4	63726.35
831.8832	714.6827	64553.4	63607.95
832.0281	716.7761	64773.6	63838.15
832.173	718.8688	64869.45	63929.7
832.3179	720.9608	64666.8	63720.25
832.4628	723.0522	64677.65	63731.2
832.6077	725.1429	64466.25	63521.25
832.7527	727.233	64842.25	63905.8
832.8976	729.3224	63912.5	62973.35
833.0425	731.4112	64213.05	63270.25
833.1874	733.4993	64208.65	63269.2
833.3324	735.5867	64167.45	63226
833.4773	737.6735	63898.6	62955.2
833.6222	739.7596	63659.1	62714.3
833.7672	741.845	63651.7	62711.1
833.9122	743.9298	64032.35	63090.5
834.0571	746.014	63629.45	62690.7
834.2021	748.0974	63312.85	62364.55
834.347	750.1802	63915.25	62971.1
834.492	752.2624	63194.6	62251.45
834.637	754.3439	63301.85	62356.55
834.782	756.4247	63475.85	62520.65
834.9269	758.5048	63135.5	62189.1
835.0719	760.5843	63328.05	62382.7
835.2169	762.6631	63503.2	62561.6
835.3619	764.7413	63396.55	62452.8
835.5069	766.8188	63627.45	62680.3
835.6519	768.8956	63974.05	63028.4
835.7969	770.9718	63972.6	63025.1
835.9419	773.0473	63765.15	62818.7
836.0869	775.1221	63173.75	62228.3
836.232	777.1962	63067.35	62121.3
836.377	779.2697	62468.9	61518.95
836.522	781.3426	62895.15	61939.65
836.667	783.4147	63134.6	62186.9
836.8121	785.4862	63132.1	62188.25
836.9571	787.557	62628.6	61680.55
837.1021	789.6271	63008	62056.6
837.2472	791.6966	62368.25	61423.65
837.3922	793.7654	61565.5	60621.4
837.5373	795.8335	61511.35	60568.2
837.6823	797.901	61615.6	60671.15
837.8274	799.9678	61231.7	60283.1
837.9724	802.0339	61168.85	60221.7
838.1175	804.0993	61249.4	60291.75
838.2626	806.1641	60979.2	60030.9
838.4076	808.2282	60837.15	59890.45
838.5527	810.2916	60583.45	59634.65
838.6978	812.3544	60894.35	59954.8
838.8428	814.4164	60114.2	59169.35
838.9879	816.4778	60194.85	59246.85
839.133	818.5385	60140.9	59191.65
839.2781	820.5986	60108.55	59160.65
839.4232	822.658	60192.35	59245.35
839.5682	824.7166	60173.65	59224.7
839.7133	826.7747	59603.95	58657.55
839.8584	828.832	59910	58964.75
840.0035	830.8886	60210.15	59258.8
840.1486	832.9446	60216	59265.95
840.2937	834.9999	59319.5	58370.05
840.4388	837.0545	59835.35	58884.05
840.5839	839.1085	60102.35	59152.7
840.729	841.1618	59921.4	58971.5
840.8741	843.2143	59247.95	58302.35
841.0192	845.2662	59228.4	58280
841.1643	847.3175	59410.15	58465.15
841.3095	849.368	58534.05	57585.05
841.4546	851.4179	59003.45	58057.4
841.5997	853.467	58419.15	57467.5
841.7448	855.5155	58559.75	57610.55
841.8899	857.5633	58040.05	57090.55
842.0351	859.6105	57639.45	56689.6
842.1802	861.6569	57842.85	56892.5
842.3253	863.7027	57127.35	56175.3
842.4704	865.7478	57351.25	56400.55
842.6156	867.7922	57205.65	56257.7
842.7607	869.8359	57578.75	56629.45
842.9058	871.8789	56881.85	55928.3
843.0509	873.9212	57364	56382.4
843.1961	875.9629	57419.5	56466.65
843.3412	878.0039	57402.5	56452.95
843.4863	880.0441	57191.6	56243.2
843.6315	882.0837	57074.4	56126.15
843.7766	884.1226	57000.05	56049.35
843.9218	886.1609	56768.7	55820.8
844.0669	888.1984	56308.1	55356.45
844.212	890.2352	56664.7	55716.8
844.3572	892.2714	55933.85	54978.6
844.5023	894.3069	56164.4	55215.45
844.6475	896.3416	55800.05	54849.35
844.7926	898.3757	55663.2	54712.05
844.9377	900.4091	55075.55	54127.5
845.0829	902.4418	55704.75	54748.7
845.228	904.4739	55164.5	54205.25
845.3732	906.5052	55254.2	54304.8
845.5183	908.5358	54842.45	53890.55
845.6635	910.5658	54501.1	53544.6
845.8086	912.595	54340.45	53388.05
845.9538	914.6236	53756.75	52806.25
846.0989	916.6515	54427.75	53479.3
846.2441	918.6786	53502.85	52549.65
846.3892	920.7051	53717.05	52764.4
846.5344	922.7309	53712.45	52761.4
846.6795	924.756	53743.15	52791.85
846.8246	926.7804	53492.2	52537.95
846.9698	928.8041	52919.4	51963.7
847.1149	930.8272	53188.5	52236
847.2601	932.8495	53050.6	52098.85
847.4052	934.8711	52589.35	51634.7
847.5504	936.892	52235.5	51280.2
847.6955	938.9123	52037.8	51082.3
847.8407	940.9318	51649.4	50693.5
847.9858	942.9506	51398.55	50447.7
848.131	944.9688	51294.6	50344.5
848.2761	946.9862	50794.55	49844.1
848.4213	949.003	50745.65	49791.7
848.5664	951.019	50329.6	49377
848.7115	953.0344	50431.8	49481.75
848.8567	955.0491	50303.55	49350.8
849.0018	957.063	50401.85	49451.4
849.147	959.0763	50510.9	49554.65
849.2921	961.0888	50226.45	49270.7
849.4373	963.1007	50360.1	49411.05
849.5824	965.1119	50252.1	49310.7
849.7275	967.1223	50087.6	49152.1
849.8727	969.1321	50145.05	49205.4
850.0178	971.1412	49894.8	48953.05
850.1629	973.1495	49714.05	48766
850.3081	975.1572	49756.3	48772.8
850.4532	977.1641	49637.4	48687.9
850.5983	979.1704	49504.3	48552.9
850.7435	981.1759	49344.35	48393.75
850.8886	983.1808	49248.15	48291.5
851.0337	985.1849	49214.8	48254.8
851.1788	987.1884	49257.55	48307.95
851.324	989.1911	49460.7	48513.2
851.4691	991.1932	49249.85	48301.8
851.6142	993.1945	49235.35	48288.3
851.7593	995.1951	49056.4	48108.35
851.9045	997.1951	48819.35	47865
852.0496	999.1943	48610.6	47663.15
852.1947	1001.1928	48325.3	47376.55
852.3398	1003.1906	48169.8	47218.1
852.4849	1005.1877	48049.05	47097.1
852.63	1007.1841	47760.8	46812.8
852.7751	1009.1798	47475.05	46526.45
852.9202	1011.1748	47114.7	46165.95
853.0653	1013.1691	46823.25	45871.75
853.2104	1015.1627	46343.7	45397.7
853.3555	1017.1556	45916.35	44966.85
853.5006	1019.1477	45777.9	44830.45
853.6457	1021.1392	45441.1	44499.5
853.7908	1023.1299	45172.8	44233
853.9359	1025.12	45037.85	44104.7
854.081	1027.1093	44902.65	43976.75
854.2261	1029.0979	44825.95	43900.2
854.3712	1031.0859	44664.35	43732.9
854.5163	1033.0731	44520.9	43584.4
854.6613	1035.0596	44351.75	43411.75
854.8064	1037.0454	43958.8	43014.55
854.9515	1039.0304	43714.3	42770.7
855.0965	1041.0148	43447.7	42501.1
855.2416	1042.9985	43198.1	42251.65
855.3867	1044.9814	43130.3	42185.1
855.5317	1046.9636	42899.85	41951.9
855.6768	1048.9452	42602.25	41656.55
855.8219	1050.926	42610.25	41667.7
855.9669	1052.9061	42414.45	41469.2
856.112	1054.8855	42244.6	41298.25
856.257	1056.8642	42262.35	41315.5
856.4021	1058.8421	42219.25	41270.2
856.5471	1060.8194	42065.1	41120.2
856.6921	1062.7959	41972.7	41024.15
856.8372	1064.7717	41819.75	40868.85
856.9822	1066.7469	41725.25	40778.9
857.1272	1068.7213	41579.65	40632.4
857.2723	1070.695	41491.85	40544.55
857.4173	1072.6679	41137.9	40195.55
857.5623	1074.6402	41051.5	40103.55
857.7073	1076.6117	40993.65	40042.05
857.8523	1078.5826	40918.9	39972.25
857.9973	1080.5527	40874.45	39927.9
858.1423	1082.5221	40907.5	39964.5
858.2873	1084.4908	40996	40051.15
858.4323	1086.4587	41096.05	40148
858.5773	1088.426	41145.35	40195.9
858.7223	1090.3925	41006.15	40051.9
858.8673	1092.3584	40868.9	39922.95
859.0123	1094.3235	40472.95	39527
859.1573	1096.2879	40240.5	39294.45
859.3022	1098.2515	40084.4	39143.15
859.4472	1100.2145	40063	39117.95
859.5922	1102.1767	39963.55	39017.55
859.7371	1104.1382	39960.4	39019.05
859.8821	1106.099	40111.35	39165.4
860.027	1108.0591	40119.4	39172.85
860.172	1110.0185	40137.7	39190
860.3169	1111.9771	40067.3	39122.65
860.4619	1113.9351	39695.95	38754.4
860.6068	1115.8923	39247.2	38301.9
860.7517	1117.8488	38731.65	37782.25
860.8967	1119.8045	38328.7	37384
861.0416	1121.7596	38099.25	37154.05
861.1865	1123.7139	37864.7	36922.7
861.3314	1125.6675	37795.6	36855.5
861.4763	1127.6204	37862.95	36915.6
861.6212	1129.5726	37763.5	36821.25
861.7661	1131.524	37720.65	36772.55
861.911	1133.4748	37709.25	36763.05
862.0559	1135.4248	37540.7	36593.3
862.2008	1137.3741	37566.85	36625.3
862.3457	1139.3226	37418.8	36472.35
862.4905	1141.2705	37337.4	36392.05
862.6354	1143.2176	37045.05	36093.15
862.7803	1145.164	37004.3	36060.45
862.9251	1147.1097	36949.95	36006.15
863.07	1149.0546	36886.05	35941.1
863.2148	1150.9989	36739.8	35796.35
863.3597	1152.9424	36559.05	35614.85
863.5045	1154.8852	36268.9	35323.4
863.6493	1156.8272	36059	35118.45
863.7942	1158.7686	35960	35008.05
863.939	1160.7092	35726.6	34782.85
864.0838	1162.6491	35517.9	34573.45
864.2286	1164.5883	35556.5	34614.55
864.3734	1166.5267	35467.9	34526
864.5182	1168.4644	35582.2	34639.8
864.663	1170.4014	35688.45	34744.5
864.8078	1172.3377	35904.5	34966.2
864.9526	1174.2732	36033.05	35090.45
865.0974	1176.2081	36187.55	35243.1
865.2421	1178.1421	36247.1	35301.35
865.3869	1180.0755	36295.85	35354.4
865.5317	1182.0082	36085.3	35142.35
865.6764	1183.9401	35991.6	35050.15
865.8212	1185.8713	35715.45	34776.6
865.9659	1187.8017	35373.25	34442.35
866.1106	1189.7315	35041.4	34114.6
866.2554	1191.6605	34621.9	33697.2
866.4001	1193.5888	34311.05	33378.6
866.5448	1195.5163	34113.05	33178.4
866.6895	1197.4432	33935.7	32993.9
866.8342	1199.3693	33793.6	32853.95
866.9789	1201.2947	33585	32636.3
