Software Version:	3.9.2.0
Unit SN:	10000200
Spectrometer SN:	6960
Date:	3/26/2024 1:33:58 PM
Data Line Index:	25
Spectral Points:	2048
Integration time (ms):	125
Averages:	20
Delay (ms):	30000
Sequence Number:	1
Processing:	dark subtract
Laser Power (mW):	300
Laser Current (mA):	820
Laser Diode Temp (C):	25
Laser Case Temp (C):	26.9
System Temp (C):	26.9
Spectrometer Temp (C):	24.7
CCD Temp (C):	0.002
Secondary Temp (C):	20.007
Heatsink Temp (C):	22.361
CCDPCB Temp (C):	36.651
SecondaryPCB Temp (C):	34.15

Wavelength	RamanShift	Raw Counts	Dark Subtracted
787.061	30.1047	553.45	144
787.2016	32.3739	559.25	149.7
787.3422	34.6426	571.55	162.2
787.4828	36.9109	584.05	171.3
787.6235	39.1787	599.15	185.25
787.7642	41.4461	617.3	198.35
787.9049	43.7131	633	209.15
788.0456	45.9796	647.95	221.05
788.1863	48.2456	668.3	237.25
788.3271	50.5112	685.15	248.45
788.4679	52.7764	702.15	262.55
788.6087	55.0411	721.7	279.95
788.7496	57.3054	740.15	294.15
788.8904	59.5692	766.9	319.25
789.0313	61.8326	790.2	338.2
789.1722	64.0955	815.1	356.75
789.3132	66.3579	855	392.1
789.4541	68.6199	888.4	425
789.5951	70.8815	953.85	486.05
789.7361	73.1426	1105.3	635.05
789.8771	75.4032	1472.85	997.65
790.0181	77.6634	2385.05	1902.45
790.1592	79.9231	4623.65	4131.35
790.3003	82.1824	9667.05	9159.5
790.4414	84.4412	19478.8	18948.15
790.5825	86.6995	35703.9	35136.75
790.7237	88.9574	47069.7	46473.05
790.8648	91.2148	52515.15	51895.85
791.006	93.4717	54175.35	53541.95
791.1472	95.7282	54873.5	54228.1
791.2885	97.9842	55119.05	54472.15
791.4297	100.2398	55073.3	54421.45
791.571	102.4949	54883.25	54226.35
791.7123	104.7495	54779.5	54124.65
791.8536	107.0036	54467.8	53809.05
791.9949	109.2573	54580.85	53925.25
792.1363	111.5105	54242.7	53580.6
792.2777	113.7632	54220.6	53558.6
792.4191	116.0154	54207.6	53536.75
792.5605	118.2672	54322.05	53652
792.7019	120.5185	54246.85	53582.75
792.8434	122.7693	54227.4	53557.7
792.9849	125.0197	53981.95	53312.15
793.1264	127.2696	54383.8	53710.6
793.2679	129.519	54255.15	53574.8
793.4094	131.7679	54435.95	53748.95
793.551	134.0163	53878.65	53192.05
793.6926	136.2642	54052.3	53359.7
793.8342	138.5117	54269.55	53568.55
793.9758	140.7587	54090.1	53394.3
794.1175	143.0052	54026.7	53331.15
794.2591	145.2512	53694.7	52998
794.4008	147.4967	53975.9	53276.05
794.5425	149.7417	53804.65	53103.75
794.6842	151.9863	53792.65	53087.55
794.826	154.2304	53556.55	52848.25
794.9677	156.4739	53690	52979.2
795.1095	158.717	53803.45	53087.9
795.2513	160.9596	53618.6	52903.2
795.3931	163.2017	53301.75	52583.6
795.535	165.4433	53537.9	52816.85
795.6768	167.6844	53316.7	52598.5
795.8187	169.925	53384.45	52659.85
795.9606	172.1651	53183.65	52457.5
796.1025	174.4047	53139.65	52412.5
796.2445	176.6439	53136.45	52407.3
796.3864	178.8825	53021.2	52284.3
796.5284	181.1206	53134.45	52395.7
796.6704	183.3582	53117.15	52371.2
796.8124	185.5954	52926.6	52178.95
796.9544	187.832	52970.45	52223.3
797.0965	190.0681	52859.1	52104.45
797.2386	192.3037	53130.05	52378.25
797.3806	194.5388	53349.05	52592.05
797.5228	196.7734	52775.7	52011.6
797.6649	199.0075	53289.55	52523.15
797.807	201.2411	53161.55	52392.4
797.9492	203.4742	53470.3	52701.95
798.0914	205.7068	53450.25	52682.25
798.2336	207.9389	53408.25	52637.55
798.3758	210.1704	53433.9	52661.95
798.518	212.4015	53647.2	52876.45
798.6603	214.632	53385.15	52608.5
798.8025	216.862	53750.7	52984.1
798.9448	219.0915	53632.1	52867.75
799.0871	221.3205	53595.2	52837.55
799.2294	223.549	53842.55	53092.3
799.3718	225.777	53816.8	53062.35
799.5141	228.0044	53942.8	53184.25
799.6565	230.2314	53908.8	53155.4
799.7989	232.4578	53900.8	53148.1
799.9413	234.6837	53938.15	53177.25
800.0837	236.909	54458.55	53692.7
800.2262	239.1339	53802.6	53016.5
800.3687	241.3582	54039.7	53265.35
800.5111	243.582	54032	53224.25
800.6536	245.8053	54032.85	53237.45
800.7961	248.0281	54054.9	53267.75
800.9387	250.2503	54142.1	53348
801.0812	252.472	53956.6	53158.3
801.2238	254.6932	54088.25	53286.1
801.3664	256.9139	53998.6	53198.65
801.509	259.134	54438.3	53631.15
801.6516	261.3536	53987.25	53180.85
801.7942	263.5727	54346.35	53536.2
801.9369	265.7912	54222.75	53417.3
802.0795	268.0092	54323.95	53520.95
802.2222	270.2267	54362	53556.3
802.3649	272.4436	54178.2	53370.95
802.5076	274.6601	54396.65	53582.6
802.6504	276.8759	54438	53628.8
802.7931	279.0913	54301.25	53490.9
802.9359	281.3061	54279.55	53468.3
803.0787	283.5204	54369.35	53552.5
803.2215	285.7341	54326.45	53502.1
803.3643	287.9473	54547.95	53720.4
803.5071	290.16	54360.45	53535.75
803.6499	292.3721	54538.75	53720.8
803.7928	294.5837	54315.55	53491.95
803.9357	296.7947	54231.8	53411.35
804.0786	299.0052	54576.45	53751.85
804.2215	301.2152	54379.05	53552.6
804.3644	303.4246	54553.9	53733.1
804.5074	305.6334	54413.75	53592.2
804.6503	307.8418	54088.45	53263.9
804.7933	310.0495	54055.4	53229.05
804.9363	312.2568	53914.8	53090.55
805.0793	314.4635	53796.9	52969.7
805.2223	316.6696	53808.45	52981.3
805.3653	318.8752	53894.65	53056
805.5084	321.0802	53439.1	52609.3
805.6514	323.2847	53617.45	52784.45
805.7945	325.4887	53602.15	52768.2
805.9376	327.692	53474.95	52639.7
806.0807	329.8949	53625.35	52794.05
806.2238	332.0972	53446	52612.3
806.367	334.2989	53497.75	52656.05
806.5101	336.5001	53557.4	52713.3
806.6533	338.7007	53242.8	52399.4
806.7965	340.9008	53342	52499.2
806.9397	343.1003	53331.7	52489.3
807.0829	345.2992	53386.8	52543.05
807.2261	347.4976	53187.85	52338.5
807.3693	349.6955	53253.3	52404.25
807.5126	351.8927	53193.65	52342.45
807.6559	354.0895	53250.1	52390
807.7991	356.2856	53220.1	52369.65
807.9424	358.4812	53273.75	52420.8
808.0857	360.6763	53102.95	52249.05
808.2291	362.8707	53185.8	52331.55
808.3724	365.0646	53108.2	52249.55
808.5158	367.258	53129.5	52275.3
808.6591	369.4508	52994.45	52134.15
808.8025	371.643	53155.5	52294.3
808.9459	373.8346	53122.45	52260.9
809.0893	376.0257	53092.95	52228.1
809.2327	378.2162	52999.45	52133.95
809.3762	380.4062	52856.65	51986.6
809.5196	382.5956	52883.2	52015.85
809.6631	384.7844	52904.3	52040.45
809.8066	386.9726	52846.6	51978.2
809.9501	389.1603	52844.85	51983.35
810.0936	391.3474	52657.2	51758.25
810.2371	393.5339	52811.8	51948.25
810.3806	395.7199	52549.05	51685.6
810.5241	397.9052	52566.2	51699.45
810.6677	400.09	52592.45	51732.4
810.8113	402.2743	52685.75	51825.9
810.9548	404.4579	52617.95	51759.75
811.0984	406.641	52599.5	51739.75
811.2421	408.8235	52732.05	51874.65
811.3857	411.0054	52804.75	51940
811.5293	413.1868	52882.9	52017.35
811.673	415.3675	52828.55	51957.1
811.8166	417.5477	52889.1	52021.9
811.9603	419.7273	52829.55	51961.25
812.104	421.9064	52741.4	51865.95
812.2477	424.0848	52750.9	51880.4
812.3914	426.2627	52747.55	51874.4
812.5351	428.4399	52494.5	51617.75
812.6788	430.6166	52336.15	51453.9
812.8226	432.7928	52363.8	51482.9
812.9663	434.9683	52108.55	51234.5
813.1101	437.1432	52058.85	51183.45
813.2539	439.3176	52082.35	51208.25
813.3977	441.4914	51845.6	50976.6
813.5415	443.6645	51889.8	51013.7
813.6853	445.8371	51800.5	50923.05
813.8291	448.0091	51635.7	50756.8
813.973	450.1806	51574.85	50696.4
814.1168	452.3514	51522.15	50646.95
814.2607	454.5216	51503.45	50622
814.4046	456.6913	51471.1	50591.65
814.5485	458.8603	51500.9	50627.35
814.6924	461.0288	51409.15	50537.85
814.8363	463.1967	51498.2	50627.6
814.9802	465.3639	51491.75	50615.35
815.1241	467.5306	51271.1	50393.45
815.2681	469.6967	51345.05	50471.05
815.412	471.8622	51349.4	50476.75
815.556	474.0271	51300.1	50423
815.7	476.1914	51299.95	50418.35
815.844	478.3551	51317.35	50437.5
815.988	480.5182	51431.65	50553.15
816.132	482.6807	51327.35	50452.1
816.276	484.8426	51385.8	50520.75
816.4201	487.0039	51573.15	50701.6
816.5641	489.1647	51628.05	50746.9
816.7082	491.3248	51645.05	50762.4
816.8522	493.4843	51794.7	50915
816.9963	495.6432	51722.35	50842.6
817.1404	497.8015	51480.65	50596.1
817.2845	499.9592	51576.9	50683.3
817.4286	502.1163	51505.05	50612.75
817.5727	504.2728	51421.5	50539.95
817.7168	506.4287	51371.15	50491.6
817.861	508.5839	51154.1	50278.8
818.0051	510.7386	51165.55	50286.1
818.1493	512.8927	51184.75	50291.4
818.2935	515.0461	51102.85	50214.1
818.4377	517.199	51170.85	50279.25
818.5818	519.3512	51157.65	50266.2
818.726	521.5029	51200.85	50308.35
818.8703	523.6539	51276.6	50389.3
819.0145	525.8043	51120.55	50231.15
819.1587	527.9541	51197.85	50301.95
819.303	530.1033	51123.55	50223.65
819.4472	532.2519	51003.05	50114.1
819.5915	534.3999	51029	50132.35
819.7357	536.5472	51152.7	50265.05
819.88	538.694	51017.4	50126
820.0243	540.8401	51199.15	50304.7
820.1686	542.9856	51280.65	50376.05
820.3129	545.1305	51273.7	50367.65
820.4572	547.2748	51232.05	50322.05
820.6016	549.4185	51150.25	50241.5
820.7459	551.5615	51136.25	50228.5
820.8902	553.704	51066.1	50161.15
821.0346	555.8458	50997.9	50095.35
821.1789	557.987	51042.75	50143.5
821.3233	560.1276	51110.9	50208.4
821.4677	562.2675	51173.5	50269.55
821.6121	564.4069	51304.25	50401.4
821.7565	566.5456	51408.15	50506
821.9009	568.6837	51330.45	50433.1
822.0453	570.8212	51181	50281.95
822.1897	572.958	50888.65	49987.1
822.3342	575.0942	50825.8	49928.25
822.4786	577.2299	50587.45	49695.7
822.6231	579.3648	50469.65	49582.6
822.7675	581.4992	50357.3	49477.45
822.912	583.6329	50348.75	49469.4
823.0565	585.766	50374.7	49492.1
823.201	587.8985	50409.65	49518.7
823.3454	590.0304	50175.65	49268
823.4899	592.1616	50274.9	49371.35
823.6345	594.2922	50122.35	49219.4
823.779	596.4222	49940.65	49030.55
823.9235	598.5515	49922.5	49009.2
824.068	600.6802	49948.3	49039.65
824.2126	602.8083	49627.45	48724.5
824.3571	604.9358	49609.85	48703.8
824.5017	607.0626	49745.65	48834.45
824.6462	609.1888	49522.85	48608.75
824.7908	611.3144	49722.1	48809.15
824.9354	613.4393	49605.85	48694.05
825.08	615.5636	49478.65	48564.95
825.2246	617.6873	49626.8	48712.65
825.3692	619.8103	49399.1	48488
825.5138	621.9327	49527	48613.85
825.6584	624.0544	49454.65	48549.45
825.803	626.1756	49282.1	48375.9
825.9477	628.2961	49206.65	48296.95
826.0923	630.4159	49038.6	48126.85
826.237	632.5351	48969.9	48055
826.3816	634.6537	49284.95	48371.95
826.5263	636.7716	48920.85	48000.6
826.6709	638.8889	49018.3	48100.6
826.8156	641.0056	49050.25	48129.1
826.9603	643.1216	49013.15	48094.8
827.105	645.237	49137.5	48220.5
827.2497	647.3518	48826.85	47914.2
827.3944	649.4659	48869.6	47962.35
827.5391	651.5793	48883.5	47977.7
827.6838	653.6922	48853.8	47941.3
827.8285	655.8043	48476.9	47565.45
827.9733	657.9159	48959.45	48044.9
828.118	660.0268	48112.65	47200.85
828.2627	662.137	48635.8	47723.05
828.4075	664.2466	48650.95	47732.6
828.5522	666.3556	48431.55	47513.45
828.697	668.4639	48502.05	47587.6
828.8418	670.5716	48258.1	47347.5
828.9865	672.6786	48460.6	47542.5
829.1313	674.785	48083.4	47162.15
829.2761	676.8907	48041.45	47124.65
829.4209	678.9958	48187.7	47277.25
829.5657	681.1002	48152.05	47232.6
829.7105	683.204	47906.1	46979.2
829.8553	685.3072	47727.35	46802.5
830.0001	687.4097	47812.45	46893.35
830.1449	689.5115	47662.8	46741
830.2898	691.6127	47946.25	47026.4
830.4346	693.7132	47645.45	46729.75
830.5794	695.8131	47678.4	46749.7
830.7243	697.9123	47747.45	46819.95
830.8691	700.0109	47805.1	46877.4
831.014	702.1089	47440.95	46516.95
831.1588	704.2061	47513.35	46590.6
831.3037	706.3028	47588.95	46662.85
831.4486	708.3987	47632.5	46709.65
831.5935	710.4941	47421.3	46500.75
831.7383	712.5887	47653.2	46733.45
831.8832	714.6827	47519	46597.25
832.0281	716.7761	47711.85	46793.6
832.173	718.8688	47823.7	46902.15
832.3179	720.9608	47574.85	46643.35
832.4628	723.0522	47657.8	46726.85
832.6077	725.1429	47388.9	46464.85
832.7527	727.233	48028.8	47103.5
832.8976	729.3224	47120.8	46196.8
833.0425	731.4112	47422.05	46497.4
833.1874	733.4993	47300.55	46376.5
833.3324	735.5867	47193.6	46268.3
833.4773	737.6735	46828.3	45902.25
833.6222	739.7596	46519.85	45591.85
833.7672	741.845	46353.25	45424.95
833.9122	743.9298	46703.3	45774.5
834.0571	746.014	46292.95	45363.5
834.2021	748.0974	46039.45	45108.55
834.347	750.1802	46472.3	45541.35
834.492	752.2624	45814.1	44885.45
834.637	754.3439	45880.95	44950.2
834.782	756.4247	46044.25	45105.7
834.9269	758.5048	45813.45	44886.4
835.0719	760.5843	45993.45	45060.2
835.2169	762.6631	46244.85	45311.95
835.3619	764.7413	46378.95	45449.35
835.5069	766.8188	46651.45	45720.15
835.6519	768.8956	46998.2	46069.5
835.7969	770.9718	47114.95	46185.25
835.9419	773.0473	46921.3	45992.15
836.0869	775.1221	46505	45576.2
836.232	777.1962	46395.15	45467.5
836.377	779.2697	46020.7	45085.65
836.522	781.3426	46208.75	45264.75
836.667	783.4147	46243.25	45310.15
836.8121	785.4862	46197.5	45267.55
836.9571	787.557	45723.3	44785.7
837.1021	789.6271	45876.35	44942.8
837.2472	791.6966	45236.4	44303.15
837.3922	793.7654	44578.25	43646.05
837.5373	795.8335	44435.7	43502.5
837.6823	797.901	44277	43341.7
837.8274	799.9678	43999.3	43063.45
837.9724	802.0339	43893.7	42958.35
838.1175	804.0993	43881.5	42937.8
838.2626	806.1641	43642.45	42707.55
838.4076	808.2282	43594.4	42660.85
838.5527	810.2916	43510.75	42575.05
838.6978	812.3544	43565.75	42634.2
838.8428	814.4164	43191.4	42259.7
838.9879	816.4778	43267.15	42330.25
839.133	818.5385	43241.85	42307.85
839.2781	820.5986	43261.7	42328.3
839.4232	822.658	43434.9	42498.2
839.5682	824.7166	43515	42580.65
839.7133	826.7747	43557.7	42624.05
839.8584	828.832	43894.5	42957.05
840.0035	830.8886	44181.25	43238.85
840.1486	832.9446	44242.05	43302.35
840.2937	834.9999	43632.75	42701.3
840.4388	837.0545	43668.5	42727.8
840.5839	839.1085	43517.5	42579.1
840.729	841.1618	43212.15	42273.4
840.8741	843.2143	42774.5	41836.85
841.0192	845.2662	42607.95	41675.45
841.1643	847.3175	42671.6	41736.35
841.3095	849.368	42228.85	41288
841.4546	851.4179	42423.5	41487.05
841.5997	853.467	42027.2	41091.25
841.7448	855.5155	42112.4	41175.8
841.8899	857.5633	41867.45	40930.05
842.0351	859.6105	41622.05	40683
842.1802	861.6569	41695.2	40759.3
842.3253	863.7027	41451.9	40511.6
842.4704	865.7478	41431.15	40493.05
842.6156	867.7922	41334.4	40397.15
842.7607	869.8359	41405.95	40468.2
842.9058	871.8789	41125.8	40187.8
843.0509	873.9212	41233.6	40261.25
843.1961	875.9629	41163.4	40224.55
843.3412	878.0039	41227.85	40286.4
843.4863	880.0441	41197.65	40262.45
843.6315	882.0837	41167.1	40230.85
843.7766	884.1226	41138.45	40198.2
843.9218	886.1609	41087.1	40154.15
844.0669	888.1984	41101.45	40163.3
844.212	890.2352	41313.2	40375
844.3572	892.2714	41007.05	40064.3
844.5023	894.3069	40990.25	40051.1
844.6475	896.3416	40719.95	39780.05
844.7926	898.3757	40647.4	39706.3
844.9377	900.4091	40359.1	39416.55
845.0829	902.4418	40485.55	39540.7
845.228	904.4739	40269.15	39326
845.3732	906.5052	40401.25	39457
845.5183	908.5358	40168.95	39228.55
845.6635	910.5658	40033.6	39089.7
845.8086	912.595	39869.95	38928.75
845.9538	914.6236	39537.7	38601.85
846.0989	916.6515	39715.2	38772.8
846.2441	918.6786	39258.3	38313.8
846.3892	920.7051	39285.25	38340.55
846.5344	922.7309	39265.6	38323.75
846.6795	924.756	39189.15	38248.4
846.8246	926.7804	39118	38177.75
846.9698	928.8041	38838.3	37897.6
847.1149	930.8272	38900.75	37959.55
847.2601	932.8495	38834.75	37895.2
847.4052	934.8711	38709.95	37767.75
847.5504	936.892	38482.1	37537.2
847.6955	938.9123	38379.8	37435.85
847.8407	940.9318	38307.5	37367.6
847.9858	942.9506	38206.6	37265.75
848.131	944.9688	38112.25	37172.3
848.2761	946.9862	37862.3	36918.45
848.4213	949.003	37701.2	36760.15
848.5664	951.019	37447.05	36503.8
848.7115	953.0344	37372	36432.9
848.8567	955.0491	37273.55	36329.3
849.0018	957.063	37285.55	36342.5
849.147	959.0763	37367.4	36420
849.2921	961.0888	37210.85	36267.45
849.4373	963.1007	37283.05	36344.75
849.5824	965.1119	37221.4	36287.15
849.7275	967.1223	37078.25	36149.1
849.8727	969.1321	37070.4	36139.95
850.0178	971.1412	37021.05	36087.95
850.1629	973.1495	36839.85	35902.05
850.3081	975.1572	36810.8	35852.25
850.4532	977.1641	36734.4	35790.5
850.5983	979.1704	36624.35	35677.5
850.7435	981.1759	36477.6	35529.85
850.8886	983.1808	36491.75	35545.5
851.0337	985.1849	36405.35	35455.3
851.1788	987.1884	36334.15	35388.4
851.324	989.1911	36373.5	35431.4
851.4691	991.1932	36316.05	35374.35
851.6142	993.1945	36185.7	35245.7
851.7593	995.1951	35999.3	35057.9
851.9045	997.1951	35921.65	34975.6
852.0496	999.1943	35734.3	34794.8
852.1947	1001.1928	35686.15	34744.1
852.3398	1003.1906	35552.05	34609.5
852.4849	1005.1877	35549.95	34609.3
852.63	1007.1841	35421.6	34479.75
852.7751	1009.1798	35348.8	34410
852.9202	1011.1748	35157.45	34217.2
853.0653	1013.1691	34953.85	34011.7
853.2104	1015.1627	34740.95	33799.15
853.3555	1017.1556	34409.25	33471.6
853.5006	1019.1477	34251.75	33314.15
853.6457	1021.1392	34007.5	33073.65
853.7908	1023.1299	33894.55	32960.35
853.9359	1025.12	33743.45	32813.15
854.081	1027.1093	33613.05	32696
854.2261	1029.0979	33597.2	32680.45
854.3712	1031.0859	33565.3	32643.5
854.5163	1033.0731	33492.3	32562.9
854.6613	1035.0596	33378.5	32444.35
854.8064	1037.0454	33174	32237.2
854.9515	1039.0304	32993.1	32055.3
855.0965	1041.0148	32832.2	31894.1
855.2416	1042.9985	32628.15	31689.25
855.3867	1044.9814	32626.75	31691.75
855.5317	1046.9636	32421.55	31481
855.6768	1048.9452	32313.7	31381.25
855.8219	1050.926	32307.6	31371
855.9669	1052.9061	32230.25	31290.65
856.112	1054.8855	32143.2	31203.6
856.257	1056.8642	32080.2	31144.5
856.4021	1058.8421	32089.15	31146
856.5471	1060.8194	31991.9	31051.15
856.6921	1062.7959	31960.5	31022.55
856.8372	1064.7717	31933	30993.1
856.9822	1066.7469	31868	30927.55
857.1272	1068.7213	31899.65	30956.25
857.2723	1070.695	31837.8	30897.5
857.4173	1072.6679	31685.6	30746.75
857.5623	1074.6402	31663.35	30723.4
857.7073	1076.6117	31615.6	30670.6
857.8523	1078.5826	31537.3	30595.5
857.9973	1080.5527	31375.8	30438.6
858.1423	1082.5221	31198.75	30261.65
858.2873	1084.4908	31092.8	30154.85
858.4323	1086.4587	31056	30115.85
858.5773	1088.426	31031.4	30091.55
858.7223	1090.3925	30928.5	29985.8
858.8673	1092.3584	30884.2	29945.55
859.0123	1094.3235	30763	29824.35
859.1573	1096.2879	30745.2	29804.8
859.3022	1098.2515	30708.5	29767.9
859.4472	1100.2145	30811.8	29876.9
859.5922	1102.1767	30836.45	29896.4
859.7371	1104.1382	30908.5	29970.45
859.8821	1106.099	30919.15	29980.8
860.027	1108.0591	30965.9	30027.9
860.172	1110.0185	31034.35	30093.55
860.3169	1111.9771	31065.2	30125.2
860.4619	1113.9351	30854.35	29917.45
860.6068	1115.8923	30693.55	29755.9
860.7517	1117.8488	30537.5	29595.1
860.8967	1119.8045	30249.55	29314.6
861.0416	1121.7596	30155.3	29216.6
861.1865	1123.7139	29953.45	29015.95
861.3314	1125.6675	29898.95	28961.55
861.4763	1127.6204	29916.2	28979.8
861.6212	1129.5726	29811.35	28873.35
861.7661	1131.524	29699.8	28762.5
861.911	1133.4748	29574.85	28636.75
862.0559	1135.4248	29336.2	28400.15
862.2008	1137.3741	29201.45	28264.85
862.3457	1139.3226	29081.85	28142.8
862.4905	1141.2705	29039.35	28100.1
862.6354	1143.2176	28813.05	27867.05
862.7803	1145.164	28794.8	27856.5
862.9251	1147.1097	28644.75	27705.6
863.07	1149.0546	28565.55	27627.25
863.2148	1150.9989	28449	27513.2
863.3597	1152.9424	28400.15	27464.35
863.5045	1154.8852	28226.3	27288.85
863.6493	1156.8272	28121.35	27183.8
863.7942	1158.7686	28132.8	27186.05
863.939	1160.7092	28058.9	27117.7
864.0838	1162.6491	27990.05	27051.05
864.2286	1164.5883	28006.75	27071.4
864.3734	1166.5267	27987.6	27049.55
864.5182	1168.4644	28061.4	27122.9
864.663	1170.4014	28137.1	27200.4
864.8078	1172.3377	28283.9	27348.2
864.9526	1174.2732	28430.7	27498.35
865.0974	1176.2081	28677.55	27741.5
865.2421	1178.1421	28888.35	27949.2
865.3869	1180.0755	29190.5	28256.5
865.5317	1182.0082	29271.15	28336.5
