Software Version:	3.9.2.0
Unit SN:	10000200
Spectrometer SN:	6960
Date:	3/26/2024 2:55:24 PM
Data Line Index:	25
Spectral Points:	2048
Integration time (ms):	125
Averages:	20
Delay (ms):	30000
Sequence Number:	1
Processing:	dark subtract
Laser Power (mW):	305
Laser Current (mA):	816
Laser Diode Temp (C):	25
Laser Case Temp (C):	28
System Temp (C):	28.1
Spectrometer Temp (C):	26
CCD Temp (C):	0.009
Secondary Temp (C):	20.01
Heatsink Temp (C):	23.499
CCDPCB Temp (C):	37.341
SecondaryPCB Temp (C):	35.029

Wavelength	RamanShift	Raw Counts	Dark Subtracted
787.061	30.1047	632.8	224.65
787.2016	32.3739	642	234.7
787.3422	34.6426	662.3	253.55
787.4828	36.9109	676	263.9
787.6235	39.1787	698.8	283.65
787.7642	41.4461	721.3	301.6
787.9049	43.7131	746.65	322.9
788.0456	45.9796	766.4	340.45
788.1863	48.2456	798.6	368.5
788.3271	50.5112	814.15	380.2
788.4679	52.7764	843.35	406
788.6087	55.0411	877.8	438.2
788.7496	57.3054	904.8	458.85
788.8904	59.5692	936.2	486.95
789.0313	61.8326	976.6	521.5
789.1722	64.0955	1013.95	556.45
789.3132	66.3579	1063.4	601.85
789.4541	68.6199	1121.85	656.45
789.5951	70.8815	1205.7	737.8
789.7361	73.1426	1404.9	933.25
789.8771	75.4032	1900.05	1421.5
790.0181	77.6634	3162.05	2678.05
790.1592	79.9231	6271.65	5776.95
790.3003	82.1824	13439.4	12925.4
790.4414	84.4412	29477.15	28933.25
790.5825	86.6995	56813.6	56219.95
790.7237	88.9574	65527.55	64888
790.8648	91.2148	65535	64867.95
791.006	93.4717	65535	64845.45
791.1472	95.7282	65535	64836.05
791.2885	97.9842	65535	64828.85
791.4297	100.2398	65535	64828.4
791.571	102.4949	65535	64827.15
791.7123	104.7495	65535	64827.75
791.8536	107.0036	65535	64821.35
791.9949	109.2573	65535	64825.35
792.1363	111.5105	65535	64821.95
792.2777	113.7632	65535	64819.85
792.4191	116.0154	65535	64806.5
792.5605	118.2672	65535	64816.5
792.7019	120.5185	65535	64813.9
792.8434	122.7693	65535	64814.9
792.9849	125.0197	65535	64807.55
793.1264	127.2696	65535	64807.25
793.2679	129.519	65535	64801.8
793.4094	131.7679	65535	64798.35
793.551	134.0163	65535	64794.55
793.6926	136.2642	65535	64793.8
793.8342	138.5117	65535	64790.1
793.9758	140.7587	65535	64783.9
794.1175	143.0052	65535	64784.6
794.2591	145.2512	65535	64786.5
794.4008	147.4967	65535	64785.5
794.5425	149.7417	65535	64783.65
794.6842	151.9863	65535	64777.75
794.826	154.2304	65535	64775.45
794.9677	156.4739	65535	64768.65
795.1095	158.717	65535	64768.2
795.2513	160.9596	65535	64762.75
795.3931	163.2017	65535	64763.9
795.535	165.4433	65535	64762.7
795.6768	167.6844	65535	64764.35
795.8187	169.925	65535	64762.6
795.9606	172.1651	65535	64759.8
796.1025	174.4047	65535	64760.7
796.2445	176.6439	65535	64755.95
796.3864	178.8825	65535	64751.7
796.5284	181.1206	65535	64743.55
796.6704	183.3582	65535	64741.75
796.8124	185.5954	65535	64742.85
796.9544	187.832	65535	64737.15
797.0965	190.0681	65535	64732.25
797.2386	192.3037	65535	64729.55
797.3806	194.5388	65535	64728.1
797.5228	196.7734	65535	64722.5
797.6649	199.0075	65535	64715.9
797.807	201.2411	65535	64717.35
797.9492	203.4742	65535	64716.85
798.0914	205.7068	65535	64714.15
798.2336	207.9389	65535	64718.4
798.3758	210.1704	65535	64718.2
798.518	212.4015	65535	64708.8
798.6603	214.632	65535	64711.85
798.8025	216.862	65535	64723.45
798.9448	219.0915	65535	64727.8
799.0871	221.3205	65535	64730.55
799.2294	223.549	65535	64731.7
799.3718	225.777	65535	64731.1
799.5141	228.0044	65535	64730.4
799.6565	230.2314	65535	64737.3
799.7989	232.4578	65535	64733.4
799.9413	234.6837	65535	64726.75
800.0837	236.909	65535	64721.45
800.2262	239.1339	65535	64695.2
800.3687	241.3582	65535	64716.1
800.5111	243.582	65535	64680.9
800.6536	245.8053	65535	64698.25
800.7961	248.0281	65535	64706.05
800.9387	250.2503	65535	64695.95
801.0812	252.472	65535	64690.5
801.2238	254.6932	65535	64691.25
801.3664	256.9139	65535	64688.3
801.509	259.134	65535	64688.4
801.6516	261.3536	65535	64686.7
801.7942	263.5727	65535	64680.7
801.9369	265.7912	65535	64686.1
802.0795	268.0092	65535	64686.9
802.2222	270.2267	65535	64685.35
802.3649	272.4436	65535	64682.55
802.5076	274.6601	65535	64679.25
802.6504	276.8759	65535	64684.05
802.7931	279.0913	65535	64680
802.9359	281.3061	65535	64680.5
803.0787	283.5204	65535	64674.95
803.2215	285.7341	65535	64670.05
803.3643	287.9473	65535	64661.65
803.5071	290.16	65535	64661.55
803.6499	292.3721	65535	64671.55
803.7928	294.5837	65535	64666.6
803.9357	296.7947	65535	64673.2
804.0786	299.0052	65535	64672.1
804.2215	301.2152	65535	64663.95
804.3644	303.4246	65535	64672.75
804.5074	305.6334	65535	64671.3
804.6503	307.8418	65535	64669.45
804.7933	310.0495	65535	64666.15
804.9363	312.2568	65535	64665.55
805.0793	314.4635	65535	64661.45
805.2223	316.6696	65535	64662.1
805.3653	318.8752	65535	64659.5
805.5084	321.0802	65535	64661.1
805.6514	323.2847	65535	64657.6
805.7945	325.4887	65535	64660.85
805.9376	327.692	65535	64660.7
806.0807	329.8949	65535	64660.65
806.2238	332.0972	65535	64656.3
806.367	334.2989	65535	64653.6
806.5101	336.5001	65535	64650.15
806.6533	338.7007	65535	64655.2
806.7965	340.9008	65535	64651.15
806.9397	343.1003	65535	64651
807.0829	345.2992	65535	64652.15
807.2261	347.4976	65535	64647.1
807.3693	349.6955	65535	64645.8
807.5126	351.8927	65535	64644.65
807.6559	354.0895	65535	64631.5
807.7991	356.2856	65535	64645.75
807.9424	358.4812	65535	64641.65
808.0857	360.6763	65535	64640
808.2291	362.8707	65535	64642.7
808.3724	365.0646	65535	64642.8
808.5158	367.258	65535	64640.2
808.6591	369.4508	65535	64635.25
808.8025	371.643	65535	64640.8
808.9459	373.8346	65535	64633.8
809.0893	376.0257	65535	64630.1
809.2327	378.2162	65535	64630.75
809.3762	380.4062	65535	64630.05
809.5196	382.5956	65535	64626.75
809.6631	384.7844	65535	64630.75
809.8066	386.9726	65535	64629.2
809.9501	389.1603	65535	64630.4
810.0936	391.3474	65535	64591.8
810.2371	393.5339	65535	64630.95
810.3806	395.7199	65535	64634.6
810.5241	397.9052	65535	64636.9
810.6677	400.09	65535	64642.45
810.8113	402.2743	65535	64641.45
810.9548	404.4579	65535	64642.1
811.0984	406.641	65535	64642.85
811.2421	408.8235	65535	64640.2
811.3857	411.0054	65535	64639.95
811.5293	413.1868	65535	64637.25
811.673	415.3675	65535	64632.95
811.8166	417.5477	65535	64633.1
811.9603	419.7273	65535	64635.15
812.104	421.9064	65535	64627.8
812.2477	424.0848	65535	64629.35
812.3914	426.2627	65535	64629.25
812.5351	428.4399	65535	64626.35
812.6788	430.6166	65535	64619.3
812.8226	432.7928	65535	64620.8
812.9663	434.9683	65535	64626.5
813.1101	437.1432	65535	64622.35
813.2539	439.3176	65535	64631.25
813.3977	441.4914	65535	64634.55
813.5415	443.6645	65535	64627
813.6853	445.8371	65535	64622.7
813.8291	448.0091	65535	64626.7
813.973	450.1806	65535	64626.5
814.1168	452.3514	65535	64632.15
814.2607	454.5216	65535	64624.9
814.4046	456.6913	65535	64625.2
814.5485	458.8603	65535	64627.2
814.6924	461.0288	65535	64633.85
814.8363	463.1967	65535	64629.15
814.9802	465.3639	65535	64628.15
815.1241	467.5306	65535	64626.7
815.2681	469.6967	65535	64632.1
815.412	471.8622	65535	64634.35
815.556	474.0271	65535	64628.55
815.7	476.1914	65535	64622.5
815.844	478.3551	65535	64620.85
815.988	480.5182	65535	64625.5
816.132	482.6807	65535	64634.65
816.276	484.8426	65535	64641.2
816.4201	487.0039	65535	64632.4
816.5641	489.1647	65535	64624.7
816.7082	491.3248	65535	64623.25
816.8522	493.4843	65535	64626.4
816.9963	495.6432	65535	64629.25
817.1404	497.8015	65535	64615.9
817.2845	499.9592	65535	64619.9
817.4286	502.1163	65535	64618.55
817.5727	504.2728	65535	64622.45
817.7168	506.4287	65535	64631.95
817.861	508.5839	65535	64630.7
818.0051	510.7386	65535	64623.3
818.1493	512.8927	65535	64614.05
818.2935	515.0461	65535	64625
818.4377	517.199	65535	64614.6
818.5818	519.3512	65535	64615.95
818.726	521.5029	65535	64613.45
818.8703	523.6539	65535	64616.3
819.0145	525.8043	65535	64616.1
819.1587	527.9541	65535	64615.15
819.303	530.1033	65535	64612.75
819.4472	532.2519	65535	64617.8
819.5915	534.3999	65535	64614.05
819.7357	536.5472	65535	64617.65
819.88	538.694	65535	64623.9
820.0243	540.8401	65535	64619.9
820.1686	542.9856	65535	64603.95
820.3129	545.1305	65535	64602.95
820.4572	547.2748	65535	64598.4
820.6016	549.4185	65535	64600.3
820.7459	551.5615	65535	64598.45
820.8902	553.704	65535	64601.15
821.0346	555.8458	65535	64606.45
821.1789	557.987	65535	64606.25
821.3233	560.1276	65535	64603.35
821.4677	562.2675	65535	64605.45
821.6121	564.4069	65535	64602.5
821.7565	566.5456	65535	64608.6
821.9009	568.6837	65535	64609.3
822.0453	570.8212	65535	64610.1
822.1897	572.958	65535	64608.95
822.3342	575.0942	65535	64613.9
822.4786	577.2299	65535	64615.55
822.6231	579.3648	65535	64626.95
822.7675	581.4992	65535	64631.95
822.912	583.6329	65535	64635.7
823.0565	585.766	65535	64631.8
823.201	587.8985	65535	64627.5
823.3454	590.0304	65535	64604.15
823.4899	592.1616	65535	64608.2
823.6345	594.2922	65535	64604.1
823.779	596.4222	65535	64604.45
823.9235	598.5515	65535	64602.85
824.068	600.6802	65535	64601.3
824.2126	602.8083	65535	64606
824.3571	604.9358	65535	64606.7
824.5017	607.0626	65535	64599.55
824.6462	609.1888	65535	64596.3
824.7908	611.3144	65535	64594.6
824.9354	613.4393	65535	64595.85
825.08	615.5636	65535	64598.4
825.2246	617.6873	65535	64599.05
825.3692	619.8103	65535	64597
825.5138	621.9327	65535	64603.4
825.6584	624.0544	65535	64609.9
825.803	626.1756	65535	64604.5
825.9477	628.2961	65535	64602.75
826.0923	630.4159	65535	64601.8
826.237	632.5351	65535	64604.05
826.3816	634.6537	65535	64600
826.5263	636.7716	65535	64593.75
826.6709	638.8889	65535	64592.95
826.8156	641.0056	65535	64591.9
826.9603	643.1216	65535	64596.95
827.105	645.237	65535	64595.9
827.2497	647.3518	65535	64606.4
827.3944	649.4659	65535	64607.45
827.5391	651.5793	65535	64608.4
827.6838	653.6922	65535	64604.35
827.8285	655.8043	65535	64603.15
827.9733	657.9159	65535	64605.75
828.118	660.0268	65535	64601.95
828.2627	662.137	65535	64597.95
828.4075	664.2466	65535	64592.85
828.5522	666.3556	65535	64597.15
828.697	668.4639	65535	64599.45
828.8418	670.5716	65535	64607.95
828.9865	672.6786	65535	64594.65
829.1313	674.785	65535	64592.9
829.2761	676.8907	65535	64600.15
829.4209	678.9958	65535	64606.4
829.5657	681.1002	65535	64597.3
829.7105	683.204	65535	64586.75
829.8553	685.3072	65535	64593.3
830.0001	687.4097	65535	64591.85
830.1449	689.5115	65533.75	64588.6
830.2898	691.6127	65535	64597.9
830.4346	693.7132	65533.95	64595.55
830.5794	695.8131	65533.35	64574.65
830.7243	697.9123	65535	64590.9
830.8691	700.0109	65535	64590.25
831.014	702.1089	65524.3	64581.45
831.1588	704.2061	65527.9	64583.95
831.3037	706.3028	65528.3	64587.25
831.4486	708.3987	65532.6	64588.4
831.5935	710.4941	65528.15	64586.35
831.7383	712.5887	65535	64598.3
831.8832	714.6827	65528.1	64582.05
832.0281	716.7761	65535	64600.5
832.173	718.8688	65535	64593.25
832.3179	720.9608	65535	64587.45
832.4628	723.0522	65531	64578.35
832.6077	725.1429	65520.8	64577.55
832.7527	727.233	65535	64592.15
832.8976	729.3224	65457.6	64514.15
833.0425	731.4112	65517.7	64574.95
833.1874	733.4993	65514.75	64573.65
833.3324	735.5867	65518.35	64574.8
833.4773	737.6735	65466.9	64523.9
833.6222	739.7596	65421.55	64478.95
833.7672	741.845	65412.75	64470.75
833.9122	743.9298	65501.75	64556.15
834.0571	746.014	65408.35	64463.2
834.2021	748.0974	65326.55	64380.8
834.347	750.1802	65451.95	64504.05
834.492	752.2624	65297.4	64348
834.637	754.3439	65329.3	64376.85
834.782	756.4247	65382.8	64426.4
834.9269	758.5048	65302.85	64358.65
835.0719	760.5843	65350.3	64400.95
835.2169	762.6631	65396.15	64448.25
835.3619	764.7413	65382.25	64438.9
835.5069	766.8188	65405.3	64456.25
835.6519	768.8956	65477.6	64531.95
835.7969	770.9718	65469.4	64523.6
835.9419	773.0473	65447	64495.6
836.0869	775.1221	65299.05	64352.65
836.232	777.1962	65287.65	64341.25
836.377	779.2697	65016.85	64068.8
836.522	781.3426	65233	64275.25
836.667	783.4147	65310.1	64358.65
836.8121	785.4862	65312.6	64364.6
836.9571	787.557	65032.5	64082.35
837.1021	789.6271	65265.95	64317.1
837.2472	791.6966	64995.6	64045.95
837.3922	793.7654	64335.15	63384.95
837.5373	795.8335	64390.95	63443.6
837.6823	797.901	64535.45	63586.75
837.8274	799.9678	64205.7	63254.4
837.9724	802.0339	64081.65	63134.05
838.1175	804.0993	64166.8	63209.6
838.2626	806.1641	63887.3	62938
838.4076	808.2282	63709.1	62757.1
838.5527	810.2916	63470.95	62519.4
838.6978	812.3544	63982.85	63037.1
838.8428	814.4164	63046.65	62099.8
838.9879	816.4778	63114.45	62163.5
839.133	818.5385	63175.7	62225.65
839.2781	820.5986	63092.2	62143.95
839.4232	822.658	63171.15	62220.35
839.5682	824.7166	63202.15	62256.5
839.7133	826.7747	62390.95	61438.65
839.8584	828.832	62741.8	61789.45
840.0035	830.8886	63181.6	62228.35
840.1486	832.9446	63196.4	62240.1
840.2937	834.9999	61995.1	61043.3
840.4388	837.0545	62672.1	61716.25
840.5839	839.1085	63155.6	62201.55
840.729	841.1618	62845.8	61891.7
840.8741	843.2143	61973.05	61022.55
841.0192	845.2662	61951.7	60999.3
841.1643	847.3175	62217.5	61266.45
841.3095	849.368	61087.3	60136.3
841.4546	851.4179	61897.8	60945.2
841.5997	853.467	61115.75	60164.7
841.7448	855.5155	61419.6	60469.55
841.8899	857.5633	60667.6	59716.75
842.0351	859.6105	60293.3	59342.05
842.1802	861.6569	60702.7	59751.9
842.3253	863.7027	59896	58940.8
842.4704	865.7478	60126.25	59174.05
842.6156	867.7922	59920.15	58964.95
842.7607	869.8359	60459.05	59504.9
842.9058	871.8789	59559.05	58605.25
843.0509	873.9212	60150.75	59165.6
843.1961	875.9629	60193.5	59241.3
843.3412	878.0039	60137.75	59185.4
843.4863	880.0441	59830.55	58880.25
843.6315	882.0837	59766.75	58816.4
843.7766	884.1226	59652.5	58698.35
843.9218	886.1609	59468.1	58517.25
844.0669	888.1984	58993.15	58043.85
844.212	890.2352	59524	58573.05
844.3572	892.2714	58632	57673.65
844.5023	894.3069	58879.95	57927.05
844.6475	896.3416	58497.25	57546
844.7926	898.3757	58375.05	57420.85
844.9377	900.4091	57569.65	56614.2
845.0829	902.4418	58492.95	57531.35
845.228	904.4739	57814	56855.95
845.3732	906.5052	57932.9	56977.4
845.5183	908.5358	57487.7	56529.35
845.6635	910.5658	57044.3	56086.6
845.8086	912.595	56988.3	56032.05
845.9538	914.6236	56296.1	55342.25
846.0989	916.6515	57270.25	56315.15
846.2441	918.6786	56061.05	55108.15
846.3892	920.7051	56290.25	55332.7
846.5344	922.7309	56261.6	55307.1
846.6795	924.756	56415.7	55459.75
846.8246	926.7804	56050.4	55095.2
846.9698	928.8041	55417.9	54460.45
847.1149	930.8272	55680.5	54727.25
847.2601	932.8495	55517.05	54560.55
847.4052	934.8711	55004.05	54048.25
847.5504	936.892	54638.7	53680.55
847.6955	938.9123	54490.5	53530.6
847.8407	940.9318	54122.25	53167.55
847.9858	942.9506	53872.8	52917.95
848.131	944.9688	53787.7	52835.3
848.2761	946.9862	53160.05	52205.85
848.4213	949.003	53252.1	52295.55
848.5664	951.019	52732.4	51779.2
848.7115	953.0344	52778.5	51825.45
848.8567	955.0491	52683.75	51730.2
849.0018	957.063	52801.85	51846.9
849.147	959.0763	52851.9	51893.05
849.2921	961.0888	52564.55	51608.05
849.4373	963.1007	52747.9	51796.8
849.5824	965.1119	52676	51728.4
849.7275	967.1223	52412.3	51470.5
849.8727	969.1321	52601.55	51662.2
850.0178	971.1412	52221.9	51274.65
850.1629	973.1495	52041.1	51088.9
850.3081	975.1572	52035.7	51051.65
850.4532	977.1641	51965.05	51012.65
850.5983	979.1704	51757.9	50805.65
850.7435	981.1759	51654.55	50697.2
850.8886	983.1808	51563.7	50609.2
851.0337	985.1849	51532	50569.8
851.1788	987.1884	51565.05	50607.8
851.324	989.1911	51751.7	50795.4
851.4691	991.1932	51487.15	50536.8
851.6142	993.1945	51400.35	50448.85
851.7593	995.1951	51258.85	50301.85
851.9045	997.1951	51074.65	50117.55
852.0496	999.1943	50803.35	49853.35
852.1947	1001.1928	50568.1	49617.95
852.3398	1003.1906	50410.9	49456.35
852.4849	1005.1877	50200.5	49246.25
852.63	1007.1841	49825	48869.25
852.7751	1009.1798	49611.3	48659.05
852.9202	1011.1748	49188.4	48235.25
853.0653	1013.1691	48892.65	47942
853.2104	1015.1627	48421.7	47471.6
853.3555	1017.1556	47959.45	47007.55
853.5006	1019.1477	47834.35	46884.8
853.6457	1021.1392	47463.2	46518.15
853.7908	1023.1299	47229.25	46286.35
853.9359	1025.12	47118.65	46184.95
854.081	1027.1093	46894.1	45964.95
854.2261	1029.0979	46881.6	45952.75
854.3712	1031.0859	46702.2	45775.05
854.5163	1033.0731	46544.5	45605.3
854.6613	1035.0596	46318.25	45376.05
854.8064	1037.0454	45919.95	44972.35
854.9515	1039.0304	45679.9	44733.55
855.0965	1041.0148	45357.15	44404.9
855.2416	1042.9985	45142.05	44191.25
855.3867	1044.9814	45059.45	44112.55
855.5317	1046.9636	44844.9	43894.75
855.6768	1048.9452	44549.75	43605.9
855.8219	1050.926	44467.85	43520.85
855.9669	1052.9061	44335.45	43386.5
856.112	1054.8855	44255.3	43305.05
856.257	1056.8642	44099.35	43149.65
856.4021	1058.8421	44091.15	43136.95
856.5471	1060.8194	43967.05	43015.35
856.6921	1062.7959	43816.4	42868.15
856.8372	1064.7717	43649.2	42699.6
856.9822	1066.7469	43589.4	42641.95
857.1272	1068.7213	43389.55	42438.1
857.2723	1070.695	43289.35	42339.8
857.4173	1072.6679	42995.05	42044.25
857.5623	1074.6402	42889.5	41940.5
857.7073	1076.6117	42806.75	41851.15
857.8523	1078.5826	42797.05	41846.15
857.9973	1080.5527	42639.5	41689.65
858.1423	1082.5221	42665.35	41714.2
858.2873	1084.4908	42827.95	41881.35
858.4323	1086.4587	42927.45	41979.3
858.5773	1088.426	42986	42034.75
858.7223	1090.3925	42782.75	41829.45
858.8673	1092.3584	42655.1	41707.35
859.0123	1094.3235	42217.7	41270.25
859.1573	1096.2879	42013.4	41067.15
859.3022	1098.2515	41802.3	40852.75
859.4472	1100.2145	41726.5	40778.95
859.5922	1102.1767	41671.4	40722.1
859.7371	1104.1382	41666.65	40718.05
859.8821	1106.099	41788.9	40837.45
860.027	1108.0591	41790.95	40840.7
860.172	1110.0185	41829.8	40880.4
860.3169	1111.9771	41771.35	40825.35
860.4619	1113.9351	41340.7	40393.8
860.6068	1115.8923	40818.4	39868.65
860.7517	1117.8488	40424.75	39473.25
860.8967	1119.8045	39892.85	38946.85
861.0416	1121.7596	39766.7	38819.45
861.1865	1123.7139	39499.35	38556.75
861.3314	1125.6675	39439.35	38495.3
861.4763	1127.6204	39471.6	38523.5
861.6212	1129.5726	39375.05	38424.25
861.7661	1131.524	39309.95	38362.65
861.911	1133.4748	39286.6	38342.65
862.0559	1135.4248	39192.65	38245.8
862.2008	1137.3741	39129.35	38183.35
862.3457	1139.3226	39041.55	38093.3
862.4905	1141.2705	38980.95	38032.85
862.6354	1143.2176	38645	37691.6
862.7803	1145.164	38562.55	37613
862.9251	1147.1097	38499.65	37553.75
863.07	1149.0546	38474.65	37527.85
863.2148	1150.9989	38322.55	37376.65
863.3597	1152.9424	38100.2	37153.9
863.5045	1154.8852	37786.7	36839.55
863.6493	1156.8272	37579.8	36633.45
863.7942	1158.7686	37442.15	36488.1
863.939	1160.7092	37253.3	36302.9
864.0838	1162.6491	37029.25	36077.2
864.2286	1164.5883	37092.75	36145.55
864.3734	1166.5267	37068.8	36118.7
864.5182	1168.4644	37139.1	36191.85
864.663	1170.4014	37206.1	36260.85
864.8078	1172.3377	37431.75	36488.85
864.9526	1174.2732	37494.7	36547.1
865.0974	1176.2081	37636.2	36690.65
865.2421	1178.1421	37673.65	36729.05
865.3869	1180.0755	37799.25	36857.35
865.5317	1182.0082	37576.65	36633.85
865.6764	1183.9401	37403.85	36461
865.8212	1185.8713	37110.65	36170.75
865.9659	1187.8017	36807.7	35873.5
866.1106	1189.7315	36488.85	35562.7
866.2554	1191.6605	35979.15	35052.75
866.4001	1193.5888	35711.5	34780.25
866.5448	1195.5163	35545	34608.4
866.6895	1197.4432	35344.75	34403.4
866.8342	1199.3693	35176.3	34237.55
866.9789	1201.2947	34979.35	34034.75
867.1236	1203.2193	34801.7	33857.5
867.2683	1205.1432	34817.35	33873.75
867.413	1207.0664	34706.4	33765.05
867.5576	1208.9889	34681.95	33736.95
867.7023	1210.9106	34671.2	33728.9
867.847	1212.8316	34523.6	33583.65
867.9916	1214.7519	34623.65	33671.95
