Software Version:	3.9.2.0
Unit SN:	10000200
Spectrometer SN:	6960
Date:	3/26/2024 2:49:53 PM
Data Line Index:	25
Spectral Points:	2048
Integration time (ms):	125
Averages:	20
Delay (ms):	30000
Sequence Number:	1
Processing:	dark subtract
Laser Power (mW):	300
Laser Current (mA):	820
Laser Diode Temp (C):	25
Laser Case Temp (C):	28
System Temp (C):	28
Spectrometer Temp (C):	25.9
CCD Temp (C):	0.004
Secondary Temp (C):	20.007
Heatsink Temp (C):	23.422
CCDPCB Temp (C):	37.296
SecondaryPCB Temp (C):	34.873

Wavelength	RamanShift	Raw Counts	Dark Subtracted
787.061	30.1047	626.85	216.15
787.2016	32.3739	640.2	231.6
787.3422	34.6426	652.1	242.25
787.4828	36.9109	668.7	255.75
787.6235	39.1787	686.3	270.7
787.7642	41.4461	716.4	297.35
787.9049	43.7131	738.55	315.1
788.0456	45.9796	759	331.25
788.1863	48.2456	790	360.2
788.3271	50.5112	811.4	376.95
788.4679	52.7764	834.5	397.8
788.6087	55.0411	861.7	420.9
788.7496	57.3054	896.25	452.35
788.8904	59.5692	934.8	485.65
789.0313	61.8326	968.4	516.45
789.1722	64.0955	998.55	541.1
789.3132	66.3579	1052.1	591.7
789.4541	68.6199	1105.35	641.9
789.5951	70.8815	1190.4	721.1
789.7361	73.1426	1394.25	921.9
789.8771	75.4032	1888.2	1411.3
790.0181	77.6634	3095.4	2611.45
790.1592	79.9231	6178.8	5686.05
790.3003	82.1824	13214.35	12703.05
790.4414	84.4412	28756.2	28212.55
790.5825	86.6995	55860.95	55269.35
790.7237	88.9574	65369.6	64737.3
790.8648	91.2148	65535	64871.55
791.006	93.4717	65535	64857.4
791.1472	95.7282	65535	64845
791.2885	97.9842	65535	64838.15
791.4297	100.2398	65535	64830.4
791.571	102.4949	65535	64833.7
791.7123	104.7495	65535	64832.1
791.8536	107.0036	65535	64831.9
791.9949	109.2573	65535	64827.45
792.1363	111.5105	65535	64824.85
792.2777	113.7632	65535	64823.5
792.4191	116.0154	65535	64811.7
792.5605	118.2672	65535	64821.35
792.7019	120.5185	65535	64822.9
792.8434	122.7693	65535	64812.25
792.9849	125.0197	65535	64812.15
793.1264	127.2696	65535	64810.8
793.2679	129.519	65535	64806.55
793.4094	131.7679	65535	64800.05
793.551	134.0163	65535	64799.5
793.6926	136.2642	65535	64790.8
793.8342	138.5117	65535	64791.35
793.9758	140.7587	65535	64791.85
794.1175	143.0052	65535	64792.65
794.2591	145.2512	65535	64792.3
794.4008	147.4967	65535	64786.8
794.5425	149.7417	65535	64788
794.6842	151.9863	65535	64784.6
794.826	154.2304	65535	64779
794.9677	156.4739	65535	64771.3
795.1095	158.717	65535	64773.15
795.2513	160.9596	65535	64766.15
795.3931	163.2017	65535	64768.85
795.535	165.4433	65535	64765.8
795.6768	167.6844	65535	64765.7
795.8187	169.925	65535	64761.5
795.9606	172.1651	65535	64759.65
796.1025	174.4047	65535	64759.5
796.2445	176.6439	65535	64755.55
796.3864	178.8825	65535	64756
796.5284	181.1206	65535	64747.05
796.6704	183.3582	65535	64742.3
796.8124	185.5954	65535	64742.5
796.9544	187.832	65535	64737.55
797.0965	190.0681	65535	64739.45
797.2386	192.3037	65535	64732.2
797.3806	194.5388	65535	64731.1
797.5228	196.7734	65535	64729.65
797.6649	199.0075	65535	64727.15
797.807	201.2411	65535	64724.2
797.9492	203.4742	65535	64723.95
798.0914	205.7068	65535	64722.8
798.2336	207.9389	65535	64717.9
798.3758	210.1704	65535	64716.25
798.518	212.4015	65535	64716.85
798.6603	214.632	65535	64719.25
798.8025	216.862	65535	64733
798.9448	219.0915	65535	64733.65
799.0871	221.3205	65535	64733.45
799.2294	223.549	65535	64737.3
799.3718	225.777	65535	64738.3
799.5141	228.0044	65535	64736.95
799.6565	230.2314	65535	64737.35
799.7989	232.4578	65535	64736.15
799.9413	234.6837	65535	64733.6
800.0837	236.909	65535	64724.5
800.2262	239.1339	65535	64700.05
800.3687	241.3582	65535	64713.5
800.5111	243.582	65535	64684.3
800.6536	245.8053	65535	64702.45
800.7961	248.0281	65535	64708.35
800.9387	250.2503	65535	64696.45
801.0812	252.472	65535	64694.45
801.2238	254.6932	65535	64694.05
801.3664	256.9139	65535	64694.2
801.509	259.134	65535	64691.3
801.6516	261.3536	65535	64687.05
801.7942	263.5727	65535	64690.05
801.9369	265.7912	65535	64689.2
802.0795	268.0092	65535	64689.8
802.2222	270.2267	65535	64684.8
802.3649	272.4436	65535	64684.45
802.5076	274.6601	65535	64680.9
802.6504	276.8759	65535	64683.8
802.7931	279.0913	65535	64680.55
802.9359	281.3061	65535	64680.55
803.0787	283.5204	65535	64680.45
803.2215	285.7341	65535	64677.9
803.3643	287.9473	65535	64663.75
803.5071	290.16	65535	64670.65
803.6499	292.3721	65535	64672.9
803.7928	294.5837	65535	64669.4
803.9357	296.7947	65535	64672.4
804.0786	299.0052	65535	64669.25
804.2215	301.2152	65535	64675.3
804.3644	303.4246	65535	64676.4
804.5074	305.6334	65535	64681.15
804.6503	307.8418	65535	64674.4
804.7933	310.0495	65535	64669.95
804.9363	312.2568	65535	64666.5
805.0793	314.4635	65535	64669.1
805.2223	316.6696	65535	64665.55
805.3653	318.8752	65535	64655.15
805.5084	321.0802	65535	64664.55
805.6514	323.2847	65535	64666.25
805.7945	325.4887	65535	64666
805.9376	327.692	65535	64664.2
806.0807	329.8949	65535	64663.15
806.2238	332.0972	65535	64655.95
806.367	334.2989	65535	64657.1
806.5101	336.5001	65535	64661.1
806.6533	338.7007	65535	64655.55
806.7965	340.9008	65535	64656.45
806.9397	343.1003	65535	64652.35
807.0829	345.2992	65535	64652.8
807.2261	347.4976	65535	64653.7
807.3693	349.6955	65535	64643
807.5126	351.8927	65535	64641.2
807.6559	354.0895	65535	64631.4
807.7991	356.2856	65535	64647.75
807.9424	358.4812	65535	64648.75
808.0857	360.6763	65535	64644.4
808.2291	362.8707	65535	64647.8
808.3724	365.0646	65535	64648.1
808.5158	367.258	65535	64644.5
808.6591	369.4508	65535	64638.35
808.8025	371.643	65535	64638.35
808.9459	373.8346	65535	64635.8
809.0893	376.0257	65535	64632.2
809.2327	378.2162	65535	64632.35
809.3762	380.4062	65535	64633.2
809.5196	382.5956	65535	64636.35
809.6631	384.7844	65535	64632.6
809.8066	386.9726	65535	64631.8
809.9501	389.1603	65535	64638.95
810.0936	391.3474	65535	64591.5
810.2371	393.5339	65535	64637.15
810.3806	395.7199	65535	64642.15
810.5241	397.9052	65535	64641.25
810.6677	400.09	65535	64642.95
810.8113	402.2743	65535	64646.1
810.9548	404.4579	65535	64641.85
811.0984	406.641	65535	64643.45
811.2421	408.8235	65535	64644.5
811.3857	411.0054	65535	64637.9
811.5293	413.1868	65535	64638.1
811.673	415.3675	65535	64636.55
811.8166	417.5477	65535	64635
811.9603	419.7273	65535	64632.9
812.104	421.9064	65535	64629.75
812.2477	424.0848	65535	64637.95
812.3914	426.2627	65535	64627.45
812.5351	428.4399	65535	64629.45
812.6788	430.6166	65535	64623.05
812.8226	432.7928	65535	64624.8
812.9663	434.9683	65535	64624.4
813.1101	437.1432	65535	64625.65
813.2539	439.3176	65535	64628.15
813.3977	441.4914	65535	64636.15
813.5415	443.6645	65535	64630.25
813.6853	445.8371	65535	64627.8
813.8291	448.0091	65535	64622.2
813.973	450.1806	65535	64630.05
814.1168	452.3514	65535	64632.05
814.2607	454.5216	65535	64621.15
814.4046	456.6913	65535	64625.15
814.5485	458.8603	65535	64627.95
814.6924	461.0288	65535	64631.25
814.8363	463.1967	65535	64636.3
814.9802	465.3639	65535	64629
815.1241	467.5306	65535	64627.5
815.2681	469.6967	65535	64634.5
815.412	471.8622	65535	64632.9
815.556	474.0271	65535	64632.7
815.7	476.1914	65535	64622.2
815.844	478.3551	65535	64625.1
815.988	480.5182	65535	64630
816.132	482.6807	65535	64634.2
816.276	484.8426	65535	64644.05
816.4201	487.0039	65535	64635.9
816.5641	489.1647	65535	64626.85
816.7082	491.3248	65535	64628.55
816.8522	493.4843	65535	64630.55
816.9963	495.6432	65535	64630.45
817.1404	497.8015	65535	64623.65
817.2845	499.9592	65535	64617.05
817.4286	502.1163	65535	64617.25
817.5727	504.2728	65535	64626.9
817.7168	506.4287	65535	64634.05
817.861	508.5839	65535	64630.5
818.0051	510.7386	65535	64632.65
818.1493	512.8927	65535	64616.3
818.2935	515.0461	65535	64622
818.4377	517.199	65535	64618.25
818.5818	519.3512	65535	64618.95
818.726	521.5029	65535	64616.85
818.8703	523.6539	65535	64624.2
819.0145	525.8043	65535	64620.5
819.1587	527.9541	65535	64615.25
819.303	530.1033	65535	64619.85
819.4472	532.2519	65535	64613.95
819.5915	534.3999	65535	64616.25
819.7357	536.5472	65535	64619.9
819.88	538.694	65535	64624.2
820.0243	540.8401	65535	64614.45
820.1686	542.9856	65535	64606.25
820.3129	545.1305	65535	64603.25
820.4572	547.2748	65535	64600.05
820.6016	549.4185	65535	64603.95
820.7459	551.5615	65535	64605.75
820.8902	553.704	65535	64601.55
821.0346	555.8458	65535	64607.85
821.1789	557.987	65535	64609.2
821.3233	560.1276	65535	64606.4
821.4677	562.2675	65535	64605.3
821.6121	564.4069	65535	64604.25
821.7565	566.5456	65535	64609.8
821.9009	568.6837	65535	64611.15
822.0453	570.8212	65535	64611.35
822.1897	572.958	65535	64611.7
822.3342	575.0942	65535	64613.7
822.4786	577.2299	65535	64620.45
822.6231	579.3648	65535	64623.5
822.7675	581.4992	65535	64635.15
822.912	583.6329	65535	64637.35
823.0565	585.766	65535	64632
823.201	587.8985	65535	64623.35
823.3454	590.0304	65535	64606.65
823.4899	592.1616	65535	64608.5
823.6345	594.2922	65535	64608
823.779	596.4222	65535	64610.65
823.9235	598.5515	65535	64605.95
824.068	600.6802	65535	64605.6
824.2126	602.8083	65535	64608
824.3571	604.9358	65535	64606.6
824.5017	607.0626	65535	64605.5
824.6462	609.1888	65535	64601.3
824.7908	611.3144	65535	64598.9
824.9354	613.4393	65535	64599.75
825.08	615.5636	65529.75	64590
825.2246	617.6873	65535	64599.75
825.3692	619.8103	65523.3	64593.05
825.5138	621.9327	65535	64601.2
825.6584	624.0544	65535	64607.2
825.803	626.1756	65535	64607.95
825.9477	628.2961	65534.05	64602.15
826.0923	630.4159	65528.35	64596.8
826.237	632.5351	65522.05	64589.8
826.3816	634.6537	65535	64602.95
826.5263	636.7716	65520.45	64584.2
826.6709	638.8889	65529.65	64591.3
826.8156	641.0056	65527.45	64587.9
826.9603	643.1216	65526.8	64590
827.105	645.237	65531.75	64593.6
827.2497	647.3518	65517.8	64587.2
827.3944	649.4659	65524.8	64598.65
827.5391	651.5793	65527.5	64601.35
827.6838	653.6922	65532.75	64606.6
827.8285	655.8043	65481.85	64549.5
827.9733	657.9159	65532.9	64601.15
828.118	660.0268	65401.75	64472.85
828.2627	662.137	65518.85	64588.95
828.4075	664.2466	65520.4	64579.6
828.5522	666.3556	65481.7	64546.95
828.697	668.4639	65520.7	64585.55
828.8418	670.5716	65466.6	64535.1
828.9865	672.6786	65515.5	64580.25
829.1313	674.785	65471.5	64534.05
829.2761	676.8907	65476.8	64543.5
829.4209	678.9958	65505.6	64575.75
829.5657	681.1002	65509.25	64578.4
829.7105	683.204	65454.9	64507.75
829.8553	685.3072	65392.95	64453.6
830.0001	687.4097	65436.4	64500.45
830.1449	689.5115	65376.6	64436
830.2898	691.6127	65461.2	64529.25
830.4346	693.7132	65372.5	64438.05
830.5794	695.8131	65366.15	64408.6
830.7243	697.9123	65389.6	64446.45
830.8691	700.0109	65404.25	64457.4
831.014	702.1089	65302.1	64363.15
831.1588	704.2061	65316.95	64380.3
831.3037	706.3028	65333.2	64388.4
831.4486	708.3987	65360.6	64422.2
831.5935	710.4941	65300.95	64363.05
831.7383	712.5887	65391.4	64452.35
831.8832	714.6827	65345.2	64407
832.0281	716.7761	65435.1	64502
832.173	718.8688	65462.75	64523.2
832.3179	720.9608	65405.9	64461.4
832.4628	723.0522	65392.4	64442.05
832.6077	725.1429	65301.7	64360.35
832.7527	727.233	65466.15	64522.5
832.8976	729.3224	65036.95	64096.45
833.0425	731.4112	65197.75	64259.55
833.1874	733.4993	65192.45	64251.35
833.3324	735.5867	65207.4	64268.4
833.4773	737.6735	65085.8	64140.75
833.6222	739.7596	64920.8	63980.75
833.7672	741.845	64898.8	63956.6
833.9122	743.9298	65141.95	64199.45
834.0571	746.014	64920.4	63978.9
834.2021	748.0974	64747.65	63799.75
834.347	750.1802	65088.8	64142.6
834.492	752.2624	64667	63722.1
834.637	754.3439	64728.3	63783.65
834.782	756.4247	64863.7	63909.9
834.9269	758.5048	64662.25	63720.3
835.0719	760.5843	64754	63808.45
835.2169	762.6631	64870.65	63923.35
835.3619	764.7413	64825.6	63883.5
835.5069	766.8188	64920.8	63976.3
835.6519	768.8956	65090.95	64145.65
835.7969	770.9718	65068.25	64122.5
835.9419	773.0473	64983.25	64037.95
836.0869	775.1221	64653.65	63707.35
836.232	777.1962	64603.1	63655.75
836.377	779.2697	64179.8	63229.3
836.522	781.3426	64504.6	63547.85
836.667	783.4147	64676.8	63729.95
836.8121	785.4862	64667.3	63722.65
836.9571	787.557	64269.2	63320.15
837.1021	789.6271	64585.55	63637.45
837.2472	791.6966	64125.95	63178.3
837.3922	793.7654	63584.5	62637.35
837.5373	795.8335	63539.45	62592.95
837.6823	797.901	63650.5	62704
837.8274	799.9678	63383.85	62435.2
837.9724	802.0339	63310.05	62362.85
838.1175	804.0993	63396.3	62436.25
838.2626	806.1641	63186.1	62241.35
838.4076	808.2282	63063.15	62118.5
838.5527	810.2916	62854.65	61905.75
838.6978	812.3544	63175	62231.4
838.8428	814.4164	62451.6	61504.15
838.9879	816.4778	62513.65	61561.25
839.133	818.5385	62578.2	61628.75
839.2781	820.5986	62426.55	61475.55
839.4232	822.658	62513.85	61563.4
839.5682	824.7166	62584.8	61636.45
839.7133	826.7747	61842.85	60894.15
839.8584	828.832	62168.8	61217.85
840.0035	830.8886	62555.7	61600.45
840.1486	832.9446	62609.25	61659.2
840.2937	834.9999	61421.25	60475.8
840.4388	837.0545	62145.75	61192.85
840.5839	839.1085	62496.4	61546.05
840.729	841.1618	62230.6	61277.85
840.8741	843.2143	61319.85	60368.85
841.0192	845.2662	61315.1	60367.25
841.1643	847.3175	61635.5	60686.55
841.3095	849.368	60428.45	59481.05
841.4546	851.4179	61210.85	60264
841.5997	853.467	60401.75	59450.15
841.7448	855.5155	60686.15	59735.9
841.8899	857.5633	59950.45	59006.45
842.0351	859.6105	59566.8	58616.6
842.1802	861.6569	59868.65	58916.05
842.3253	863.7027	59090.05	58139.45
842.4704	865.7478	59361.25	58412.3
842.6156	867.7922	59180.3	58231.5
842.7607	869.8359	59616.3	58669.15
842.9058	871.8789	58734	57781.45
843.0509	873.9212	59359.6	58377
843.1961	875.9629	59446.25	58493.6
843.3412	878.0039	59354.05	58404.5
843.4863	880.0441	59099.95	58152.9
843.6315	882.0837	58931.05	57978.55
843.7766	884.1226	58901.05	57950.7
843.9218	886.1609	58694.15	57745.3
844.0669	888.1984	58233.4	57288.15
844.212	890.2352	58639.15	57688.7
844.3572	892.2714	57739.75	56786.8
844.5023	894.3069	58022.2	57069.85
844.6475	896.3416	57666	56718.7
844.7926	898.3757	57591.1	56639.5
844.9377	900.4091	56798.85	55843
845.0829	902.4418	57689.8	56731.8
845.228	904.4739	56995.85	56043.05
845.3732	906.5052	57123.85	56169.95
845.5183	908.5358	56683.95	55734.4
845.6635	910.5658	56297.5	55340.9
845.8086	912.595	56208.5	55257
845.9538	914.6236	55519.4	54569.9
846.0989	916.6515	56387.7	55433.3
846.2441	918.6786	55232.85	54278.55
846.3892	920.7051	55516.9	54560.85
846.5344	922.7309	55490.2	54536.4
846.6795	924.756	55572.3	54619.9
846.8246	926.7804	55257.8	54305.2
846.9698	928.8041	54654.05	53703.7
847.1149	930.8272	54978.45	54026.45
847.2601	932.8495	54832.55	53878.65
847.4052	934.8711	54257.7	53302.75
847.5504	936.892	53905.15	52952.4
847.6955	938.9123	53829.1	52875.4
847.8407	940.9318	53346.45	52395.8
847.9858	942.9506	53161.95	52210.5
848.131	944.9688	53040.5	52087.35
848.2761	946.9862	52406.4	51455
848.4213	949.003	52497.45	51545.2
848.5664	951.019	51973.15	51023
848.7115	953.0344	52027.85	51074.85
848.8567	955.0491	51926.95	50972
849.0018	957.063	52143.4	51190.95
849.147	959.0763	52172.25	51213.75
849.2921	961.0888	51886.6	50930.5
849.4373	963.1007	51961.3	51016.25
849.5824	965.1119	51907.1	50963
849.7275	967.1223	51703.15	50763.65
849.8727	969.1321	51838.75	50902.9
850.0178	971.1412	51515.7	50575.65
850.1629	973.1495	51310.85	50362.7
850.3081	975.1572	51436.9	50442.35
850.4532	977.1641	51291.35	50339.2
850.5983	979.1704	51094.35	50142.3
850.7435	981.1759	50945.85	49992
850.8886	983.1808	50802.75	49848.35
851.0337	985.1849	50817.65	49853.4
851.1788	987.1884	50835.55	49883.75
851.324	989.1911	51089.95	50138.55
851.4691	991.1932	50859.5	49908.75
851.6142	993.1945	50782.05	49831.75
851.7593	995.1951	50606.65	49653.05
851.9045	997.1951	50304.2	49341.65
852.0496	999.1943	50073.55	49120.2
852.1947	1001.1928	49815.05	48862.2
852.3398	1003.1906	49678.5	48727.9
852.4849	1005.1877	49479.1	48526.95
852.63	1007.1841	49199.9	48252.65
852.7751	1009.1798	48909.8	47958.7
852.9202	1011.1748	48514.75	47568.5
853.0653	1013.1691	48226.3	47277.15
853.2104	1015.1627	47807.7	46858.65
853.3555	1017.1556	47342.1	46393.6
853.5006	1019.1477	47219.7	46271.2
853.6457	1021.1392	46775.45	45828.9
853.7908	1023.1299	46583.55	45643.55
853.9359	1025.12	46490.8	45555.3
854.081	1027.1093	46248.6	45323.55
854.2261	1029.0979	46153.35	45230.15
854.3712	1031.0859	46034.75	45106.05
854.5163	1033.0731	45896.15	44959.3
854.6613	1035.0596	45667.3	44725.8
854.8064	1037.0454	45270.6	44322.1
854.9515	1039.0304	45044.65	44097.05
855.0965	1041.0148	44711.25	43762.75
855.2416	1042.9985	44495.6	43547.7
855.3867	1044.9814	44409.7	43467.3
855.5317	1046.9636	44199.05	43251.65
855.6768	1048.9452	43953.75	43010.5
855.8219	1050.926	43949.45	43003.3
855.9669	1052.9061	43751.25	42805.75
856.112	1054.8855	43588.25	42643.75
856.257	1056.8642	43565.8	42616.3
856.4021	1058.8421	43499.95	42550.9
856.5471	1060.8194	43349.65	42401.35
856.6921	1062.7959	43219.4	42269.55
856.8372	1064.7717	43136.75	42190.3
856.9822	1066.7469	42990.2	42039.35
857.1272	1068.7213	42800.9	41848.35
857.2723	1070.695	42642.55	41698.1
857.4173	1072.6679	42384.05	41434.2
857.5623	1074.6402	42282.8	41335.7
857.7073	1076.6117	42177.95	41226.2
857.8523	1078.5826	42162.95	41212.65
857.9973	1080.5527	42050.55	41099.9
858.1423	1082.5221	42080.55	41136.9
858.2873	1084.4908	42246.2	41300.25
858.4323	1086.4587	42315	41364.6
858.5773	1088.426	42411.45	41462.95
858.7223	1090.3925	42220.05	41263.85
858.8673	1092.3584	42099.75	41153.15
859.0123	1094.3235	41650.85	40703.55
859.1573	1096.2879	41405.35	40458.55
859.3022	1098.2515	41276.75	40330.6
859.4472	1100.2145	41216.75	40268.95
859.5922	1102.1767	41092.8	40146.55
859.7371	1104.1382	41141.2	40195.1
859.8821	1106.099	41296.2	40350.8
860.027	1108.0591	41337.35	40392
860.172	1110.0185	41358.45	40410.45
860.3169	1111.9771	41311.15	40363.35
860.4619	1113.9351	40815.05	39871.4
860.6068	1115.8923	40323.75	39378.2
860.7517	1117.8488	39876.7	38928.9
860.8967	1119.8045	39408.55	38463.05
861.0416	1121.7596	39205.7	38266.05
861.1865	1123.7139	38943.95	37998.1
861.3314	1125.6675	38855.55	37911.35
861.4763	1127.6204	38962.55	38015.7
861.6212	1129.5726	38832.45	37886.35
861.7661	1131.524	38792.85	37847.95
861.911	1133.4748	38748.1	37802.35
862.0559	1135.4248	38633.05	37683.95
862.2008	1137.3741	38597.8	37654.5
862.3457	1139.3226	38464.3	37516.85
862.4905	1141.2705	38388	37443.75
862.6354	1143.2176	38104.6	37154.75
862.7803	1145.164	38115.25	37165.85
862.9251	1147.1097	38000.55	37054.3
863.07	1149.0546	37956.95	37009.45
863.2148	1150.9989	37841.1	36895.55
863.3597	1152.9424	37621.75	36676.45
863.5045	1154.8852	37348.65	36405
863.6493	1156.8272	37116.45	36171.15
863.7942	1158.7686	36917.5	35962.85
863.939	1160.7092	36764.9	35824.45
864.0838	1162.6491	36585.75	35638.8
864.2286	1164.5883	36625.9	35680.8
864.3734	1166.5267	36563.45	35615.8
864.5182	1168.4644	36634.9	35690.1
864.663	1170.4014	36707	35762
864.8078	1172.3377	36907.45	35967.1
864.9526	1174.2732	37040.65	36096.95
865.0974	1176.2081	37142	36198.1
865.2421	1178.1421	37192.15	36244.35
865.3869	1180.0755	37289.95	36347.2
865.5317	1182.0082	37111.15	36165.45
865.6764	1183.9401	36926.2	35986.7
865.8212	1185.8713	36627.75	35691.55
865.9659	1187.8017	36338.1	35404.85
866.1106	1189.7315	35984.6	35058.6
866.2554	1191.6605	35547.3	34620.6
866.4001	1193.5888	35266.15	34334.55
866.5448	1195.5163	35106.2	34169.9
866.6895	1197.4432	34894.35	33953.55
866.8342	1199.3693	34681.65	33741.8
866.9789	1201.2947	34494.45	33543.4
867.1236	1203.2193	34340.55	33402
867.2683	1205.1432	34324.4	33381
867.413	1207.0664	34264.85	33324
867.5576	1208.9889	34239.95	33297.05
867.7023	1210.9106	34205.9	33265.05
867.847	1212.8316	34166.35	33227.35
