Software Version:	3.9.2.0
Unit SN:	10000200
Spectrometer SN:	6960
Date:	3/26/2024 1:38:41 PM
Data Line Index:	25
Spectral Points:	2048
Integration time (ms):	125
Averages:	20
Delay (ms):	30000
Sequence Number:	1
Processing:	dark subtract
Laser Power (mW):	300
Laser Current (mA):	819
Laser Diode Temp (C):	25
Laser Case Temp (C):	27.1
System Temp (C):	27
Spectrometer Temp (C):	24.9
CCD Temp (C):	0.009
Secondary Temp (C):	20.011
Heatsink Temp (C):	22.708
CCDPCB Temp (C):	36.774
SecondaryPCB Temp (C):	34.239

Wavelength	RamanShift	Raw Counts	Dark Subtracted
787.061	30.1047	616.75	207.15
787.2016	32.3739	626.15	218.2
787.3422	34.6426	642	231.95
787.4828	36.9109	656.75	243.6
787.6235	39.1787	674.75	257.55
787.7642	41.4461	700.7	279
787.9049	43.7131	724.3	301.25
788.0456	45.9796	743.55	315.95
788.1863	48.2456	757.65	324.85
788.3271	50.5112	789.45	350.7
788.4679	52.7764	812.65	375.65
788.6087	55.0411	840.15	399.55
788.7496	57.3054	867.85	421.6
788.8904	59.5692	894.45	446.95
789.0313	61.8326	928.85	477.15
789.1722	64.0955	964.9	506.4
789.3132	66.3579	1011	549.65
789.4541	68.6199	1060.6	595.5
789.5951	70.8815	1146.95	681.55
789.7361	73.1426	1338.55	864.7
789.8771	75.4032	1823.05	1345.4
790.0181	77.6634	3054.65	2570.5
790.1592	79.9231	6095.95	5604.35
790.3003	82.1824	12988.8	12478.4
790.4414	84.4412	27673.15	27136.2
790.5825	86.6995	52094	51516.55
790.7237	88.9574	62719.05	62105.3
790.8648	91.2148	64879.1	64238.85
791.006	93.4717	65089.25	64436.45
791.1472	95.7282	65194.75	64533.15
791.2885	97.9842	65244.4	64575.15
791.4297	100.2398	65208	64535.9
791.571	102.4949	65203.15	64526.65
791.7123	104.7495	65161.35	64484.9
791.8536	107.0036	65099.65	64423.25
791.9949	109.2573	65142.9	64465.6
792.1363	111.5105	65078.9	64402.65
792.2777	113.7632	65070.65	64393.45
792.4191	116.0154	65090.8	64397.65
792.5605	118.2672	65124.8	64437.95
792.7019	120.5185	65112.05	64423.6
792.8434	122.7693	65104.4	64417.65
792.9849	125.0197	65003.6	64312.7
793.1264	127.2696	65161.3	64470.5
793.2679	129.519	65105.55	64410.35
793.4094	131.7679	65166.7	64465
793.551	134.0163	65009.2	64306.3
793.6926	136.2642	65055.75	64346.6
793.8342	138.5117	65142.5	64423.2
793.9758	140.7587	65098.4	64382.55
794.1175	143.0052	65082	64363.1
794.2591	145.2512	64992.75	64281.9
794.4008	147.4967	65077.9	64360.15
794.5425	149.7417	65047.45	64324.7
794.6842	151.9863	65037.05	64316.55
794.826	154.2304	64987.55	64260.55
794.9677	156.4739	65008.3	64275.25
795.1095	158.717	65077.65	64345.75
795.2513	160.9596	65014.6	64279.45
795.3931	163.2017	64923.4	64185.75
795.535	165.4433	65001	64261.25
795.6768	167.6844	64935.7	64195.35
795.8187	169.925	64975.5	64229.35
795.9606	172.1651	64921.95	64176.1
796.1025	174.4047	64959.6	64211
796.2445	176.6439	64924.95	64176.55
796.3864	178.8825	64883.8	64131
796.5284	181.1206	64961.2	64201.75
796.6704	183.3582	64943.85	64178.35
796.8124	185.5954	64916.9	64153.1
796.9544	187.832	64900.1	64129.15
797.0965	190.0681	64843.3	64075.35
797.2386	192.3037	64953.4	64180.25
797.3806	194.5388	65070.8	64290.95
797.5228	196.7734	64796.8	64015.6
797.6649	199.0075	65038.25	64254.95
797.807	201.2411	64937.6	64152.9
797.9492	203.4742	65094.8	64304.05
798.0914	205.7068	65044.2	64255.3
798.2336	207.9389	65033.1	64247.05
798.3758	210.1704	65027.1	64235.55
798.518	212.4015	65121.1	64331.8
798.6603	214.632	64995.85	64205.3
798.8025	216.862	65137.9	64352.15
798.9448	219.0915	65065.55	64291.55
799.0871	221.3205	65045.1	64268.5
799.2294	223.549	65153.4	64377.35
799.3718	225.777	65146.45	64376.15
799.5141	228.0044	65200.2	64423
799.6565	230.2314	65151.4	64382.85
799.7989	232.4578	65159.2	64389.75
799.9413	234.6837	65184.85	64409.4
800.0837	236.909	65298.1	64519.5
800.2262	239.1339	65099.1	64292.6
800.3687	241.3582	65205.1	64408.45
800.5111	243.582	65206.75	64385.65
800.6536	245.8053	65188.15	64378.45
800.7961	248.0281	65198.65	64395.2
800.9387	250.2503	65219.25	64409.15
801.0812	252.472	65138.15	64323.3
801.2238	254.6932	65198.15	64379.65
801.3664	256.9139	65179.7	64363.5
801.509	259.134	65294.2	64474.1
801.6516	261.3536	65186.65	64367.05
801.7942	263.5727	65245.4	64418.05
801.9369	265.7912	65213.5	64390.75
802.0795	268.0092	65237.4	64416.3
802.2222	270.2267	65255.7	64428.55
802.3649	272.4436	65203.5	64379.35
802.5076	274.6601	65255.35	64424
802.6504	276.8759	65276.8	64452.05
802.7931	279.0913	65230.7	64404
802.9359	281.3061	65253.3	64423.65
803.0787	283.5204	65246.2	64412.55
803.2215	285.7341	65238.15	64400.45
803.3643	287.9473	65290	64440.5
803.5071	290.16	65251.35	64405.85
803.6499	292.3721	65266.7	64426.7
803.7928	294.5837	65237.35	64399.35
803.9357	296.7947	65207.95	64367.9
804.0786	299.0052	65291.15	64453.2
804.2215	301.2152	65255.85	64415.55
804.3644	303.4246	65280.45	64445
804.5074	305.6334	65266.7	64431.4
804.6503	307.8418	65202.65	64360.95
804.7933	310.0495	65183.45	64342.7
804.9363	312.2568	65176.25	64329.2
805.0793	314.4635	65177.45	64330.3
805.2223	316.6696	65193.4	64349.75
805.3653	318.8752	65219.25	64359.4
805.5084	321.0802	65057.85	64207.3
805.6514	323.2847	65146.8	64294.35
805.7945	325.4887	65134.45	64284
805.9376	327.692	65103.6	64251.05
806.0807	329.8949	65134.5	64282.2
806.2238	332.0972	65082.6	64229.3
806.367	334.2989	65121.1	64261.9
806.5101	336.5001	65172.45	64313.9
806.6533	338.7007	65002.25	64137.8
806.7965	340.9008	65079.9	64217.15
806.9397	343.1003	65091.8	64228.85
807.0829	345.2992	65145.1	64281.95
807.2261	347.4976	65044.65	64179.45
807.3693	349.6955	65078.25	64211.8
807.5126	351.8927	65016.35	64146.5
807.6559	354.0895	65082.5	64205.5
807.7991	356.2856	65074.35	64203
807.9424	358.4812	65138.75	64269.95
808.0857	360.6763	65014.25	64140.2
808.2291	362.8707	65135.45	64262.85
808.3724	365.0646	65052	64178.15
808.5158	367.258	65062.95	64190.4
808.6591	369.4508	65002.45	64123.25
808.8025	371.643	65117.95	64240.1
808.9459	373.8346	65051.1	64169.3
809.0893	376.0257	65070.35	64187.6
809.2327	378.2162	65044.65	64162.35
809.3762	380.4062	64946.65	64063.65
809.5196	382.5956	65015.25	64128.05
809.6631	384.7844	64998.35	64113.5
809.8066	386.9726	65044.8	64157.85
809.9501	389.1603	65027.7	64142.75
810.0936	391.3474	64946.9	64021.15
810.2371	393.5339	65015.2	64128.45
810.3806	395.7199	64901.3	64020.6
810.5241	397.9052	64925.6	64050.65
810.6677	400.09	64967.35	64090.6
810.8113	402.2743	65050.4	64175.9
810.9548	404.4579	64950.1	64077.1
811.0984	406.641	64967.5	64088.1
811.2421	408.8235	65013.65	64140.8
811.3857	411.0054	65019.8	64143.3
811.5293	413.1868	65032.85	64151.6
811.673	415.3675	65002.45	64119.7
811.8166	417.5477	65004.25	64119.2
811.9603	419.7273	65013.15	64128.6
812.104	421.9064	64995.45	64104.8
812.2477	424.0848	65002	64115.25
812.3914	426.2627	65050.55	64156.15
812.5351	428.4399	64915.35	64024.45
812.6788	430.6166	64840.45	63946.35
812.8226	432.7928	64934.2	64040.3
812.9663	434.9683	64845.45	63955.5
813.1101	437.1432	64833.35	63944.75
813.2539	439.3176	64898.75	64011
813.3977	441.4914	64769.45	63881.25
813.5415	443.6645	64784.8	63891.75
813.6853	445.8371	64788.55	63897.9
813.8291	448.0091	64748.5	63851.3
813.973	450.1806	64709.25	63818.85
814.1168	452.3514	64741.3	63851.4
814.2607	454.5216	64670	63770.55
814.4046	456.6913	64736.45	63842.8
814.5485	458.8603	64753.4	63861.15
814.6924	461.0288	64669.55	63780.3
814.8363	463.1967	64760.75	63876.4
814.9802	465.3639	64745.55	63856.4
815.1241	467.5306	64558.25	63664.3
815.2681	469.6967	64677.15	63785.65
815.412	471.8622	64714.45	63823.95
815.556	474.0271	64672.25	63780.85
815.7	476.1914	64680	63780.5
815.844	478.3551	64702.1	63805.8
815.988	480.5182	64762.65	63870.3
816.132	482.6807	64662.95	63779.7
816.276	484.8426	64681.5	63801.6
816.4201	487.0039	64807.15	63919.1
816.5641	489.1647	64812.65	63918.6
816.7082	491.3248	64686.85	63793.3
816.8522	493.4843	64827.1	63935.65
816.9963	495.6432	64822.9	63930.7
817.1404	497.8015	64682.15	63777.75
817.2845	499.9592	64764.75	63858.35
817.4286	502.1163	64752.75	63848.7
817.5727	504.2728	64704.45	63806.5
817.7168	506.4287	64683.65	63797.75
817.861	508.5839	64605.3	63715
818.0051	510.7386	64654.45	63759.7
818.1493	512.8927	64656.2	63748.9
818.2935	515.0461	64628.6	63729.8
818.4377	517.199	64700.1	63798.4
818.5818	519.3512	64649.5	63741.1
818.726	521.5029	64645.75	63739.95
818.8703	523.6539	64668.1	63762.55
819.0145	525.8043	64558.65	63654.55
819.1587	527.9541	64676.7	63767.95
819.303	530.1033	64645.65	63738.9
819.4472	532.2519	64575.25	63669.3
819.5915	534.3999	64665.35	63757
819.7357	536.5472	64716.75	63813.55
819.88	538.694	64552.65	63650
820.0243	540.8401	64666.4	63763.2
820.1686	542.9856	64690.65	63774.5
820.3129	545.1305	64730.05	63806.7
820.4572	547.2748	64625.95	63700.45
820.6016	549.4185	64622.1	63696.5
820.7459	551.5615	64690.85	63764.9
820.8902	553.704	64652.95	63731.2
821.0346	555.8458	64592.75	63675.5
821.1789	557.987	64641.6	63727.65
821.3233	560.1276	64671.95	63755.15
821.4677	562.2675	64649.8	63728.25
821.6121	564.4069	64699.75	63776.35
821.7565	566.5456	64764.75	63845.8
821.9009	568.6837	64677.3	63761.65
822.0453	570.8212	64687.95	63774.45
822.1897	572.958	64503.2	63586.5
822.3342	575.0942	64602.15	63688.15
822.4786	577.2299	64460.85	63552.9
822.6231	579.3648	64428.6	63529.4
822.7675	581.4992	64398.8	63506.55
822.912	583.6329	64389.15	63499.75
823.0565	585.766	64421.5	63524.35
823.201	587.8985	64458.25	63559.95
823.3454	590.0304	64263	63329.55
823.4899	592.1616	64407	63489.1
823.6345	594.2922	64307.25	63389.3
823.779	596.4222	64167.15	63246.9
823.9235	598.5515	64194.4	63266.2
824.068	600.6802	64260.85	63337.9
824.2126	602.8083	64082.45	63164.4
824.3571	604.9358	64085.15	63165.35
824.5017	607.0626	64237.35	63313.65
824.6462	609.1888	63986.05	63058.55
824.7908	611.3144	64148.25	63219.85
824.9354	613.4393	64067.85	63136.2
825.08	615.5636	63971.55	63049.45
825.2246	617.6873	64089.6	63162.8
825.3692	619.8103	63904.9	62976.85
825.5138	621.9327	64095.7	63170.5
825.6584	624.0544	64084.4	63166.5
825.803	626.1756	63948.35	63031.05
825.9477	628.2961	63947.35	63022.5
826.0923	630.4159	63856.5	62933.6
826.237	632.5351	63814.65	62889.1
826.3816	634.6537	64074.95	63146.15
826.5263	636.7716	63738.6	62807.35
826.6709	638.8889	63852.8	62919.85
826.8156	641.0056	63838.7	62906.3
826.9603	643.1216	63878.05	62945.85
827.105	645.237	63920.05	62985.7
827.2497	647.3518	63720.05	62795
827.3944	649.4659	63789.15	62868.7
827.5391	651.5793	63806.6	62883.7
827.6838	653.6922	63869.65	62946.35
827.8285	655.8043	63569.75	62646.45
827.9733	657.9159	63923.4	63002.1
828.118	660.0268	63290.4	62364.85
828.2627	662.137	63691.1	62761.7
828.4075	664.2466	63714.1	62780.95
828.5522	666.3556	63613.65	62677.4
828.697	668.4639	63707.55	62775.9
828.8418	670.5716	63498.2	62574.75
828.9865	672.6786	63658.5	62727.35
829.1313	674.785	63418.2	62484.75
829.2761	676.8907	63447.25	62517.75
829.4209	678.9958	63554.2	62626.9
829.5657	681.1002	63601.6	62671.95
829.7105	683.204	63394.2	62453.15
829.8553	685.3072	63261.1	62321
830.0001	687.4097	63348.9	62416.85
830.1449	689.5115	63244.25	62308.45
830.2898	691.6127	63456.55	62526.95
830.4346	693.7132	63248.95	62317.55
830.5794	695.8131	63287.4	62343.35
830.7243	697.9123	63354.75	62415.7
830.8691	700.0109	63371.1	62430.75
831.014	702.1089	63087.75	62154.25
831.1588	704.2061	63155.5	62216.65
831.3037	706.3028	63210.8	62276.7
831.4486	708.3987	63249.35	62310.05
831.5935	710.4941	63145.5	62209.7
831.7383	712.5887	63294.55	62361.1
831.8832	714.6827	63178	62239.95
832.0281	716.7761	63307.6	62378.9
832.173	718.8688	63352.35	62419.55
832.3179	720.9608	63202.85	62260.1
832.4628	723.0522	63255.25	62311.2
832.6077	725.1429	63124.1	62183.15
832.7527	727.233	63579.7	62639.25
832.8976	729.3224	62787.65	61851.55
833.0425	731.4112	63110.25	62174.45
833.1874	733.4993	63066.2	62125.55
833.3324	735.5867	63042.4	62106.95
833.4773	737.6735	62809.8	61867.9
833.6222	739.7596	62588.2	61649.2
833.7672	741.845	62549.65	61608.85
833.9122	743.9298	62846.5	61903.65
834.0571	746.014	62526.8	61583.05
834.2021	748.0974	62292.05	61346.65
834.347	750.1802	62752.75	61810.75
834.492	752.2624	62213.8	61268.65
834.637	754.3439	62299.6	61356.15
834.782	756.4247	62442.2	61491
834.9269	758.5048	62209.7	61264.9
835.0719	760.5843	62382.95	61435.45
835.2169	762.6631	62520.15	61575.2
835.3619	764.7413	62514.25	61566.35
835.5069	766.8188	62693	61746.75
835.6519	768.8956	62909.6	61967.35
835.7969	770.9718	62940.3	61997.65
835.9419	773.0473	62844.75	61899.95
836.0869	775.1221	62557.75	61613.95
836.232	777.1962	62509.2	61566.95
836.377	779.2697	62157.9	61210.7
836.522	781.3426	62381.9	61422.9
836.667	783.4147	62450.5	61501.35
836.8121	785.4862	62405.45	61461.3
836.9571	787.557	62071.7	61122.2
837.1021	789.6271	62283.6	61338.45
837.2472	791.6966	61868.3	60919.25
837.3922	793.7654	61369.95	60422.45
837.5373	795.8335	61339.7	60393.45
837.6823	797.901	61411.2	60466.9
837.8274	799.9678	61146.6	60196.3
837.9724	802.0339	60993.55	60047.35
838.1175	804.0993	61031.3	60066.75
838.2626	806.1641	60824	59875.55
838.4076	808.2282	60676.95	59731.6
838.5527	810.2916	60611.8	59661.85
838.6978	812.3544	60841.8	59895.05
838.8428	814.4164	60308.3	59364
838.9879	816.4778	60405.8	59454.8
839.133	818.5385	60463.9	59515.7
839.2781	820.5986	60463.15	59513.55
839.4232	822.658	60594.25	59643.85
839.5682	824.7166	60782.8	59835.25
839.7133	826.7747	60528.05	59581.6
839.8584	828.832	60883.95	59935.35
840.0035	830.8886	61205.7	60257
840.1486	832.9446	61253	60297.8
840.2937	834.9999	60358.25	59408.75
840.4388	837.0545	60656	59706.1
840.5839	839.1085	60708.15	59757.35
840.729	841.1618	60408.75	59452.8
840.8741	843.2143	59766.35	58817.9
841.0192	845.2662	59717.45	58768.25
841.1643	847.3175	59923.15	58971.35
841.3095	849.368	59193	58243.8
841.4546	851.4179	59678.1	58726.75
841.5997	853.467	59183.7	58235.25
841.7448	855.5155	59466.15	58514.1
841.8899	857.5633	59010.9	58059.55
842.0351	859.6105	58771.15	57820.9
842.1802	861.6569	58986.5	58030.5
842.3253	863.7027	58389.7	57436.8
842.4704	865.7478	58597.3	57644.7
842.6156	867.7922	58457.15	57506.45
842.7607	869.8359	58774.25	57822.35
842.9058	871.8789	58078.9	57126.1
843.0509	873.9212	58410.5	57428.65
843.1961	875.9629	58464	57509.55
843.3412	878.0039	58393	57439.9
843.4863	880.0441	58227.1	57274.8
843.6315	882.0837	58209.2	57257.4
843.7766	884.1226	58218.2	57268.1
843.9218	886.1609	58236.15	57287.7
844.0669	888.1984	58022.35	57070.65
844.212	890.2352	58535.85	57587.65
844.3572	892.2714	57912.55	56954.85
844.5023	894.3069	58147.15	57194.85
844.6475	896.3416	57766.5	56813.3
844.7926	898.3757	57657.5	56704.7
844.9377	900.4091	56920.8	55965.45
845.0829	902.4418	57725.6	56763.9
845.228	904.4739	57216.6	56258.55
845.3732	906.5052	57365.85	56410.05
845.5183	908.5358	57086.3	56129.9
845.6635	910.5658	56847.5	55890.7
845.8086	912.595	56688.9	55733
845.9538	914.6236	55940.7	54984.1
846.0989	916.6515	56834.05	55880.9
846.2441	918.6786	55674.65	54720.15
846.3892	920.7051	55906.5	54949.45
846.5344	922.7309	55781.4	54827.25
846.6795	924.756	55926.45	54969.25
846.8246	926.7804	55647.2	54687.95
846.9698	928.8041	55019.6	54065.65
847.1149	930.8272	55500.65	54545.6
847.2601	932.8495	55413.35	54457.7
847.4052	934.8711	54948.85	53990
847.5504	936.892	54663.8	53707
847.6955	938.9123	54828.8	53873.35
847.8407	940.9318	54583.55	53629.4
847.9858	942.9506	54458.5	53505.6
848.131	944.9688	54513.7	53561.2
848.2761	946.9862	53781.25	52827
848.4213	949.003	53884.6	52928.6
848.5664	951.019	53210.25	52255.45
848.7115	953.0344	53288.25	52331.65
848.8567	955.0491	53169.65	52214.8
849.0018	957.063	53303.9	52350.15
849.147	959.0763	53407.6	52445.6
849.2921	961.0888	53022	52068.9
849.4373	963.1007	53296.85	52344
849.5824	965.1119	53201.6	52258.3
849.7275	967.1223	52954	52013.55
849.8727	969.1321	53239.55	52297.15
850.0178	971.1412	52712.15	51766.6
850.1629	973.1495	52466	51515.1
850.3081	975.1572	52607.4	51635.35
850.4532	977.1641	52487.5	51534.45
850.5983	979.1704	52307.9	51353.1
850.7435	981.1759	52243	51288.3
850.8886	983.1808	51991.25	51035
851.0337	985.1849	51953.25	50990.75
851.1788	987.1884	51964.9	51009.5
851.324	989.1911	52226.65	51271.15
851.4691	991.1932	51673.6	50717.85
851.6142	993.1945	51641.9	50690.3
851.7593	995.1951	51575	50623.6
851.9045	997.1951	51354.45	50392.9
852.0496	999.1943	51100.1	50145.6
852.1947	1001.1928	51011.85	50054.7
852.3398	1003.1906	50970.7	50014.7
852.4849	1005.1877	50695.85	49739.7
852.63	1007.1841	50532.85	49583.8
852.7751	1009.1798	50415.35	49462.7
852.9202	1011.1748	50272	49320.85
853.0653	1013.1691	50075.75	49122.45
853.2104	1015.1627	49423	48468.05
853.3555	1017.1556	49152.35	48194.9
853.5006	1019.1477	49115.2	48162.45
853.6457	1021.1392	48645.8	47701.85
853.7908	1023.1299	48286.35	47342.2
853.9359	1025.12	48341.65	47402.8
854.081	1027.1093	48088.15	47160.05
854.2261	1029.0979	48063.1	47134.2
854.3712	1031.0859	48054.6	47118.95
854.5163	1033.0731	47766.2	46825.65
854.6613	1035.0596	47644.05	46698
854.8064	1037.0454	47402.4	46454.45
854.9515	1039.0304	47142.6	46192.35
855.0965	1041.0148	46764	45812.95
855.2416	1042.9985	46633.4	45685
855.3867	1044.9814	46627.4	45682.8
855.5317	1046.9636	46346.55	45395.9
855.6768	1048.9452	46147.3	45198.25
855.8219	1050.926	46159.1	45210.65
855.9669	1052.9061	46102.15	45155.1
856.112	1054.8855	45998.1	45042.7
856.257	1056.8642	45835.45	44884.8
856.4021	1058.8421	45841.8	44884.6
856.5471	1060.8194	45752.95	44798.55
856.6921	1062.7959	45690.25	44739.75
856.8372	1064.7717	45578.55	44626.8
856.9822	1066.7469	45539	44587.25
857.1272	1068.7213	45559.75	44608.4
857.2723	1070.695	45480.4	44528.5
857.4173	1072.6679	45248.9	44298.4
857.5623	1074.6402	45260.85	44309.6
857.7073	1076.6117	45112.6	44156.25
857.8523	1078.5826	44968.7	44014.5
857.9973	1080.5527	44786.7	43831
858.1423	1082.5221	44574.4	43622.95
858.2873	1084.4908	44553.75	43605.45
858.4323	1086.4587	44407	43457.55
858.5773	1088.426	44423.9	43474.95
858.7223	1090.3925	44249.75	43295.8
858.8673	1092.3584	44219.4	43273.1
859.0123	1094.3235	43960.15	43010.65
859.1573	1096.2879	43899.3	42949.05
859.3022	1098.2515	43926.35	42979.9
859.4472	1100.2145	44011.15	43060.1
859.5922	1102.1767	43998.3	43050.05
859.7371	1104.1382	44055.7	43107.05
859.8821	1106.099	44202.85	43251.5
860.027	1108.0591	44223.9	43275.3
860.172	1110.0185	44175.05	43220.8
860.3169	1111.9771	44247.45	43297.45
860.4619	1113.9351	43976.7	43026.1
860.6068	1115.8923	43687.45	42737.9
860.7517	1117.8488	43393.65	42442.05
860.8967	1119.8045	43042.3	42090.35
861.0416	1121.7596	42984.15	42037.15
861.1865	1123.7139	42655.6	41704.9
861.3314	1125.6675	42597.5	41650.2
861.4763	1127.6204	42638.75	41692.25
861.6212	1129.5726	42460.6	41510.8
861.7661	1131.524	42299.35	41349.5
861.911	1133.4748	42188.35	41239.85
862.0559	1135.4248	41872.6	40925.7
862.2008	1137.3741	41723.1	40772.85
862.3457	1139.3226	41530.45	40578.9
862.4905	1141.2705	41485.4	40534.65
862.6354	1143.2176	41151.95	40196.55
862.7803	1145.164	41094.45	40141.65
862.9251	1147.1097	40969.4	40018.4
863.07	1149.0546	40838.8	39889.4
863.2148	1150.9989	40727.95	39781.4
863.3597	1152.9424	40603.2	39653.65
863.5045	1154.8852	40376.55	39426.15
863.6493	1156.8272	40274.6	39326.2
863.7942	1158.7686	40302.05	39346.2
863.939	1160.7092	40119.9	39172.2
864.0838	1162.6491	39971	39019.3
864.2286	1164.5883	40096	39148.25
864.3734	1166.5267	39996.35	39046.8
864.5182	1168.4644	40139	39192.6
864.663	1170.4014	40205.2	39258.75
864.8078	1172.3377	40434.45	39489.45
864.9526	1174.2732	40549.05	39604.65
865.0974	1176.2081	40816.85	39870.45
865.2421	1178.1421	41145.45	40196.55
865.3869	1180.0755	41537.3	40591.95
865.5317	1182.0082	41610.1	40666.25
