Software Version:	3.9.2.0
Unit SN:	10000200
Spectrometer SN:	6960
Date:	3/26/2024 1:10:05 PM
Data Line Index:	25
Spectral Points:	2048
Integration time (ms):	125
Averages:	20
Delay (ms):	30000
Sequence Number:	1
Processing:	dark subtract
Laser Power (mW):	305
Laser Current (mA):	818
Laser Diode Temp (C):	25.1
Laser Case Temp (C):	26.1
System Temp (C):	26.1
Spectrometer Temp (C):	23.9
CCD Temp (C):	0.009
Secondary Temp (C):	20.011
Heatsink Temp (C):	21.665
CCDPCB Temp (C):	36.251
SecondaryPCB Temp (C):	31.182

Wavelength	RamanShift	Raw Counts	Dark Subtracted
787.061	30.1047	426.2	15.65
787.2016	32.3739	423.7	15.75
787.3422	34.6426	427.95	19
787.4828	36.9109	431	18.45
787.6235	39.1787	433.45	17.35
787.7642	41.4461	440.25	19.4
787.9049	43.7131	444.05	19.6
788.0456	45.9796	449.3	22.9
788.1863	48.2456	453.1	21.4
788.3271	50.5112	456.45	20.75
788.4679	52.7764	461.95	25.05
788.6087	55.0411	465.45	24.2
788.7496	57.3054	474.55	28.1
788.8904	59.5692	476.35	27.95
789.0313	61.8326	482.35	29.7
789.1722	64.0955	490.1	34.3
789.3132	66.3579	499.1	36.4
789.4541	68.6199	505.45	42.15
789.5951	70.8815	513.9	47.65
789.7361	73.1426	536.6	66.7
789.8771	75.4032	586.6	112.45
790.0181	77.6634	701.35	223
790.1592	79.9231	973.1	488.65
790.3003	82.1824	1543.65	1054.45
790.4414	84.4412	2503.5	2010.4
790.5825	86.6995	3793.1	3289.8
790.7237	88.9574	5088.1	4579.25
790.8648	91.2148	6035.2	5524.85
791.006	93.4717	6558.6	6040.75
791.1472	95.7282	6752.95	6232.2
791.2885	97.9842	6827.55	6306.5
791.4297	100.2398	6837.25	6312.45
791.571	102.4949	6799.8	6273
791.7123	104.7495	6788.1	6255.65
791.8536	107.0036	6748.95	6215.55
791.9949	109.2573	6704.6	6171.85
792.1363	111.5105	6667.5	6131.9
792.2777	113.7632	6577.7	6042.6
792.4191	116.0154	6528.35	5981.65
792.5605	118.2672	6496.55	5959.65
792.7019	120.5185	6397.75	5858.45
792.8434	122.7693	6369.5	5824.55
792.9849	125.0197	6301.55	5755.1
793.1264	127.2696	6244.95	5694.25
793.2679	129.519	6208.8	5656.3
793.4094	131.7679	6217.8	5661.75
793.551	134.0163	6188.95	5629.05
793.6926	136.2642	6191.65	5627.15
793.8342	138.5117	6199.7	5627.3
793.9758	140.7587	6169.6	5602.5
794.1175	143.0052	6142.45	5571.75
794.2591	145.2512	6110.55	5539.05
794.4008	147.4967	6061.8	5492.4
794.5425	149.7417	6018.05	5445.7
794.6842	151.9863	5980.85	5405.3
794.826	154.2304	5975.7	5395.35
794.9677	156.4739	5955.25	5369.4
795.1095	158.717	5956.6	5370.55
795.2513	160.9596	5970.1	5379.5
795.3931	163.2017	5966.85	5371.65
795.535	165.4433	5979.05	5384.05
795.6768	167.6844	5956.9	5358.85
795.8187	169.925	5950	5349.5
795.9606	172.1651	5896.05	5291.6
796.1025	174.4047	5869.25	5262.95
796.2445	176.6439	5844.35	5234.85
796.3864	178.8825	5803.25	5190.15
796.5284	181.1206	5783.3	5164.9
796.6704	183.3582	5781.65	5161
796.8124	185.5954	5759.75	5139.15
796.9544	187.832	5761.95	5137.95
797.0965	190.0681	5764.95	5137.8
797.2386	192.3037	5754.45	5123.9
797.3806	194.5388	5755.55	5120.75
797.5228	196.7734	5767.75	5132.4
797.6649	199.0075	5775.3	5134.5
797.807	201.2411	5792.8	5149
797.9492	203.4742	5825.35	5182
798.0914	205.7068	5835.7	5191.4
798.2336	207.9389	5837.9	5193.6
798.3758	210.1704	5856.3	5208.9
798.518	212.4015	5837.05	5188.3
798.6603	214.632	5837	5186.4
798.8025	216.862	5820.4	5176.15
798.9448	219.0915	5832.4	5196.75
799.0871	221.3205	5805.6	5171.55
799.2294	223.549	5833.4	5204.9
799.3718	225.777	5809.55	5181.85
799.5141	228.0044	5808.6	5174.85
799.6565	230.2314	5812.4	5183
799.7989	232.4578	5785.4	5154.7
799.9413	234.6837	5778.15	5137.7
800.0837	236.909	5770.3	5128.9
800.2262	239.1339	5778.95	5113.75
800.3687	241.3582	5763.8	5112.4
800.5111	243.582	5766	5085.25
800.6536	245.8053	5787.3	5115.6
800.7961	248.0281	5756.95	5092.35
800.9387	250.2503	5764.9	5096
801.0812	252.472	5759.9	5083.75
801.2238	254.6932	5778.7	5103.05
801.3664	256.9139	5755.2	5074.55
801.509	259.134	5765.5	5081.15
801.6516	261.3536	5766.05	5086
801.7942	263.5727	5782.85	5097.15
801.9369	265.7912	5797.25	5116.5
802.0795	268.0092	5823.1	5138.8
802.2222	270.2267	5870.05	5182.65
802.3649	272.4436	5900.6	5212.2
802.5076	274.6601	5908.65	5212.3
802.6504	276.8759	5923.6	5235.1
802.7931	279.0913	5928.95	5234.55
802.9359	281.3061	5931.6	5238.65
803.0787	283.5204	5948.1	5252.45
803.2215	285.7341	5981.7	5283
803.3643	287.9473	5996.75	5286.1
803.5071	290.16	5970.6	5265.6
803.6499	292.3721	5956.35	5256.3
803.7928	294.5837	5906.65	5204.8
803.9357	296.7947	5872.45	5169.5
804.0786	299.0052	5856.3	5153.6
804.2215	301.2152	5822.95	5116.15
804.3644	303.4246	5819.2	5115.35
804.5074	305.6334	5791	5087.6
804.6503	307.8418	5785.1	5081.45
804.7933	310.0495	5770.4	5061.75
804.9363	312.2568	5732.95	5028.3
805.0793	314.4635	5675.9	4966.7
805.2223	316.6696	5655.8	4945.3
805.3653	318.8752	5604.05	4885.25
805.5084	321.0802	5575.1	4863.15
805.6514	323.2847	5556.9	4841.2
805.7945	325.4887	5548.65	4835.55
805.9376	327.692	5558.8	4844.6
806.0807	329.8949	5579.5	4861.35
806.2238	332.0972	5613.05	4893.4
806.367	334.2989	5620.15	4898.1
806.5101	336.5001	5615.25	4891.4
806.6533	338.7007	5605.65	4881.65
806.7965	340.9008	5569.85	4846.2
806.9397	343.1003	5535.2	4807.4
807.0829	345.2992	5517.15	4789.3
807.2261	347.4976	5473.05	4743.85
807.3693	349.6955	5447.9	4716.05
807.5126	351.8927	5425.15	4689.8
807.6559	354.0895	5392.75	4647.85
807.7991	356.2856	5386.05	4647.1
807.9424	358.4812	5346.9	4612.6
808.0857	360.6763	5371.9	4634.9
808.2291	362.8707	5354.15	4615.75
808.3724	365.0646	5350.05	4608.45
808.5158	367.258	5337.5	4593.25
808.6591	369.4508	5350	4602.2
808.8025	371.643	5376.2	4630.9
808.9459	373.8346	5367.45	4618.1
809.0893	376.0257	5425.6	4672.8
809.2327	378.2162	5419.55	4667.55
809.3762	380.4062	5448.45	4695.8
809.5196	382.5956	5396.9	4642.8
809.6631	384.7844	5363.05	4610.3
809.8066	386.9726	5310.6	4553.8
809.9501	389.1603	5275.45	4517.65
810.0936	391.3474	5287.65	4496.45
810.2371	393.5339	5248.9	4491.65
810.3806	395.7199	5239.7	4485.85
810.5241	397.9052	5262.85	4510.8
810.6677	400.09	5278.15	4525.6
810.8113	402.2743	5309.65	4560.9
810.9548	404.4579	5302.35	4553.45
811.0984	406.641	5353.9	4604.5
811.2421	408.8235	5395.05	4642.8
811.3857	411.0054	5442.9	4689.85
811.5293	413.1868	5522.65	4766.6
811.673	415.3675	5637.15	4878.2
811.8166	417.5477	5657.7	4898.05
811.9603	419.7273	5594.75	4833.05
812.104	421.9064	5452.1	4685.95
812.2477	424.0848	5356.75	4593.7
812.3914	426.2627	5291	4525.15
812.5351	428.4399	5261.4	4494.75
812.6788	430.6166	5197.85	4425.5
812.8226	432.7928	5158.9	4383.9
812.9663	434.9683	5111.05	4339.3
813.1101	437.1432	5078.4	4302.5
813.2539	439.3176	5056.95	4282.85
813.3977	441.4914	5028.7	4253.3
813.5415	443.6645	5056.6	4279.7
813.6853	445.8371	5034.8	4255.45
813.8291	448.0091	5009.35	4230.15
813.973	450.1806	5010.9	4232.3
814.1168	452.3514	4987.75	4204.7
814.2607	454.5216	4984.4	4197.2
814.4046	456.6913	4956.4	4171.7
814.5485	458.8603	4956.25	4171.4
814.6924	461.0288	4949.05	4168.05
814.8363	463.1967	4953.75	4171.6
814.9802	465.3639	4941.1	4157
815.1241	467.5306	4935.85	4150.2
815.2681	469.6967	4924	4136.25
815.412	471.8622	4912.05	4126.25
815.556	474.0271	4908.35	4124
815.7	476.1914	4905.55	4115.6
815.844	478.3551	4894.7	4106.85
815.988	480.5182	4923.05	4134.5
816.132	482.6807	4918.05	4129
816.276	484.8426	4910.7	4124.25
816.4201	487.0039	4957.3	4166.75
816.5641	489.1647	4968.4	4177.55
816.7082	491.3248	5022.1	4231.3
816.8522	493.4843	5024.85	4234.25
816.9963	495.6432	5009.75	4219.3
817.1404	497.8015	4992.35	4196.75
817.2845	499.9592	4957.7	4165
817.4286	502.1163	4914.4	4121.15
817.5727	504.2728	4882.75	4087.05
817.7168	506.4287	4879.35	4086.4
817.861	508.5839	4849.75	4055.35
818.0051	510.7386	4844.15	4047.6
818.1493	512.8927	4854.85	4050.65
818.2935	515.0461	4853.25	4055.35
818.4377	517.199	4855.25	4058.85
818.5818	519.3512	4881.65	4084.55
818.726	521.5029	4935.95	4133.7
818.8703	523.6539	4963.9	4166.55
819.0145	525.8043	4986.15	4184.65
819.1587	527.9541	4952.7	4150
819.303	530.1033	4887.8	4086.3
819.4472	532.2519	4852	4050.75
819.5915	534.3999	4821.35	4017.4
819.7357	536.5472	4823.25	4019.55
819.88	538.694	4823.05	4019.8
820.0243	540.8401	4836.85	4030.45
820.1686	542.9856	4850.25	4040.6
820.3129	545.1305	4870.85	4061.95
820.4572	547.2748	4872.3	4063.55
820.6016	549.4185	4880.3	4070.85
820.7459	551.5615	4872.7	4063
820.8902	553.704	4884.25	4073.2
821.0346	555.8458	4885.15	4074.05
821.1789	557.987	4905	4094.75
821.3233	560.1276	4941.95	4132.2
821.4677	562.2675	4975.15	4164.05
821.6121	564.4069	5010.65	4199.35
821.7565	566.5456	5036	4224.2
821.9009	568.6837	5026.8	4217.1
822.0453	570.8212	4977.6	4165.05
822.1897	572.958	4916.7	4100.6
822.3342	575.0942	4881.05	4069.05
822.4786	577.2299	4842.6	4029.4
822.6231	579.3648	4819.25	4007.9
822.7675	581.4992	4780.75	3968.55
822.912	583.6329	4770.4	3960.25
823.0565	585.766	4797.55	3984.5
823.201	587.8985	4805.7	3993.75
823.3454	590.0304	4842.9	4017.15
823.4899	592.1616	4836.4	4019.45
823.6345	594.2922	4856.55	4040.35
823.779	596.4222	4819.35	4000.35
823.9235	598.5515	4776.85	3960.35
824.068	600.6802	4748.4	3927.3
824.2126	602.8083	4687	3867.9
824.3571	604.9358	4684.2	3863.1
824.5017	607.0626	4668.75	3849.1
824.6462	609.1888	4665.15	3843.25
824.7908	611.3144	4666.3	3843.65
824.9354	613.4393	4694.7	3872.05
825.08	615.5636	4723.25	3900.5
825.2246	617.6873	4755.75	3932.55
825.3692	619.8103	4797.05	3971.85
825.5138	621.9327	4791.9	3965.45
825.6584	624.0544	4782.6	3960.65
825.803	626.1756	4740.65	3917
825.9477	628.2961	4678.25	3855.2
826.0923	630.4159	4658.15	3831.9
826.237	632.5351	4670.85	3844.7
826.3816	634.6537	4659.3	3834.25
826.5263	636.7716	4647.6	3819.6
826.6709	638.8889	4642.4	3814
826.8156	641.0056	4648.7	3819.45
826.9603	643.1216	4656.55	3829.25
827.105	645.237	4662.5	3831.65
827.2497	647.3518	4660.5	3831.95
827.3944	649.4659	4642.35	3811.35
827.5391	651.5793	4619.15	3792.8
827.6838	653.6922	4600.25	3770.5
827.8285	655.8043	4584.85	3756.4
827.9733	657.9159	4568.65	3736.95
828.118	660.0268	4550.35	3717.1
828.2627	662.137	4551.25	3720.85
828.4075	664.2466	4568.25	3734.9
828.5522	666.3556	4567.95	3736.35
828.697	668.4639	4565.3	3730.25
828.8418	670.5716	4550.05	3720.05
828.9865	672.6786	4531.6	3698.05
829.1313	674.785	4522.7	3685.5
829.2761	676.8907	4511.75	3677.15
829.4209	678.9958	4503.8	3671.5
829.5657	681.1002	4506.45	3672.55
829.7105	683.204	4503.9	3665.5
829.8553	685.3072	4499.15	3662.85
830.0001	687.4097	4505.45	3669.9
830.1449	689.5115	4492.4	3654.15
830.2898	691.6127	4498.5	3664.2
830.4346	693.7132	4493.15	3653.6
830.5794	695.8131	4485.2	3641.05
830.7243	697.9123	4504.25	3665.85
830.8691	700.0109	4491.4	3651.7
831.014	702.1089	4502.15	3662.05
831.1588	704.2061	4506.5	3668.15
831.3037	706.3028	4533.7	3691.95
831.4486	708.3987	4540.1	3699.1
831.5935	710.4941	4539.95	3699.85
831.7383	712.5887	4546.55	3707.25
831.8832	714.6827	4560.15	3715.05
832.0281	716.7761	4532	3692.05
832.173	718.8688	4527.45	3685.85
832.3179	720.9608	4520.15	3675.75
832.4628	723.0522	4522.65	3677.4
832.6077	725.1429	4523.2	3678.95
832.7527	727.233	4583.9	3741.45
832.8976	729.3224	4606.3	3762.45
833.0425	731.4112	4645.3	3801.55
833.1874	733.4993	4670.3	3826.3
833.3324	735.5867	4628.55	3783.6
833.4773	737.6735	4583.05	3737.35
833.6222	739.7596	4545.65	3698.25
833.7672	741.845	4515.5	3669.85
833.9122	743.9298	4501.5	3654.1
834.0571	746.014	4526.85	3681.85
834.2021	748.0974	4537.8	3691.05
834.347	750.1802	4548.4	3701.55
834.492	752.2624	4518.2	3671.4
834.637	754.3439	4497.15	3646.9
834.782	756.4247	4471.45	3613.95
834.9269	758.5048	4444	3596.6
835.0719	760.5843	4444.2	3592.35
835.2169	762.6631	4436.4	3587.55
835.3619	764.7413	4482.95	3637.4
835.5069	766.8188	4528.6	3679.4
835.6519	768.8956	4571	3719.85
835.7969	770.9718	4620.7	3769.75
835.9419	773.0473	4599.75	3750.75
836.0869	775.1221	4571.05	3720.2
836.232	777.1962	4554.1	3702.8
836.377	779.2697	4575.75	3723.15
836.522	781.3426	4666.55	3797.45
836.667	783.4147	4708.5	3857.3
836.8121	785.4862	4712.55	3861.8
836.9571	787.557	4626.85	3775.9
837.1021	789.6271	4534.75	3682.5
837.2472	791.6966	4443.15	3591.8
837.3922	793.7654	4363.05	3508.15
837.5373	795.8335	4316.65	3463.55
837.6823	797.901	4276.2	3424.25
837.8274	799.9678	4278.45	3423.5
837.9724	802.0339	4271.65	3420.85
838.1175	804.0993	4266	3404.4
838.2626	806.1641	4246.1	3389.7
838.4076	808.2282	4224.3	3371
838.5527	810.2916	4230.6	3374.1
838.6978	812.3544	4206.95	3353.3
838.8428	814.4164	4178.75	3325
838.9879	816.4778	4197.05	3340.85
839.133	818.5385	4202.65	3349.95
839.2781	820.5986	4220.2	3367.1
839.4232	822.658	4261.55	3404.55
839.5682	824.7166	4287.5	3433.5
839.7133	826.7747	4348.4	3491.25
839.8584	828.832	4396.4	3540.5
840.0035	830.8886	4419.15	3561.05
840.1486	832.9446	4455.6	3598.9
840.2937	834.9999	4413.75	3557.9
840.4388	837.0545	4365.1	3507.1
840.5839	839.1085	4315.7	3456.8
840.729	841.1618	4253.35	3391.95
840.8741	843.2143	4207	3348.55
841.0192	845.2662	4160.45	3304.4
841.1643	847.3175	4174.15	3317.9
841.3095	849.368	4137.45	3280.5
841.4546	851.4179	4127.25	3268.15
841.5997	853.467	4110.8	3252.8
841.7448	855.5155	4112.1	3254.65
841.8899	857.5633	4114.9	3257.1
842.0351	859.6105	4113.05	3255.25
842.1802	861.6569	4103.7	3244
842.3253	863.7027	4088.6	3228.7
842.4704	865.7478	4070.45	3211.45
842.6156	867.7922	4053.7	3193.05
842.7607	869.8359	4039.85	3179.75
842.9058	871.8789	4032.35	3172.75
843.0509	873.9212	4045.9	3155.4
843.1961	875.9629	4022.05	3163.45
843.3412	878.0039	4030.55	3167.9
843.4863	880.0441	4037.05	3175.4
843.6315	882.0837	4041.3	3180.85
843.7766	884.1226	4055.25	3192.65
843.9218	886.1609	4076.55	3216.1
844.0669	888.1984	4109.3	3248.35
844.212	890.2352	4133.45	3274.15
844.3572	892.2714	4123.75	3258
844.5023	894.3069	4121.85	3260.2
844.6475	896.3416	4070	3206.7
844.7926	898.3757	4037	3171.85
844.9377	900.4091	4016	3152.1
845.0829	902.4418	4010.95	3142.5
845.228	904.4739	4018.75	3153.55
845.3732	906.5052	4025.8	3162.55
845.5183	908.5358	4018.95	3157
845.6635	910.5658	4017.25	3154.95
845.8086	912.595	3970.7	3107.05
845.9538	914.6236	3931.5	3068.75
846.0989	916.6515	3907.5	3045.95
846.2441	918.6786	3881.55	3015
846.3892	920.7051	3871.6	3004.55
846.5344	922.7309	3874.75	3010.4
846.6795	924.756	3875.1	3009.85
846.8246	926.7804	3850.25	2985.35
846.9698	928.8041	3845.35	2976.85
847.1149	930.8272	3851.35	2987.8
847.2601	932.8495	3858.2	2990.9
847.4052	934.8711	3859.9	2992
847.5504	936.892	3847.6	2981.45
847.6955	938.9123	3844.9	2978.25
847.8407	940.9318	3857.7	2990.15
847.9858	942.9506	3877.15	3009.15
848.131	944.9688	3861.95	2993
848.2761	946.9862	3835.3	2970.15
848.4213	949.003	3800.5	2931.75
848.5664	951.019	3775.45	2908.4
848.7115	953.0344	3763.75	2896.65
848.8567	955.0491	3739.95	2871.55
849.0018	957.063	3740.2	2873.5
849.147	959.0763	3734.2	2859.5
849.2921	961.0888	3718.6	2848.8
849.4373	963.1007	3710.45	2840.3
849.5824	965.1119	3696.95	2828.7
849.7275	967.1223	3691.4	2824.2
849.8727	969.1321	3684.25	2817.7
850.0178	971.1412	3670.3	2803.4
850.1629	973.1495	3662.45	2794
850.3081	975.1572	3653.45	2769.3
850.4532	977.1641	3646.3	2779.15
850.5983	979.1704	3646.9	2777.6
850.7435	981.1759	3633.85	2761.85
850.8886	983.1808	3627.05	2755.8
851.0337	985.1849	3628.05	2748.1
851.1788	987.1884	3601.1	2729.1
851.324	989.1911	3587.85	2713.7
851.4691	991.1932	3594.55	2723.3
851.6142	993.1945	3578.4	2708.6
851.7593	995.1951	3572.8	2703.8
851.9045	997.1951	3584.6	2710.65
852.0496	999.1943	3552.45	2682.75
852.1947	1001.1928	3541.9	2670.05
852.3398	1003.1906	3535.4	2661.95
852.4849	1005.1877	3560.7	2688.2
852.63	1007.1841	3554.3	2683.6
852.7751	1009.1798	3541	2669.4
852.9202	1011.1748	3536.5	2667.05
853.0653	1013.1691	3513.3	2641
853.2104	1015.1627	3480.75	2609.7
853.3555	1017.1556	3461.15	2590.25
853.5006	1019.1477	3430.4	2558.7
853.6457	1021.1392	3406.15	2535.75
853.7908	1023.1299	3383.4	2512.85
853.9359	1025.12	3384.55	2512.15
854.081	1027.1093	3378.8	2508.6
854.2261	1029.0979	3385.6	2516.9
854.3712	1031.0859	3389.8	2519.85
854.5163	1033.0731	3380.95	2510.8
854.6613	1035.0596	3374.4	2502.6
854.8064	1037.0454	3363.8	2491.9
854.9515	1039.0304	3351.9	2477.55
855.0965	1041.0148	3336.35	2463.75
855.2416	1042.9985	3296.75	2423.85
855.3867	1044.9814	3293.05	2419.85
855.5317	1046.9636	3276.3	2398.95
855.6768	1048.9452	3256.15	2383.1
855.8219	1050.926	3260.5	2389.8
855.9669	1052.9061	3273.8	2400.85
856.112	1054.8855	3264.1	2391.1
856.257	1056.8642	3265.95	2394.3
856.4021	1058.8421	3251.6	2375
856.5471	1060.8194	3259.3	2384.5
856.6921	1062.7959	3242.2	2367.95
856.8372	1064.7717	3237.85	2360.9
856.9822	1066.7469	3227.65	2352.8
857.1272	1068.7213	3227.65	2349.8
857.2723	1070.695	3226.9	2353.8
857.4173	1072.6679	3238.8	2364.15
857.5623	1074.6402	3246.65	2371.05
857.7073	1076.6117	3266.25	2387.95
857.8523	1078.5826	3246.95	2373.8
857.9973	1080.5527	3206.25	2327.95
858.1423	1082.5221	3168.4	2295.15
858.2873	1084.4908	3134	2260.6
858.4323	1086.4587	3123.65	2249.05
858.5773	1088.426	3094.5	2217.55
858.7223	1090.3925	3078.75	2200.35
858.8673	1092.3584	3094	2220.1
859.0123	1094.3235	3098.3	2224.8
859.1573	1096.2879	3100.3	2222.65
859.3022	1098.2515	3103	2228.05
859.4472	1100.2145	3109.5	2235.85
859.5922	1102.1767	3138.85	2260.55
859.7371	1104.1382	3160.05	2284.3
859.8821	1106.099	3195.25	2319
860.027	1108.0591	3212.35	2336.1
860.172	1110.0185	3241	2364.25
860.3169	1111.9771	3274.1	2398.5
860.4619	1113.9351	3299.85	2421.85
860.6068	1115.8923	3339.2	2461.3
860.7517	1117.8488	3376.9	2501.45
860.8967	1119.8045	3346.3	2470.7
861.0416	1121.7596	3267.8	2391.9
861.1865	1123.7139	3167.85	2293.45
861.3314	1125.6675	3115.4	2240
861.4763	1127.6204	3107.7	2230.75
861.6212	1129.5726	3107.3	2228.75
861.7661	1131.524	3108.8	2233
861.911	1133.4748	3083.15	2205.4
862.0559	1135.4248	3029.95	2150.3
862.2008	1137.3741	2989.25	2112.8
862.3457	1139.3226	2959.65	2082.75
862.4905	1141.2705	2967.65	2093.15
862.6354	1143.2176	2938.8	2056
862.7803	1145.164	2946.05	2068.15
862.9251	1147.1097	2949.8	2072.2
863.07	1149.0546	2937	2057.45
863.2148	1150.9989	2901.45	2023.1
863.3597	1152.9424	2884.45	2005.05
863.5045	1154.8852	2872.1	1995.25
863.6493	1156.8272	2864.9	1987.45
863.7942	1158.7686	2866.2	1983.05
863.939	1160.7092	2850.8	1973.35
864.0838	1162.6491	2865.2	1985.45
864.2286	1164.5883	2846.45	1970.15
864.3734	1166.5267	2858.9	1980
864.5182	1168.4644	2859.45	1980.45
864.663	1170.4014	2879.3	1998.6
864.8078	1172.3377	2923.15	2046.55
864.9526	1174.2732	2941.65	2062.95
865.0974	1176.2081	3001.25	2124.45
865.2421	1178.1421	3077.7	2194.2
865.3869	1180.0755	3163.3	2284.6
865.5317	1182.0082	3224.85	2346.55
865.6764	1183.9401	3217.6	2337.6
865.8212	1185.8713	3141.2	2262.95
865.9659	1187.8017	3052.2	2174.45
866.1106	1189.7315	2953	2076.95
866.2554	1191.6605	2866.25	1988
866.4001	1193.5888	2838.25	1960.2
866.5448	1195.5163	2822.2	1944.8
866.6895	1197.4432	2794.05	1914.3
866.8342	1199.3693	2771.55	1894.3
866.9789	1201.2947	2752.5	1869.15
867.1236	1203.2193	2742.4	1862.7
867.2683	1205.1432	2729.4	1850.95
867.413	1207.0664	2734.55	1853.95
867.5576	1208.9889	2718.1	1835.75
867.7023	1210.9106	2704.6	1825.55
867.847	1212.8316	2708.05	1828.6
867.9916	1214.7519	2714	1827.2
868.1363	1216.6715	2699.75	1819.4
868.2809	1218.5903	2699.25	1820.05
868.4255	1220.5084	2713.85	1834.1
868.5701	1222.4257	2718.8	1838
868.7148	1224.3424	2717.7	1838
868.8594	1226.2583	2734.35	1851.1
869.004	1228.1735	2749.95	1869.85
869.1486	1230.0879	2743.7	1862.9
869.2932	1232.0016	2792.95	1915.05
869.4377	1233.9146	2799.55	1918.7
869.5823	1235.8269	2809.05	1927.4
869.7269	1237.7384	2824.2	1944.4
869.8715	1239.6492	2811.5	1934
870.016	1241.5592	2810.05	1929.5
