Software Version:	3.9.2.0
Unit SN:	10000200
Spectrometer SN:	6960
Date:	3/26/2024 2:39:38 PM
Data Line Index:	25
Spectral Points:	2048
Integration time (ms):	125
Averages:	20
Delay (ms):	30000
Sequence Number:	1
Processing:	dark subtract
Laser Power (mW):	305
Laser Current (mA):	821
Laser Diode Temp (C):	25
Laser Case Temp (C):	27.9
System Temp (C):	28
Spectrometer Temp (C):	25.8
CCD Temp (C):	-0.005
Secondary Temp (C):	20.013
Heatsink Temp (C):	23.616
CCDPCB Temp (C):	37.285
SecondaryPCB Temp (C):	34.795

Wavelength	RamanShift	Raw Counts	Dark Subtracted
787.061	30.1047	649.3	236.85
787.2016	32.3739	662	253.7
787.3422	34.6426	672.85	263.85
787.4828	36.9109	691.9	279.6
787.6235	39.1787	718.65	302.05
787.7642	41.4461	738.45	317.1
787.9049	43.7131	768.6	345.75
788.0456	45.9796	790.35	360.9
788.1863	48.2456	816.45	384.7
788.3271	50.5112	843.1	407.5
788.4679	52.7764	877.8	438.2
788.6087	55.0411	904.95	462.95
788.7496	57.3054	938.9	491.6
788.8904	59.5692	974.9	526.75
789.0313	61.8326	1003.6	550.75
789.1722	64.0955	1049.15	591.65
789.3132	66.3579	1102.65	640
789.4541	68.6199	1153.95	690.3
789.5951	70.8815	1267.55	799.9
789.7361	73.1426	1465.55	993.7
789.8771	75.4032	1986.8	1509
790.0181	77.6634	3283.5	2797.3
790.1592	79.9231	6568.85	6076.85
790.3003	82.1824	14096.5	13586.45
790.4414	84.4412	32124.65	31579.85
790.5825	86.6995	60125.7	59533.9
790.7237	88.9574	65535	64905.5
790.8648	91.2148	65535	64872.9
791.006	93.4717	65535	64851.2
791.1472	95.7282	65535	64839.55
791.2885	97.9842	65535	64835.25
791.4297	100.2398	65535	64834.15
791.571	102.4949	65535	64828.7
791.7123	104.7495	65535	64828.05
791.8536	107.0036	65535	64827.3
791.9949	109.2573	65535	64829.55
792.1363	111.5105	65535	64822.55
792.2777	113.7632	65535	64822.85
792.4191	116.0154	65535	64810.2
792.5605	118.2672	65535	64822.3
792.7019	120.5185	65535	64818.15
792.8434	122.7693	65535	64813.25
792.9849	125.0197	65535	64816.25
793.1264	127.2696	65535	64806.9
793.2679	129.519	65535	64798.75
793.4094	131.7679	65535	64798
793.551	134.0163	65535	64800.3
793.6926	136.2642	65535	64793.5
793.8342	138.5117	65535	64790.1
793.9758	140.7587	65535	64793.75
794.1175	143.0052	65535	64788.1
794.2591	145.2512	65535	64786.1
794.4008	147.4967	65535	64785.85
794.5425	149.7417	65535	64784.45
794.6842	151.9863	65535	64784.15
794.826	154.2304	65535	64776.45
794.9677	156.4739	65535	64770.35
795.1095	158.717	65535	64768.85
795.2513	160.9596	65535	64770.45
795.3931	163.2017	65535	64766.25
795.535	165.4433	65535	64764.95
795.6768	167.6844	65535	64759.8
795.8187	169.925	65535	64760.6
795.9606	172.1651	65535	64764.35
796.1025	174.4047	65535	64761.2
796.2445	176.6439	65535	64759.8
796.3864	178.8825	65535	64754.7
796.5284	181.1206	65535	64751.3
796.6704	183.3582	65535	64743.5
796.8124	185.5954	65535	64742.65
796.9544	187.832	65535	64743.35
797.0965	190.0681	65535	64737.9
797.2386	192.3037	65535	64736.35
797.3806	194.5388	65535	64728.75
797.5228	196.7734	65535	64729.25
797.6649	199.0075	65535	64727.7
797.807	201.2411	65535	64721.65
797.9492	203.4742	65535	64718.55
798.0914	205.7068	65535	64717.35
798.2336	207.9389	65535	64719.4
798.3758	210.1704	65535	64714
798.518	212.4015	65535	64713.95
798.6603	214.632	65535	64717.1
798.8025	216.862	65535	64727.9
798.9448	219.0915	65535	64736.7
799.0871	221.3205	65535	64734.15
799.2294	223.549	65535	64738.45
799.3718	225.777	65535	64734.05
799.5141	228.0044	65535	64732.75
799.6565	230.2314	65535	64735.5
799.7989	232.4578	65535	64733.2
799.9413	234.6837	65535	64729.05
800.0837	236.909	65535	64726.7
800.2262	239.1339	65535	64703.95
800.3687	241.3582	65535	64715.2
800.5111	243.582	65535	64684.85
800.6536	245.8053	65535	64694.35
800.7961	248.0281	65535	64704.1
800.9387	250.2503	65535	64692.5
801.0812	252.472	65535	64691.25
801.2238	254.6932	65535	64690.7
801.3664	256.9139	65535	64692.5
801.509	259.134	65535	64692.55
801.6516	261.3536	65535	64689.85
801.7942	263.5727	65535	64683.3
801.9369	265.7912	65535	64686.45
802.0795	268.0092	65535	64689.8
802.2222	270.2267	65535	64681.55
802.3649	272.4436	65535	64689
802.5076	274.6601	65535	64674.75
802.6504	276.8759	65535	64686.5
802.7931	279.0913	65535	64676.7
802.9359	281.3061	65535	64679.3
803.0787	283.5204	65535	64674.95
803.2215	285.7341	65535	64667.95
803.3643	287.9473	65535	64662.25
803.5071	290.16	65535	64671.3
803.6499	292.3721	65535	64673.55
803.7928	294.5837	65535	64669.7
803.9357	296.7947	65535	64671.5
804.0786	299.0052	65535	64669.7
804.2215	301.2152	65535	64669.65
804.3644	303.4246	65535	64672.8
804.5074	305.6334	65535	64679.3
804.6503	307.8418	65535	64672.5
804.7933	310.0495	65535	64670.15
804.9363	312.2568	65535	64668.45
805.0793	314.4635	65535	64668.7
805.2223	316.6696	65535	64668.95
805.3653	318.8752	65535	64654.75
805.5084	321.0802	65535	64665.15
805.6514	323.2847	65535	64663.7
805.7945	325.4887	65535	64660.7
805.9376	327.692	65535	64662.85
806.0807	329.8949	65535	64659.2
806.2238	332.0972	65535	64657.35
806.367	334.2989	65535	64654.75
806.5101	336.5001	65535	64657
806.6533	338.7007	65535	64654.2
806.7965	340.9008	65535	64652.6
806.9397	343.1003	65535	64651.75
807.0829	345.2992	65535	64649.25
807.2261	347.4976	65535	64651.2
807.3693	349.6955	65535	64645.05
807.5126	351.8927	65535	64643.25
807.6559	354.0895	65535	64636.6
807.7991	356.2856	65535	64645.65
807.9424	358.4812	65535	64648.15
808.0857	360.6763	65535	64642.55
808.2291	362.8707	65535	64642.15
808.3724	365.0646	65535	64640.35
808.5158	367.258	65535	64637.8
808.6591	369.4508	65535	64637.8
808.8025	371.643	65535	64636.65
808.9459	373.8346	65535	64633.7
809.0893	376.0257	65535	64631.45
809.2327	378.2162	65535	64634.55
809.3762	380.4062	65535	64631.5
809.5196	382.5956	65535	64629.45
809.6631	384.7844	65535	64633.15
809.8066	386.9726	65535	64635
809.9501	389.1603	65535	64638.05
810.0936	391.3474	65535	64594.65
810.2371	393.5339	65535	64635.45
810.3806	395.7199	65535	64640.4
810.5241	397.9052	65535	64640.05
810.6677	400.09	65535	64642.7
810.8113	402.2743	65535	64646
810.9548	404.4579	65535	64643.55
811.0984	406.641	65535	64636.15
811.2421	408.8235	65535	64648.95
811.3857	411.0054	65535	64645.05
811.5293	413.1868	65535	64637.15
811.673	415.3675	65535	64628.65
811.8166	417.5477	65535	64634.7
811.9603	419.7273	65535	64630.1
812.104	421.9064	65535	64626.3
812.2477	424.0848	65535	64631.6
812.3914	426.2627	65535	64624.8
812.5351	428.4399	65535	64626.1
812.6788	430.6166	65535	64625.2
812.8226	432.7928	65535	64620.65
812.9663	434.9683	65535	64621.85
813.1101	437.1432	65535	64625.9
813.2539	439.3176	65535	64630.85
813.3977	441.4914	65535	64631.85
813.5415	443.6645	65535	64632
813.6853	445.8371	65535	64626.35
813.8291	448.0091	65535	64625.45
813.973	450.1806	65535	64625.95
814.1168	452.3514	65535	64631.7
814.2607	454.5216	65535	64619.65
814.4046	456.6913	65535	64623.95
814.5485	458.8603	65535	64629.75
814.6924	461.0288	65535	64628.3
814.8363	463.1967	65535	64632.35
814.9802	465.3639	65535	64625.85
815.1241	467.5306	65535	64626.75
815.2681	469.6967	65535	64628.3
815.412	471.8622	65535	64632.4
815.556	474.0271	65535	64627.1
815.7	476.1914	65535	64620.25
815.844	478.3551	65535	64626.2
815.988	480.5182	65535	64627.4
816.132	482.6807	65535	64634.8
816.276	484.8426	65535	64639.25
816.4201	487.0039	65535	64630.6
816.5641	489.1647	65535	64621.2
816.7082	491.3248	65535	64622.65
816.8522	493.4843	65535	64632.15
816.9963	495.6432	65535	64631.4
817.1404	497.8015	65535	64620.35
817.2845	499.9592	65535	64618.35
817.4286	502.1163	65535	64614.7
817.5727	504.2728	65535	64621.85
817.7168	506.4287	65535	64628.4
817.861	508.5839	65535	64627.8
818.0051	510.7386	65535	64627.65
818.1493	512.8927	65535	64612.85
818.2935	515.0461	65535	64618.4
818.4377	517.199	65535	64619.4
818.5818	519.3512	65535	64617.25
818.726	521.5029	65535	64614.1
818.8703	523.6539	65535	64618.55
819.0145	525.8043	65535	64614.85
819.1587	527.9541	65535	64609.75
819.303	530.1033	65535	64621
819.4472	532.2519	65535	64616.1
819.5915	534.3999	65535	64612
819.7357	536.5472	65535	64620.8
819.88	538.694	65535	64618.1
820.0243	540.8401	65535	64614.25
820.1686	542.9856	65535	64601
820.3129	545.1305	65535	64598.55
820.4572	547.2748	65535	64597.7
820.6016	549.4185	65535	64597.45
820.7459	551.5615	65535	64596.4
820.8902	553.704	65535	64601.5
821.0346	555.8458	65535	64607.55
821.1789	557.987	65535	64604.95
821.3233	560.1276	65535	64603.55
821.4677	562.2675	65535	64602.5
821.6121	564.4069	65535	64604.75
821.7565	566.5456	65535	64608.05
821.9009	568.6837	65535	64607.8
822.0453	570.8212	65535	64610.1
822.1897	572.958	65535	64609.7
822.3342	575.0942	65535	64613.3
822.4786	577.2299	65535	64616.1
822.6231	579.3648	65535	64624.95
822.7675	581.4992	65535	64633.05
822.912	583.6329	65535	64633
823.0565	585.766	65535	64631.1
823.201	587.8985	65535	64624.2
823.3454	590.0304	65535	64593.75
823.4899	592.1616	65535	64609.05
823.6345	594.2922	65535	64604.7
823.779	596.4222	65535	64608.55
823.9235	598.5515	65535	64602.5
824.068	600.6802	65535	64605.2
824.2126	602.8083	65535	64606.3
824.3571	604.9358	65535	64602.55
824.5017	607.0626	65535	64602.6
824.6462	609.1888	65535	64594.25
824.7908	611.3144	65535	64598.2
824.9354	613.4393	65535	64594.25
825.08	615.5636	65535	64599.55
825.2246	617.6873	65535	64603.95
825.3692	619.8103	65535	64599.2
825.5138	621.9327	65535	64602.7
825.6584	624.0544	65535	64610.35
825.803	626.1756	65535	64609
825.9477	628.2961	65535	64599.3
826.0923	630.4159	65535	64599.15
826.237	632.5351	65535	64596.3
826.3816	634.6537	65535	64598.95
826.5263	636.7716	65535	64592.55
826.6709	638.8889	65535	64594.7
826.8156	641.0056	65535	64593.7
826.9603	643.1216	65535	64590.55
827.105	645.237	65535	64595.15
827.2497	647.3518	65535	64603.55
827.3944	649.4659	65535	64607.1
827.5391	651.5793	65535	64603.7
827.6838	653.6922	65535	64602.05
827.8285	655.8043	65535	64602.2
827.9733	657.9159	65535	64597.5
828.118	660.0268	65535	64601.85
828.2627	662.137	65535	64599.05
828.4075	664.2466	65535	64592.85
828.5522	666.3556	65535	64596.1
828.697	668.4639	65535	64597.8
828.8418	670.5716	65535	64605.2
828.9865	672.6786	65535	64597.8
829.1313	674.785	65535	64595.45
829.2761	676.8907	65535	64600.55
829.4209	678.9958	65535	64599.4
829.5657	681.1002	65535	64597.35
829.7105	683.204	65535	64586.75
829.8553	685.3072	65535	64589.55
830.0001	687.4097	65535	64593.55
830.1449	689.5115	65535	64592.4
830.2898	691.6127	65535	64593.35
830.4346	693.7132	65535	64600.25
830.5794	695.8131	65535	64581.5
830.7243	697.9123	65535	64591.6
830.8691	700.0109	65535	64594.8
831.014	702.1089	65535	64590.7
831.1588	704.2061	65535	64592.85
831.3037	706.3028	65535	64590.05
831.4486	708.3987	65535	64587.45
831.5935	710.4941	65535	64591
831.7383	712.5887	65535	64595.15
831.8832	714.6827	65535	64591.65
832.0281	716.7761	65535	64594.85
832.173	718.8688	65535	64594.5
832.3179	720.9608	65535	64587.1
832.4628	723.0522	65535	64578.8
832.6077	725.1429	65535	64589
832.7527	727.233	65535	64592.7
832.8976	729.3224	65535	64593.65
833.0425	731.4112	65535	64591.5
833.1874	733.4993	65535	64590.6
833.3324	735.5867	65535	64593.85
833.4773	737.6735	65535	64590.8
833.6222	739.7596	65535	64589.55
833.7672	741.845	65535	64589.75
833.9122	743.9298	65535	64588.25
834.0571	746.014	65535	64590.75
834.2021	748.0974	65535	64583.5
834.347	750.1802	65535	64585.45
834.492	752.2624	65535	64582.4
834.637	754.3439	65535	64584.1
834.782	756.4247	65535	64581.75
834.9269	758.5048	65535	64587.15
835.0719	760.5843	65535	64583.5
835.2169	762.6631	65535	64586.4
835.3619	764.7413	65535	64584.7
835.5069	766.8188	65535	64585.9
835.6519	768.8956	65535	64582.45
835.7969	770.9718	65535	64586.3
835.9419	773.0473	65535	64585.15
836.0869	775.1221	65535	64586.55
836.232	777.1962	65535	64589.3
836.377	779.2697	65519	64567.6
836.522	781.3426	65531.25	64564.95
836.667	783.4147	65535	64584.7
836.8121	785.4862	65535	64583.45
836.9571	787.557	65522.2	64568.2
837.1021	789.6271	65535	64583.1
837.2472	791.6966	65521.75	64572.05
837.3922	793.7654	65470.65	64518.55
837.5373	795.8335	65474.15	64526.45
837.6823	797.901	65486.5	64535.5
837.8274	799.9678	65453.15	64499.2
837.9724	802.0339	65435.4	64484.6
838.1175	804.0993	65451.15	64489.2
838.2626	806.1641	65425.25	64469
838.4076	808.2282	65416.55	64465.5
838.5527	810.2916	65389.5	64435.15
838.6978	812.3544	65442.15	64494.05
838.8428	814.4164	65340.7	64391.85
838.9879	816.4778	65348.5	64393.45
839.133	818.5385	65356.15	64400.95
839.2781	820.5986	65352.65	64401.95
839.4232	822.658	65352.05	64396.65
839.5682	824.7166	65361.35	64412.05
839.7133	826.7747	65234.05	64281.2
839.8584	828.832	65267.1	64312.95
840.0035	830.8886	65367.6	64410.7
840.1486	832.9446	65370.2	64411.6
840.2937	834.9999	65149.7	64200.95
840.4388	837.0545	65279.8	64324.5
840.5839	839.1085	65366.35	64410.3
840.729	841.1618	65319.1	64360.8
840.8741	843.2143	65141.75	64187.35
841.0192	845.2662	65127.8	64172.25
841.1643	847.3175	65202.25	64250.4
841.3095	849.368	64845.75	63895.5
841.4546	851.4179	65139	64184.75
841.5997	853.467	64901.1	63949.55
841.7448	855.5155	65038.15	64086.1
841.8899	857.5633	64767	63811.5
842.0351	859.6105	64644.8	63691.85
842.1802	861.6569	64816.35	63862.45
842.3253	863.7027	64405.1	63446.8
842.4704	865.7478	64565.65	63611.25
842.6156	867.7922	64450.7	63498.3
842.7607	869.8359	64685.9	63732.05
842.9058	871.8789	64230.8	63273.3
843.0509	873.9212	64544.4	63556.8
843.1961	875.9629	64624.55	63668.9
843.3412	878.0039	64553.55	63600.55
843.4863	880.0441	64403.15	63452
843.6315	882.0837	64420.2	63467.6
843.7766	884.1226	64319.9	63365.3
843.9218	886.1609	64185.2	63233.05
844.0669	888.1984	63874.9	62919.75
844.212	890.2352	64219.05	63266.35
844.3572	892.2714	63652.65	62694.1
844.5023	894.3069	63954.4	62999.8
844.6475	896.3416	63592	62635.4
844.7926	898.3757	63529.4	62574.1
844.9377	900.4091	62654.8	61695.3
845.0829	902.4418	63757.7	62799.6
845.228	904.4739	63131.55	62171.85
845.3732	906.5052	63206.85	62249.5
845.5183	908.5358	62791.55	61835.25
845.6635	910.5658	62497.65	61538.9
845.8086	912.595	62469.25	61510.4
845.9538	914.6236	61400.15	60444.2
846.0989	916.6515	62914.55	61959.75
846.2441	918.6786	61376.9	60416.6
846.3892	920.7051	61777.4	60817
846.5344	922.7309	61566	60603.85
846.6795	924.756	61799.55	60843.75
846.8246	926.7804	61353.75	60393.25
846.9698	928.8041	60378.45	59421.05
847.1149	930.8272	61129.3	60167.95
847.2601	932.8495	61140	60182.75
847.4052	934.8711	60264	59306.85
847.5504	936.892	59743.1	58787.4
847.6955	938.9123	60004.1	59047.8
847.8407	940.9318	59400.05	58441.7
847.9858	942.9506	59158	58203.55
848.131	944.9688	59260.35	58307.75
848.2761	946.9862	58230.45	57271.25
848.4213	949.003	58548.95	57594.2
848.5664	951.019	57669.35	56711.6
848.7115	953.0344	57884.4	56930.7
848.8567	955.0491	57785.5	56827.05
849.0018	957.063	58044.7	57090.25
849.147	959.0763	58115.35	57153.15
849.2921	961.0888	57536.85	56577.3
849.4373	963.1007	57985.85	57030.9
849.5824	965.1119	57892.3	56945.9
849.7275	967.1223	57471.6	56526.4
849.8727	969.1321	57961.75	57020.3
850.0178	971.1412	57234.95	56284.8
850.1629	973.1495	56927.15	55971.5
850.3081	975.1572	57183.5	56196.3
850.4532	977.1641	56990.05	56035.1
850.5983	979.1704	56746	55789.3
850.7435	981.1759	56818.05	55860.55
850.8886	983.1808	56408.6	55451.65
851.0337	985.1849	56476.75	55514.2
851.1788	987.1884	56558.3	55601.5
851.324	989.1911	56956.1	55999.55
851.4691	991.1932	56177.3	55221.2
851.6142	993.1945	56332	55376.15
851.7593	995.1951	56441.9	55487.25
851.9045	997.1951	55929.15	54967.75
852.0496	999.1943	55659.25	54704.8
852.1947	1001.1928	55439.65	54484.1
852.3398	1003.1906	55380.8	54430.15
852.4849	1005.1877	54848.65	53894.8
852.63	1007.1841	54560.55	53609.55
852.7751	1009.1798	54396.1	53440.9
852.9202	1011.1748	54084.45	53128.7
853.0653	1013.1691	53800.1	52844.45
853.2104	1015.1627	52993.65	52041.4
853.3555	1017.1556	52707.2	51755.75
853.5006	1019.1477	52686.1	51735.1
853.6457	1021.1392	52160.95	51213.95
853.7908	1023.1299	51770.1	50827.15
853.9359	1025.12	51840.35	50901.2
854.081	1027.1093	51441.5	50512.3
854.2261	1029.0979	51421.75	50495.25
854.3712	1031.0859	51316.35	50383.7
854.5163	1033.0731	50925.85	49983.6
854.6613	1035.0596	50798.8	49852.75
854.8064	1037.0454	50476.6	49527.2
854.9515	1039.0304	50166.25	49217.5
855.0965	1041.0148	49819.25	48871.6
855.2416	1042.9985	49578.55	48627.6
855.3867	1044.9814	49591.05	48638
855.5317	1046.9636	49227	48275.25
855.6768	1048.9452	49044.6	48096.8
855.8219	1050.926	48937.9	47988.1
855.9669	1052.9061	48731.25	47779.05
856.112	1054.8855	48632.55	47679.35
856.257	1056.8642	48413.1	47460.55
856.4021	1058.8421	48325.15	47371.75
856.5471	1060.8194	48225.95	47278.15
856.6921	1062.7959	48151.95	47198.2
856.8372	1064.7717	48015.4	47064.1
856.9822	1066.7469	47897.8	46944.4
857.1272	1068.7213	47758.65	46803.2
857.2723	1070.695	47534.25	46584.1
857.4173	1072.6679	47193.9	46244.35
857.5623	1074.6402	47122.55	46172.9
857.7073	1076.6117	46953.8	45996.25
857.8523	1078.5826	46896.25	45940.05
857.9973	1080.5527	46867.1	45912.5
858.1423	1082.5221	46851.35	45902.25
858.2873	1084.4908	46922.4	45973.95
858.4323	1086.4587	47068.55	46120.1
858.5773	1088.426	47127.35	46178.15
858.7223	1090.3925	46903.5	45950.35
858.8673	1092.3584	46753.65	45804.1
859.0123	1094.3235	46289.85	45340.1
859.1573	1096.2879	46069.15	45118.05
859.3022	1098.2515	45879.7	44926
859.4472	1100.2145	45789.2	44837.85
859.5922	1102.1767	45701.05	44746.4
859.7371	1104.1382	45728.55	44779.15
859.8821	1106.099	45737.1	44784.1
860.027	1108.0591	45774.2	44826.45
860.172	1110.0185	45813.25	44866.75
860.3169	1111.9771	45763.95	44813.85
860.4619	1113.9351	45295.3	44344.7
860.6068	1115.8923	44818.7	43867.85
860.7517	1117.8488	44316.8	43365.7
860.8967	1119.8045	43820.45	42875.15
861.0416	1121.7596	43613.25	42662.25
861.1865	1123.7139	43352.05	42404.35
861.3314	1125.6675	43249.15	42301.65
861.4763	1127.6204	43320.75	42370.25
861.6212	1129.5726	43184.65	42234.35
861.7661	1131.524	43128.75	42181.55
861.911	1133.4748	43114.05	42162.25
862.0559	1135.4248	42945.15	41997.8
862.2008	1137.3741	42926.85	41977.55
862.3457	1139.3226	42767.4	41817
862.4905	1141.2705	42742.35	41794.55
862.6354	1143.2176	42352	41396.8
862.7803	1145.164	42304.95	41352.8
862.9251	1147.1097	42216.35	41265.9
863.07	1149.0546	42178.15	41228.35
863.2148	1150.9989	42028	41077.55
863.3597	1152.9424	41876.4	40931.3
863.5045	1154.8852	41517.15	40567.2
863.6493	1156.8272	41230.7	40279.85
863.7942	1158.7686	41132.3	40176.9
863.939	1160.7092	40884.15	39936.7
864.0838	1162.6491	40680.55	39730.6
864.2286	1164.5883	40732.6	39785.7
864.3734	1166.5267	40697.1	39745.65
864.5182	1168.4644	40707.65	39759.5
864.663	1170.4014	40778.75	39828.95
864.8078	1172.3377	41014.1	40070.7
864.9526	1174.2732	41098.7	40153.2
865.0974	1176.2081	41235.95	40292.35
865.2421	1178.1421	41227.35	40278.35
865.3869	1180.0755	41292.9	40346.75
865.5317	1182.0082	41084.95	40138.05
865.6764	1183.9401	41028.5	40084.5
865.8212	1185.8713	40725.4	39785
865.9659	1187.8017	40358.8	39419.95
866.1106	1189.7315	39978.25	39052.25
866.2554	1191.6605	39493.25	38562.65
866.4001	1193.5888	39191.85	38255.8
866.5448	1195.5163	38992.9	38053.3
866.6895	1197.4432	38786.65	37843.65
866.8342	1199.3693	38596.65	37656.35
866.9789	1201.2947	38374.85	37421.35
867.1236	1203.2193	38206.05	37262.6
867.2683	1205.1432	38147.95	37202.4
867.413	1207.0664	38060.5	37114.7
867.5576	1208.9889	38007	37060.35
867.7023	1210.9106	37934.2	36992.5
867.847	1212.8316	37899.25	36956.25
867.9916	1214.7519	37901.85	36948.9
868.1363	1216.6715	37776.65	36833.95
868.2809	1218.5903	37671.8	36729.9
868.4255	1220.5084	37451.45	36509.75
