Software Version:	3.9.2.0
Unit SN:	10000200
Spectrometer SN:	6960
Date:	3/26/2024 1:22:49 PM
Data Line Index:	25
Spectral Points:	2048
Integration time (ms):	125
Averages:	20
Delay (ms):	30000
Sequence Number:	1
Processing:	dark subtract
Laser Power (mW):	300
Laser Current (mA):	822
Laser Diode Temp (C):	25.1
Laser Case Temp (C):	26.6
System Temp (C):	26.6
Spectrometer Temp (C):	24.3
CCD Temp (C):	0.008
Secondary Temp (C):	20.007
Heatsink Temp (C):	22.023
CCDPCB Temp (C):	36.462
SecondaryPCB Temp (C):	33.228

Wavelength	RamanShift	Raw Counts	Dark Subtracted
787.061	30.1047	456.2	46
787.2016	32.3739	456.85	47.45
787.3422	34.6426	459	48.25
787.4828	36.9109	467.3	54.4
787.6235	39.1787	475.4	59.2
787.7642	41.4461	481.75	60.65
787.9049	43.7131	489.35	66.3
788.0456	45.9796	496.5	68.35
788.1863	48.2456	501.8	70.5
788.3271	50.5112	512.7	74.9
788.4679	52.7764	521.4	84.75
788.6087	55.0411	525.85	87.25
788.7496	57.3054	535.8	89.7
788.8904	59.5692	544.6	97.9
789.0313	61.8326	555.75	103.9
789.1722	64.0955	568.55	113.45
789.3132	66.3579	583.1	122.35
789.4541	68.6199	600.6	137.8
789.5951	70.8815	621.6	157.05
789.7361	73.1426	670.25	201.85
789.8771	75.4032	797.1	321.45
790.0181	77.6634	1105.95	625.75
790.1592	79.9231	1848.75	1366.3
790.3003	82.1824	3448.85	2960.1
790.4414	84.4412	6325.3	5832.1
790.5825	86.6995	10411.8	9907.35
790.7237	88.9574	14544.05	14035.5
790.8648	91.2148	17650.15	17133.9
791.006	93.4717	19400.2	18878.45
791.1472	95.7282	20144	19621.75
791.2885	97.9842	20511.25	19984.85
791.4297	100.2398	20593.45	20065.6
791.571	102.4949	20619	20084.85
791.7123	104.7495	20513.5	19974.9
791.8536	107.0036	20499.9	19963.85
791.9949	109.2573	20463.8	19926.5
792.1363	111.5105	20375.75	19837.15
792.2777	113.7632	20303.5	19762.75
792.4191	116.0154	20345.75	19793.4
792.5605	118.2672	20371	19825.4
792.7019	120.5185	20377.45	19832.5
792.8434	122.7693	20364.65	19818.2
792.9849	125.0197	20384.35	19833.5
793.1264	127.2696	20339.8	19787.85
793.2679	129.519	20377.25	19822
793.4094	131.7679	20395.35	19834.6
793.551	134.0163	20435.1	19869.05
793.6926	136.2642	20438.25	19870.2
793.8342	138.5117	20410.8	19833.8
793.9758	140.7587	20362	19788.65
794.1175	143.0052	20355.25	19780.35
794.2591	145.2512	20297.05	19723.45
794.4008	147.4967	20254.15	19679.5
794.5425	149.7417	20200.45	19623.05
794.6842	151.9863	20171	19589.8
794.826	154.2304	20157.7	19572.25
794.9677	156.4739	20066.55	19476
795.1095	158.717	20079.05	19485.95
795.2513	160.9596	20067.8	19471.6
795.3931	163.2017	20014.2	19416.35
795.535	165.4433	19959.55	19360.45
795.6768	167.6844	19893.2	19290.65
795.8187	169.925	19892.05	19287.3
795.9606	172.1651	19793.5	19184.1
796.1025	174.4047	19797.65	19185.55
796.2445	176.6439	19755.95	19140.05
796.3864	178.8825	19715.45	19097.95
796.5284	181.1206	19707.25	19086.6
796.6704	183.3582	19718	19095.05
796.8124	185.5954	19673.05	19047.35
796.9544	187.832	19641.35	19012.1
797.0965	190.0681	19659.15	19027.55
797.2386	192.3037	19670.1	19034.85
797.3806	194.5388	19663.4	19023.4
797.5228	196.7734	19678.1	19034.95
797.6649	199.0075	19673.45	19028.7
797.807	201.2411	19739.5	19092.9
797.9492	203.4742	19739.35	19092.8
798.0914	205.7068	19822.45	19173.45
798.2336	207.9389	19797.45	19147.25
798.3758	210.1704	19831.7	19179.9
798.518	212.4015	19795.7	19140.4
798.6603	214.632	19809.6	19155.4
798.8025	216.862	19800.15	19154.5
798.9448	219.0915	19758.4	19114.8
799.0871	221.3205	19758.85	19119
799.2294	223.549	19806.65	19171.5
799.3718	225.777	19782.1	19145.7
799.5141	228.0044	19805.45	19167.7
799.6565	230.2314	19818.8	19182.05
799.7989	232.4578	19790.1	19153
799.9413	234.6837	19782.1	19136.05
800.0837	236.909	19771.75	19125.55
800.2262	239.1339	19748.6	19077.2
800.3687	241.3582	19763.5	19104.9
800.5111	243.582	19731.45	19044.1
800.6536	245.8053	19730.5	19054.95
800.7961	248.0281	19701.4	19032.05
800.9387	250.2503	19682.1	19007.1
801.0812	252.472	19707.6	19027.35
801.2238	254.6932	19707	19024.9
801.3664	256.9139	19653.05	18966.85
801.509	259.134	19649.5	18960.65
801.6516	261.3536	19645.05	18959.7
801.7942	263.5727	19680.4	18991.35
801.9369	265.7912	19632.45	18945.2
802.0795	268.0092	19637.05	18950.3
802.2222	270.2267	19640	18951.3
802.3649	272.4436	19612.75	18921.9
802.5076	274.6601	19610.7	18911.8
802.6504	276.8759	19591.25	18897
802.7931	279.0913	19633.95	18934.85
802.9359	281.3061	19577.75	18877.9
803.0787	283.5204	19609.8	18910.55
803.2215	285.7341	19648.55	18945.15
803.3643	287.9473	19656.55	18942.5
803.5071	290.16	19589.1	18877.35
803.6499	292.3721	19536.15	18829
803.7928	294.5837	19516.95	18810.95
803.9357	296.7947	19475.9	18770.3
804.0786	299.0052	19462.95	18755
804.2215	301.2152	19437.15	18725.8
804.3644	303.4246	19439.65	18730.7
804.5074	305.6334	19363.55	18657.8
804.6503	307.8418	19310.75	18600.75
804.7933	310.0495	19267.55	18554.95
804.9363	312.2568	19213.4	18502.75
805.0793	314.4635	19100	18385.95
805.2223	316.6696	19049.3	18332.85
805.3653	318.8752	18985.15	18260.9
805.5084	321.0802	18923.8	18206.35
805.6514	323.2847	18899.75	18180.9
805.7945	325.4887	18869.7	18151.2
805.9376	327.692	18836.5	18116.9
806.0807	329.8949	18884.45	18161.75
806.2238	332.0972	18855.05	18134.05
806.367	334.2989	18826.95	18098.4
806.5101	336.5001	18783.15	18057.4
806.6533	338.7007	18746.6	18019.55
806.7965	340.9008	18761.25	18029.35
806.9397	343.1003	18698.5	17967.7
807.0829	345.2992	18661.35	17926.6
807.2261	347.4976	18633.9	17900.25
807.3693	349.6955	18606.45	17868.9
807.5126	351.8927	18652.8	17913.25
807.6559	354.0895	18535.5	17785.5
807.7991	356.2856	18583.7	17843.25
807.9424	358.4812	18503.6	17763
808.0857	360.6763	18506.05	17765.75
808.2291	362.8707	18474.5	17730.95
808.3724	365.0646	18487.65	17742
808.5158	367.258	18457.9	17710
808.6591	369.4508	18369.9	17616.15
808.8025	371.643	18394.8	17643.7
808.9459	373.8346	18325.85	17573.85
809.0893	376.0257	18292.85	17534.5
809.2327	378.2162	18308.2	17550.55
809.3762	380.4062	18290.25	17531.7
809.5196	382.5956	18197.3	17436.55
809.6631	384.7844	18192.35	17431.6
809.8066	386.9726	18109.25	17349.15
809.9501	389.1603	18038	17280.65
810.0936	391.3474	18060.8	17267.1
810.2371	393.5339	18035	17273.7
810.3806	395.7199	17914.25	17159.55
810.5241	397.9052	17924.3	17174.7
810.6677	400.09	17933.4	17180.4
810.8113	402.2743	17910.25	17156.65
810.9548	404.4579	17871.45	17117.25
811.0984	406.641	17920.9	17167.1
811.2421	408.8235	17904.8	17151.35
811.3857	411.0054	17950.85	17192.5
811.5293	413.1868	18011.6	17251.85
811.673	415.3675	18044.4	17282
811.8166	417.5477	18019.75	17258.05
811.9603	419.7273	17937.9	17170.8
812.104	421.9064	17824.8	17052.2
812.2477	424.0848	17755.8	16985.55
812.3914	426.2627	17683.7	16911.4
812.5351	428.4399	17661.25	16886.3
812.6788	430.6166	17575.55	16799.8
812.8226	432.7928	17511.55	16735.1
812.9663	434.9683	17460.6	16685.95
813.1101	437.1432	17406.6	16627.2
813.2539	439.3176	17308.05	16529.2
813.3977	441.4914	17240.1	16458.6
813.5415	443.6645	17224.8	16441
813.6853	445.8371	17194.95	16411.3
813.8291	448.0091	17122.25	16338.5
813.973	450.1806	17030.85	16247.3
814.1168	452.3514	17004.45	16218.3
814.2607	454.5216	16982.75	16192.35
814.4046	456.6913	16891.3	16103.1
814.5485	458.8603	16866.8	16082.6
814.6924	461.0288	16918.45	16133.65
814.8363	463.1967	16819.45	16031.35
814.9802	465.3639	16852.3	16064.95
815.1241	467.5306	16795.5	16006.3
815.2681	469.6967	16799.15	16010.15
815.412	471.8622	16737.25	15948.25
815.556	474.0271	16702.85	15913.8
815.7	476.1914	16704.9	15911.6
815.844	478.3551	16682.5	15894
815.988	480.5182	16691.7	15900.1
816.132	482.6807	16700.2	15908.25
816.276	484.8426	16705.3	15917.5
816.4201	487.0039	16743.8	15952.75
816.5641	489.1647	16788.5	15992.1
816.7082	491.3248	16815.15	16019.9
816.8522	493.4843	16771.75	15978
816.9963	495.6432	16742.25	15946.75
817.1404	497.8015	16663.8	15864.7
817.2845	499.9592	16674.1	15877.05
817.4286	502.1163	16653.7	15855
817.5727	504.2728	16567.15	15768.45
817.7168	506.4287	16561.95	15762.6
817.861	508.5839	16532.1	15735.05
818.0051	510.7386	16513.1	15713
818.1493	512.8927	16538.4	15732.7
818.2935	515.0461	16507.05	15706.95
818.4377	517.199	16475.35	15674
818.5818	519.3512	16473	15671.8
818.726	521.5029	16508.65	15699.8
818.8703	523.6539	16493.4	15688.1
819.0145	525.8043	16496.45	15691.55
819.1587	527.9541	16471.05	15666
819.303	530.1033	16406.2	15599.85
819.4472	532.2519	16368.7	15562.8
819.5915	534.3999	16380.65	15571.5
819.7357	536.5472	16348.8	15543.15
819.88	538.694	16318.35	15508.95
820.0243	540.8401	16359.25	15549.25
820.1686	542.9856	16347.3	15535.9
820.3129	545.1305	16330.3	15516.5
820.4572	547.2748	16354.8	15542.95
820.6016	549.4185	16337.9	15523.05
820.7459	551.5615	16284.95	15470.45
820.8902	553.704	16315.1	15499.6
821.0346	555.8458	16267.35	15453.35
821.1789	557.987	16281.25	15468.7
821.3233	560.1276	16253.9	15438.35
821.4677	562.2675	16307.1	15493.8
821.6121	564.4069	16287	15471.25
821.7565	566.5456	16257.4	15443.3
821.9009	568.6837	16267.6	15453.6
822.0453	570.8212	16190.15	15375.85
822.1897	572.958	16123.05	15306.95
822.3342	575.0942	16082.5	15268.75
822.4786	577.2299	16011.15	15196.85
822.6231	579.3648	15966.25	15153.7
822.7675	581.4992	15852.55	15040.8
822.912	583.6329	15854.15	15039.5
823.0565	585.766	15829.3	15016
823.201	587.8985	15780.3	14966.1
823.3454	590.0304	15774.7	14945.1
823.4899	592.1616	15727.15	14906.55
823.6345	594.2922	15757.1	14938.35
823.779	596.4222	15698.8	14876.8
823.9235	598.5515	15640.1	14817.85
824.068	600.6802	15577.05	14756.35
824.2126	602.8083	15487.6	14665.1
824.3571	604.9358	15459.2	14634.7
824.5017	607.0626	15452.65	14630.6
824.6462	609.1888	15446.7	14620.9
824.7908	611.3144	15460.05	14633.4
824.9354	613.4393	15409.25	14583.6
825.08	615.5636	15426.4	14602.2
825.2246	617.6873	15449.4	14624.2
825.3692	619.8103	15459.05	14630
825.5138	621.9327	15424.4	14596.15
825.6584	624.0544	15379.4	14553.65
825.803	626.1756	15359.3	14534.4
825.9477	628.2961	15305.4	14478.25
826.0923	630.4159	15272.1	14443.95
826.237	632.5351	15293.5	14464.75
826.3816	634.6537	15247.5	14419.45
826.5263	636.7716	15269.65	14438.9
826.6709	638.8889	15229.05	14397.95
826.8156	641.0056	15258.45	14427.35
826.9603	643.1216	15217.15	14386.1
827.105	645.237	15248.55	14416.45
827.2497	647.3518	15196.25	14364.5
827.3944	649.4659	15196.65	14366.45
827.5391	651.5793	15131.25	14301.45
827.6838	653.6922	15096.7	14264.6
827.8285	655.8043	15063.45	14228.6
827.9733	657.9159	15077.1	14244.35
828.118	660.0268	15041.35	14204.75
828.2627	662.137	14985.6	14150.7
828.4075	664.2466	15001.45	14164.3
828.5522	666.3556	14989.95	14154.2
828.697	668.4639	14928.65	14090.2
828.8418	670.5716	14932.35	14098.2
828.9865	672.6786	14955.45	14119.2
829.1313	674.785	14912.5	14072.9
829.2761	676.8907	14858.9	14022.05
829.4209	678.9958	14847.1	14011.6
829.5657	681.1002	14780	13942.3
829.7105	683.204	14762.15	13921.2
829.8553	685.3072	14751.35	13912.15
830.0001	687.4097	14743.8	13906.35
830.1449	689.5115	14730.75	13892.35
830.2898	691.6127	14731.4	13891.6
830.4346	693.7132	14681.85	13840.6
830.5794	695.8131	14726.35	13860.6
830.7243	697.9123	14708.2	13866.1
830.8691	700.0109	14666.45	13823.2
831.014	702.1089	14620.95	13777.35
831.1588	704.2061	14603.6	13761.45
831.3037	706.3028	14601.6	13758.1
831.4486	708.3987	14630.2	13788.4
831.5935	710.4941	14580.9	13738.85
831.7383	712.5887	14585	13738.9
831.8832	714.6827	14576	13726.45
832.0281	716.7761	14525.45	13682.5
832.173	718.8688	14545.55	13701.7
832.3179	720.9608	14537.85	13689.1
832.4628	723.0522	14573.25	13726.95
832.6077	725.1429	14524.8	13681.45
832.7527	727.233	14501.45	13655.35
832.8976	729.3224	14537.45	13691.7
833.0425	731.4112	14510.7	13662.7
833.1874	733.4993	14471.4	13621.8
833.3324	735.5867	14404.35	13556.25
833.4773	737.6735	14365.65	13513.95
833.6222	739.7596	14325.7	13476.9
833.7672	741.845	14299.55	13451.75
833.9122	743.9298	14224.35	13374.4
834.0571	746.014	14233.45	13384.5
834.2021	748.0974	14237.4	13387.45
834.347	750.1802	14209.9	13360.65
834.492	752.2624	14158.15	13308.3
834.637	754.3439	14099.2	13246.95
834.782	756.4247	14050.85	13191.3
834.9269	758.5048	14027.8	13176.25
835.0719	760.5843	14001.7	13150.45
835.2169	762.6631	13915.45	13063.9
835.3619	764.7413	13936.3	13084.85
835.5069	766.8188	14012.8	13158.9
835.6519	768.8956	13980.5	13127.25
835.7969	770.9718	14002.25	13149.75
835.9419	773.0473	13957.25	13104.05
836.0869	775.1221	13928.5	13074.2
836.232	777.1962	13851.3	12999.35
836.377	779.2697	13824.75	12969.15
836.522	781.3426	13832.05	12959.35
836.667	783.4147	13799.15	12944.3
836.8121	785.4862	13802.25	12948.85
836.9571	787.557	13739.05	12882.1
837.1021	789.6271	13656.55	12801.75
837.2472	791.6966	13571.45	12716.95
837.3922	793.7654	13491.5	12637.05
837.5373	795.8335	13446.1	12589.8
837.6823	797.901	13391.3	12535.3
837.8274	799.9678	13364.9	12509.3
837.9724	802.0339	13313.6	12459
838.1175	804.0993	13337.5	12472.75
838.2626	806.1641	13269.65	12410.6
838.4076	808.2282	13235.8	12380
838.5527	810.2916	13223.65	12361.95
838.6978	812.3544	13205.05	12349.6
838.8428	814.4164	13160.95	12305
838.9879	816.4778	13147.25	12289.5
839.133	818.5385	13124.75	12266.6
839.2781	820.5986	13104.8	12245.5
839.4232	822.658	13106.95	12246.9
839.5682	824.7166	13105.25	12249.65
839.7133	826.7747	13140.2	12282.15
839.8584	828.832	13145.9	12286.7
840.0035	830.8886	13127.2	12266.2
840.1486	832.9446	13102.55	12244.4
840.2937	834.9999	13034.25	12178.25
840.4388	837.0545	13014.75	12152.2
840.5839	839.1085	12960	12099.85
840.729	841.1618	12905.8	12044.2
840.8741	843.2143	12871.45	12011.05
841.0192	845.2662	12791.4	11930.4
841.1643	847.3175	12767.9	11908.7
841.3095	849.368	12718.6	11858.5
841.4546	851.4179	12714.2	11853.85
841.5997	853.467	12634	11772.5
841.7448	855.5155	12609.8	11750.5
841.8899	857.5633	12601.7	11742
842.0351	859.6105	12556.5	11696.25
842.1802	861.6569	12518.85	11654.45
842.3253	863.7027	12476.6	11613.5
842.4704	865.7478	12465.95	11601.7
842.6156	867.7922	12409.7	11547.35
842.7607	869.8359	12394.6	11533.15
842.9058	871.8789	12382.9	11519.8
843.0509	873.9212	12385.7	11492.55
843.1961	875.9629	12313.95	11450.6
843.3412	878.0039	12307.35	11443.3
843.4863	880.0441	12310.95	11447.35
843.6315	882.0837	12293.75	11431.8
843.7766	884.1226	12261.1	11396.1
843.9218	886.1609	12249.45	11386.65
844.0669	888.1984	12271.8	11408.7
844.212	890.2352	12290.65	11427.55
844.3572	892.2714	12239.8	11372.1
844.5023	894.3069	12224.3	11357.4
844.6475	896.3416	12145.15	11280.6
844.7926	898.3757	12110	11245.45
844.9377	900.4091	12065.35	11199.65
845.0829	902.4418	12019.45	11149
845.228	904.4739	11971.65	11101.75
845.3732	906.5052	12005.8	11139.65
845.5183	908.5358	11947.15	11079.6
845.6635	910.5658	11890.85	11021.6
845.8086	912.595	11872.85	11007.45
845.9538	914.6236	11805.25	10938.85
846.0989	916.6515	11784	10919.1
846.2441	918.6786	11737.6	10871.3
846.3892	920.7051	11708.8	10841.1
846.5344	922.7309	11693.55	10826.05
846.6795	924.756	11600.4	10731.4
846.8246	926.7804	11618.1	10749.95
846.9698	928.8041	11509	10640.15
847.1149	930.8272	11524.65	10656.8
847.2601	932.8495	11468	10600.05
847.4052	934.8711	11438.95	10569.1
847.5504	936.892	11393.5	10524.05
847.6955	938.9123	11360.05	10490.85
847.8407	940.9318	11350.1	10480.1
847.9858	942.9506	11303.9	10433.3
848.131	944.9688	11260.5	10390.15
848.2761	946.9862	11220.55	10352.8
848.4213	949.003	11167.25	10299.2
848.5664	951.019	11104.4	10235.5
848.7115	953.0344	11068.45	10199.05
848.8567	955.0491	11012.85	10142.95
849.0018	957.063	11023.9	10152.5
849.147	959.0763	11005	10130.3
849.2921	961.0888	10984.35	10111.1
849.4373	963.1007	10953.65	10083.8
849.5824	965.1119	10937	10067.3
849.7275	967.1223	10905.7	10035.4
849.8727	969.1321	10848.85	9980.45
850.0178	971.1412	10842.4	9974.7
850.1629	973.1495	10793.05	9922.95
850.3081	975.1572	10785.25	9883.85
850.4532	977.1641	10764.75	9893
850.5983	979.1704	10705	9833.45
850.7435	981.1759	10653.95	9779.85
850.8886	983.1808	10653.2	9781.05
851.0337	985.1849	10607	9731.7
851.1788	987.1884	10561	9688.05
851.324	989.1911	10515.7	9642.5
851.4691	991.1932	10515.45	9641.15
851.6142	993.1945	10448.75	9575.3
851.7593	995.1951	10385.15	9512.15
851.9045	997.1951	10398.95	9521.85
852.0496	999.1943	10336.9	9467.1
852.1947	1001.1928	10290	9416.5
852.3398	1003.1906	10218.95	9348.55
852.4849	1005.1877	10213.05	9338.75
852.63	1007.1841	10207.85	9331.7
852.7751	1009.1798	10152.8	9281.85
852.9202	1011.1748	10097.1	9223.1
853.0653	1013.1691	10055.6	9181.4
853.2104	1015.1627	10004	9130.75
853.3555	1017.1556	9919.55	9045.35
853.5006	1019.1477	9872.35	8998.5
853.6457	1021.1392	9817.55	8946.7
853.7908	1023.1299	9756.05	8883.95
853.9359	1025.12	9728.45	8851.3
854.081	1027.1093	9688.2	8819.2
854.2261	1029.0979	9626.2	8758.45
854.3712	1031.0859	9619.6	8749.55
854.5163	1033.0731	9563.5	8690.2
854.6613	1035.0596	9537.7	8665.45
854.8064	1037.0454	9482.25	8607.55
854.9515	1039.0304	9452.35	8578.7
855.0965	1041.0148	9399.95	8527.9
855.2416	1042.9985	9355.15	8478.75
855.3867	1044.9814	9327.95	8455.8
855.5317	1046.9636	9286.05	8408.85
855.6768	1048.9452	9241.7	8366.2
855.8219	1050.926	9224.45	8350.5
855.9669	1052.9061	9177.95	8304.4
856.112	1054.8855	9124.35	8249.8
856.257	1056.8642	9118.95	8246.1
856.4021	1058.8421	9119.8	8241.3
856.5471	1060.8194	9074.85	8200.35
856.6921	1062.7959	9040.95	8166.8
856.8372	1064.7717	9022.95	8146.3
856.9822	1066.7469	8986.6	8109.55
857.1272	1068.7213	8946	8068.05
857.2723	1070.695	8946.9	8072.3
857.4173	1072.6679	8899.9	8022.1
857.5623	1074.6402	8888.9	8012.85
857.7073	1076.6117	8883.5	8001.65
857.8523	1078.5826	8853.95	7976.2
857.9973	1080.5527	8775.6	7898.15
858.1423	1082.5221	8738.05	7860.8
858.2873	1084.4908	8701.45	7823.7
858.4323	1086.4587	8688.8	7813.35
858.5773	1088.426	8625.45	7748.25
858.7223	1090.3925	8593.05	7713.15
858.8673	1092.3584	8581.05	7706.3
859.0123	1094.3235	8515.7	7640.1
859.1573	1096.2879	8493.5	7615.4
859.3022	1098.2515	8481.15	7606.3
859.4472	1100.2145	8494.9	7619.1
859.5922	1102.1767	8485.25	7606.9
859.7371	1104.1382	8451.95	7574.35
859.8821	1106.099	8445.2	7566.25
860.027	1108.0591	8452.5	7574.35
860.172	1110.0185	8422.9	7544.55
860.3169	1111.9771	8428.95	7550.85
860.4619	1113.9351	8387.15	7511.5
860.6068	1115.8923	8358.25	7480.25
860.7517	1117.8488	8365.25	7484.35
860.8967	1119.8045	8289.95	7412.95
861.0416	1121.7596	8224.35	7345.45
861.1865	1123.7139	8150.2	7273.1
861.3314	1125.6675	8115.3	7239.1
861.4763	1127.6204	8112.5	7237.05
861.6212	1129.5726	8065.15	7184.15
861.7661	1131.524	8064.5	7187.65
861.911	1133.4748	8005.75	7128.75
862.0559	1135.4248	7942.1	7062.75
862.2008	1137.3741	7893.75	7017.05
862.3457	1139.3226	7867.65	6987.9
862.4905	1141.2705	7864.5	6984.25
862.6354	1143.2176	7804.15	6918.55
862.7803	1145.164	7775.5	6894.25
862.9251	1147.1097	7753.3	6873.6
863.07	1149.0546	7737.65	6856.55
863.2148	1150.9989	7719.05	6839.65
863.3597	1152.9424	7669.15	6789.5
863.5045	1154.8852	7633.25	6754.1
863.6493	1156.8272	7629.5	6751.9
863.7942	1158.7686	7595.85	6709.8
863.939	1160.7092	7558.4	6678.25
864.0838	1162.6491	7540.35	6657.75
864.2286	1164.5883	7515.9	6638
864.3734	1166.5267	7518.4	6637.6
864.5182	1168.4644	7524.8	6644.6
864.663	1170.4014	7494.25	6610.5
864.8078	1172.3377	7527.3	6650.9
864.9526	1174.2732	7503.75	6625.95
865.0974	1176.2081	7541.45	6663
865.2421	1178.1421	7571.25	6687.7
865.3869	1180.0755	7598.7	6721
865.5317	1182.0082	7617.5	6739.7
865.6764	1183.9401	7591.25	6713.15
865.8212	1185.8713	7537.85	6658.1
865.9659	1187.8017	7466	6587
866.1106	1189.7315	7405.6	6529.1
866.2554	1191.6605	7303.55	6425.5
866.4001	1193.5888	7231.1	6352.05
866.5448	1195.5163	7194.65	6317.25
