Software Version:	3.9.2.0
Unit SN:	10000200
Spectrometer SN:	6960
Date:	3/26/2024 2:57:46 PM
Data Line Index:	25
Spectral Points:	2048
Integration time (ms):	125
Averages:	20
Delay (ms):	30000
Sequence Number:	1
Processing:	dark subtract
Laser Power (mW):	305
Laser Current (mA):	820
Laser Diode Temp (C):	25
Laser Case Temp (C):	28
System Temp (C):	28.1
Spectrometer Temp (C):	25.9
CCD Temp (C):	0.005
Secondary Temp (C):	20.007
Heatsink Temp (C):	23.39
CCDPCB Temp (C):	37.619
SecondaryPCB Temp (C):	34.951

Wavelength	RamanShift	Raw Counts	Dark Subtracted
787.061	30.1047	410.15	-0.45
787.2016	32.3739	407.35	-1.05
787.3422	34.6426	408	0.15
787.4828	36.9109	412.4	1.55
787.6235	39.1787	415.55	2.5
787.7642	41.4461	419.9	0.05
787.9049	43.7131	424.05	1.9
788.0456	45.9796	427.5	1.5
788.1863	48.2456	430.3	-0.05
788.3271	50.5112	436.35	1.2
788.4679	52.7764	440.5	3.65
788.6087	55.0411	441.55	1.4
788.7496	57.3054	446.6	-0.75
788.8904	59.5692	450.5	1.75
789.0313	61.8326	456.85	3.35
789.1722	64.0955	460.05	4.6
789.3132	66.3579	464.6	4.35
789.4541	68.6199	469.75	6.5
789.5951	70.8815	474.9	7.55
789.7361	73.1426	486.1	15.85
789.8771	75.4032	497.85	21.95
790.0181	77.6634	513.9	33.5
790.1592	79.9231	540.35	56.65
790.3003	82.1824	591.55	101.45
790.4414	84.4412	673.1	172.3
790.5825	86.6995	798.4	286.7
790.7237	88.9574	941	412.5
790.8648	91.2148	1044.3	510.4
791.006	93.4717	1096.85	558.2
791.1472	95.7282	1096.5	552.75
791.2885	97.9842	1094.65	547.75
791.4297	100.2398	1086.65	535.05
791.571	102.4949	1090.1	535.75
791.7123	104.7495	1119.05	562.4
791.8536	107.0036	1119.5	562.4
791.9949	109.2573	1101	543.8
792.1363	111.5105	1076.1	515.35
792.2777	113.7632	1078.6	517.75
792.4191	116.0154	1091.5	519
792.5605	118.2672	1076.25	511.6
792.7019	120.5185	1092.2	525.75
792.8434	122.7693	1080.8	511.85
792.9849	125.0197	1085.45	511.1
793.1264	127.2696	1074.15	498.5
793.2679	129.519	1075.55	495.45
793.4094	131.7679	1084.6	502.95
793.551	134.0163	1068.55	484.65
793.6926	136.2642	1081.95	492.3
793.8342	138.5117	1095.3	501.45
793.9758	140.7587	1086.8	493.7
794.1175	143.0052	1082.6	486.35
794.2591	145.2512	1075.9	480.6
794.4008	147.4967	1074	475.95
794.5425	149.7417	1072.25	471
794.6842	151.9863	1083.25	479
794.826	154.2304	1093	486.8
794.9677	156.4739	1085.65	474.75
795.1095	158.717	1085.5	472.75
795.2513	160.9596	1087.1	469.75
795.3931	163.2017	1094.45	474.8
795.535	165.4433	1094.4	472.7
795.6768	167.6844	1087.7	465.75
795.8187	169.925	1086.1	457.45
795.9606	172.1651	1093	462.4
796.1025	174.4047	1091.2	458.6
796.2445	176.6439	1095.05	460.35
796.3864	178.8825	1091.2	453.85
796.5284	181.1206	1097.8	453.4
796.6704	183.3582	1105.4	458.55
796.8124	185.5954	1106.65	459.45
796.9544	187.832	1113.1	459.55
797.0965	190.0681	1115.55	462.35
797.2386	192.3037	1118.35	461.15
797.3806	194.5388	1119.15	456.8
797.5228	196.7734	1117.25	453.15
797.6649	199.0075	1130.95	464.5
797.807	201.2411	1137.5	466.85
797.9492	203.4742	1128.2	460.6
798.0914	205.7068	1135.7	464.95
798.2336	207.9389	1132.65	461.25
798.3758	210.1704	1136.2	462.8
798.518	212.4015	1136.9	460.6
798.6603	214.632	1135.5	458.45
798.8025	216.862	1118.15	455.45
798.9448	219.0915	1119.75	461.75
799.0871	221.3205	1122.55	462.65
799.2294	223.549	1114.55	459.55
799.3718	225.777	1119.55	464.4
799.5141	228.0044	1124.7	465.15
799.6565	230.2314	1113.35	458.45
799.7989	232.4578	1122.2	461.15
799.9413	234.6837	1124.7	459.05
800.0837	236.909	1132.85	466.25
800.2262	239.1339	1156.15	465.7
800.3687	241.3582	1140.85	464.9
800.5111	243.582	1171.3	460.55
800.6536	245.8053	1154.95	460.8
800.7961	248.0281	1154.95	463.3
800.9387	250.2503	1168.8	472.45
801.0812	252.472	1170.2	468.2
801.2238	254.6932	1171.5	470.2
801.3664	256.9139	1169.8	465.35
801.509	259.134	1167.35	460.85
801.6516	261.3536	1179.65	475.05
801.7942	263.5727	1178.35	469.3
801.9369	265.7912	1169.85	462.55
802.0795	268.0092	1170.9	464
802.2222	270.2267	1177.35	469.15
802.3649	272.4436	1176.2	466.25
802.5076	274.6601	1178.75	460.9
802.6504	276.8759	1175.65	463.9
802.7931	279.0913	1178.6	464.3
802.9359	281.3061	1179.95	462
803.0787	283.5204	1189.35	471.1
803.2215	285.7341	1187.05	464.9
803.3643	287.9473	1203.8	471.6
803.5071	290.16	1195.5	465.4
803.6499	292.3721	1190.95	464.05
803.7928	294.5837	1193.35	470.1
803.9357	296.7947	1192.4	467.75
804.0786	299.0052	1194.6	467.25
804.2215	301.2152	1196.1	467.05
804.3644	303.4246	1187.3	461
804.5074	305.6334	1186	462.1
804.6503	307.8418	1196.5	472.5
804.7933	310.0495	1196.2	462.45
804.9363	312.2568	1195.5	465.95
805.0793	314.4635	1204.7	470.75
805.2223	316.6696	1197.8	463.4
805.3653	318.8752	1206	466.05
805.5084	321.0802	1196.25	461.35
805.6514	323.2847	1204	465.35
805.7945	325.4887	1200	464.7
805.9376	327.692	1203.2	462.3
806.0807	329.8949	1207.2	466.75
806.2238	332.0972	1205.8	465.05
806.367	334.2989	1213.6	467
806.5101	336.5001	1215.2	468.8
806.6533	338.7007	1213	465.65
806.7965	340.9008	1210.35	461.55
806.9397	343.1003	1215.2	466.65
807.0829	345.2992	1215.3	464.35
807.2261	347.4976	1217.75	465.45
807.3693	349.6955	1221.3	462.5
807.5126	351.8927	1228.4	470.7
807.6559	354.0895	1230.55	459.2
807.7991	356.2856	1223.8	465.2
807.9424	358.4812	1227.3	469.3
808.0857	360.6763	1229.2	469.05
808.2291	362.8707	1223.75	463.6
808.3724	365.0646	1222.45	457.4
808.5158	367.258	1225.4	459.7
808.6591	369.4508	1228.3	458.8
808.8025	371.643	1238.85	467.7
808.9459	373.8346	1242.55	471.45
809.0893	376.0257	1253.1	479.3
809.2327	378.2162	1257	485.1
809.3762	380.4062	1256.05	478.2
809.5196	382.5956	1246.55	470.5
809.6631	384.7844	1244.55	469.9
809.8066	386.9726	1234.25	459.5
809.9501	389.1603	1243	468.35
810.0936	391.3474	1274.9	459.15
810.2371	393.5339	1234.6	459.25
810.3806	395.7199	1231.65	459.65
810.5241	397.9052	1223.75	456.5
810.6677	400.09	1226.8	456.95
810.8113	402.2743	1226.7	454.9
810.9548	404.4579	1222.25	453.9
811.0984	406.641	1230.95	462.4
811.2421	408.8235	1238.25	467.8
811.3857	411.0054	1247.1	475.4
811.5293	413.1868	1313.6	537.3
811.673	415.3675	1392.05	611.85
811.8166	417.5477	1423.4	643.8
811.9603	419.7273	1374.55	593.65
812.104	421.9064	1300.15	512.85
812.2477	424.0848	1270.8	486.75
812.3914	426.2627	1267.9	482.45
812.5351	428.4399	1277	488.15
812.6788	430.6166	1279	488.25
812.8226	432.7928	1276.6	483.1
812.9663	434.9683	1264.45	473.8
813.1101	437.1432	1261.6	466.8
813.2539	439.3176	1249.75	457.5
813.3977	441.4914	1243.75	451.65
813.5415	443.6645	1249.8	455.6
813.6853	445.8371	1260.15	465.25
813.8291	448.0091	1264.05	469.75
813.973	450.1806	1250.25	457
814.1168	452.3514	1246	449.2
814.2607	454.5216	1243.3	436.35
814.4046	456.6913	1232.9	434.55
814.5485	458.8603	1232.7	433.25
814.6924	461.0288	1223.15	428.05
814.8363	463.1967	1221.15	424.5
814.9802	465.3639	1232.35	431
815.1241	467.5306	1229.25	427.95
815.2681	469.6967	1225.7	425.55
815.412	471.8622	1223.55	424.95
815.556	474.0271	1223.05	422.9
815.7	476.1914	1230.55	424.45
815.844	478.3551	1227.05	424.25
815.988	480.5182	1220.15	416.85
816.132	482.6807	1219.55	416.85
816.276	484.8426	1207.35	408.4
816.4201	487.0039	1212.85	412.5
816.5641	489.1647	1222.9	419.15
816.7082	491.3248	1231.55	426.3
816.8522	493.4843	1226.9	422.8
816.9963	495.6432	1223.9	420.6
817.1404	497.8015	1235.4	425.05
817.2845	499.9592	1239.75	428.05
817.4286	502.1163	1235.6	425.45
817.5727	504.2728	1225.25	415.2
817.7168	506.4287	1219.9	416.1
817.861	508.5839	1218.6	411
818.0051	510.7386	1227.55	419.25
818.1493	512.8927	1241.35	421.45
818.2935	515.0461	1236.1	423.9
818.4377	517.199	1235.7	422.5
818.5818	519.3512	1235.35	422.2
818.726	521.5029	1234.8	417.8
818.8703	523.6539	1228.2	416.1
819.0145	525.8043	1233.65	416.55
819.1587	527.9541	1235.4	418.05
819.303	530.1033	1230.8	413.1
819.4472	532.2519	1228.7	413.4
819.5915	534.3999	1228.85	413.3
819.7357	536.5472	1225.7	408.45
819.88	538.694	1228	412.8
820.0243	540.8401	1229.7	410.65
820.1686	542.9856	1241.5	419.35
820.3129	545.1305	1248.55	422.3
820.4572	547.2748	1247.1	422.5
820.6016	549.4185	1253.9	425.75
820.7459	551.5615	1250.2	422.1
820.8902	553.704	1249.05	423.65
821.0346	555.8458	1240.65	417.05
821.1789	557.987	1243.45	420.6
821.3233	560.1276	1240.45	413
821.4677	562.2675	1246.95	421.35
821.6121	564.4069	1243.7	417.25
821.7565	566.5456	1241.6	418.05
821.9009	568.6837	1241.4	417.55
822.0453	570.8212	1248.05	421.55
822.1897	572.958	1264.2	436.45
822.3342	575.0942	1273.9	450.6
822.4786	577.2299	1265.55	441.55
822.6231	579.3648	1240.35	419
822.7675	581.4992	1218.5	401.9
822.912	583.6329	1210.9	394.2
823.0565	585.766	1212	389.8
823.201	587.8985	1212.6	390.3
823.3454	590.0304	1230.05	390.65
823.4899	592.1616	1229.95	399.25
823.6345	594.2922	1231.6	402
823.779	596.4222	1228.8	393.6
823.9235	598.5515	1234.5	401.2
824.068	600.6802	1232.85	397.35
824.2126	602.8083	1227.9	394.75
824.3571	604.9358	1225.2	391.15
824.5017	607.0626	1236.5	402.5
824.6462	609.1888	1235.05	397.55
824.7908	611.3144	1238.05	400.2
824.9354	613.4393	1236.05	402
825.08	615.5636	1235.2	398.15
825.2246	617.6873	1236.9	401.4
825.3692	619.8103	1233.25	393.8
825.5138	621.9327	1232.15	392.3
825.6584	624.0544	1233.95	399.1
825.803	626.1756	1223.05	388.5
825.9477	628.2961	1234.8	397.25
826.0923	630.4159	1230.75	393.05
826.237	632.5351	1232.55	392.4
826.3816	634.6537	1235.35	394.15
826.5263	636.7716	1243.15	400.95
826.6709	638.8889	1240.75	399.3
826.8156	641.0056	1244.8	401.95
826.9603	643.1216	1238.8	394.5
827.105	645.237	1237.55	393.45
827.2497	647.3518	1229.6	390.95
827.3944	649.4659	1222.55	382.7
827.5391	651.5793	1219.55	380.4
827.6838	653.6922	1219.65	381.45
827.8285	655.8043	1229.1	385.9
827.9733	657.9159	1227.25	381.85
828.118	660.0268	1229.85	384.55
828.2627	662.137	1230.65	383.95
828.4075	664.2466	1239.5	393.5
828.5522	666.3556	1235.35	390.3
828.697	668.4639	1229.5	384.5
828.8418	670.5716	1221.8	377.5
828.9865	672.6786	1228.75	381.3
829.1313	674.785	1232.6	382.5
829.2761	676.8907	1231.4	386.15
829.4209	678.9958	1225.5	381.85
829.5657	681.1002	1227.6	383.45
829.7105	683.204	1239.05	387.05
829.8553	685.3072	1237.4	387
830.0001	687.4097	1233.45	383.5
830.1449	689.5115	1232.55	377.95
830.2898	691.6127	1228.1	379.65
830.4346	693.7132	1222.35	373.4
830.5794	695.8131	1250.95	384.7
830.7243	697.9123	1236.85	382.15
830.8691	700.0109	1238	385.7
831.014	702.1089	1234.1	382.75
831.1588	704.2061	1235.9	384.25
831.3037	706.3028	1237.75	383.55
831.4486	708.3987	1232.25	378.7
831.5935	710.4941	1230.3	382.4
831.7383	712.5887	1226.15	374
831.8832	714.6827	1232	378
832.0281	716.7761	1223.25	371.15
832.173	718.8688	1229.45	376.2
832.3179	720.9608	1238.9	379.35
832.4628	723.0522	1241.2	383.7
832.6077	725.1429	1235.35	379.4
832.7527	727.233	1236.15	379.95
832.8976	729.3224	1239.2	382.5
833.0425	731.4112	1240.1	384.8
833.1874	733.4993	1238.2	378.7
833.3324	735.5867	1242.8	385.65
833.4773	737.6735	1254.35	399.2
833.6222	739.7596	1262.35	404.95
833.7672	741.845	1264.3	406.3
833.9122	743.9298	1283.2	421.65
834.0571	746.014	1294.1	436.7
834.2021	748.0974	1312.85	451
834.347	750.1802	1318.1	457.6
834.492	752.2624	1307.35	447.1
834.637	754.3439	1292.65	432
834.782	756.4247	1285.8	419
834.9269	758.5048	1263.7	403.4
835.0719	760.5843	1252.65	391.9
835.2169	762.6631	1246.55	386.35
835.3619	764.7413	1239.15	377.55
835.5069	766.8188	1239.8	374.75
835.6519	768.8956	1231.8	369.1
835.7969	770.9718	1233.8	370.1
835.9419	773.0473	1231.9	370.95
836.0869	775.1221	1236.05	374.9
836.232	777.1962	1227.2	362.85
836.377	779.2697	1231.05	368.1
836.522	781.3426	1236.55	362.05
836.667	783.4147	1223.75	360.35
836.8121	785.4862	1223.6	361.7
836.9571	787.557	1226.95	361.15
837.1021	789.6271	1224.95	361.75
837.2472	791.6966	1221.4	354.85
837.3922	793.7654	1218.6	352.15
837.5373	795.8335	1222.15	356.95
837.6823	797.901	1223.05	359.25
837.8274	799.9678	1224.75	360.35
837.9724	802.0339	1227.6	363.8
838.1175	804.0993	1233.6	357.9
838.2626	806.1641	1224.85	356.35
838.4076	808.2282	1222.2	354.35
838.5527	810.2916	1226.85	357
838.6978	812.3544	1217.35	353.2
838.8428	814.4164	1217.6	353.25
838.9879	816.4778	1225.75	356.6
839.133	818.5385	1223.7	357.7
839.2781	820.5986	1223.1	356.7
839.4232	822.658	1226.65	358.45
839.5682	824.7166	1214.8	348
839.7133	826.7747	1218.85	353.05
839.8584	828.832	1216.55	345.35
840.0035	830.8886	1221.65	352.4
840.1486	832.9446	1221	350.2
840.2937	834.9999	1216.1	348.5
840.4388	837.0545	1218.7	347.15
840.5839	839.1085	1222.95	353.6
840.729	841.1618	1223	351.6
840.8741	843.2143	1217.75	349
841.0192	845.2662	1217.1	346.75
841.1643	847.3175	1219.8	350.3
841.3095	849.368	1221.6	351.85
841.4546	851.4179	1221.15	350.6
841.5997	853.467	1220.05	348.2
841.7448	855.5155	1220.45	348.2
841.8899	857.5633	1220.9	352.6
842.0351	859.6105	1227.15	354.55
842.1802	861.6569	1226.55	353.3
842.3253	863.7027	1226.2	356
842.4704	865.7478	1237.75	364.05
842.6156	867.7922	1235.15	363
842.7607	869.8359	1247.65	374.8
842.9058	871.8789	1259.65	386.25
843.0509	873.9212	1308.05	404.7
843.1961	875.9629	1302.6	427.55
843.3412	878.0039	1332.9	460.3
843.4863	880.0441	1363.05	491.8
843.6315	882.0837	1379.55	506.8
843.7766	884.1226	1387.4	513.75
843.9218	886.1609	1365.95	494.05
844.0669	888.1984	1339.2	467.8
844.212	890.2352	1304.6	431.25
844.3572	892.2714	1286.95	411.6
844.5023	894.3069	1263.15	389.2
844.6475	896.3416	1247.7	371.85
844.7926	898.3757	1236.15	361.45
844.9377	900.4091	1236.75	360.7
845.0829	902.4418	1240.55	359.9
845.228	904.4739	1234.7	358
845.3732	906.5052	1221.5	345.3
845.5183	908.5358	1221.4	346.15
845.6635	910.5658	1226.15	347.6
845.8086	912.595	1221.15	343.4
845.9538	914.6236	1220.1	343.75
846.0989	916.6515	1217.55	341.15
846.2441	918.6786	1216.5	338.8
846.3892	920.7051	1217.6	339.85
846.5344	922.7309	1216.15	339.9
846.6795	924.756	1211.4	331.2
846.8246	926.7804	1216.15	337.35
846.9698	928.8041	1215.45	337.9
847.1149	930.8272	1209.25	331.5
847.2601	932.8495	1215.4	336
847.4052	934.8711	1210.25	332.45
847.5504	936.892	1204.75	327.15
847.6955	938.9123	1202	321.9
847.8407	940.9318	1211.2	332.1
847.9858	942.9506	1210.1	329.45
848.131	944.9688	1206.15	325.9
848.2761	946.9862	1205.55	327.55
848.4213	949.003	1206.9	326.45
848.5664	951.019	1202.65	325.4
848.7115	953.0344	1203.8	322.35
848.8567	955.0491	1203.1	324
849.0018	957.063	1209.85	329.65
849.147	959.0763	1207.45	320.8
849.2921	961.0888	1203.9	322.75
849.4373	963.1007	1200	322.95
849.5824	965.1119	1192.95	317.25
849.7275	967.1223	1189.65	314.25
849.8727	969.1321	1188.15	312.45
850.0178	971.1412	1197.75	321.55
850.1629	973.1495	1192.8	314.2
850.3081	975.1572	1235.8	324.5
850.4532	977.1641	1197.65	318.75
850.5983	979.1704	1206.65	324.4
850.7435	981.1759	1198.1	315.3
850.8886	983.1808	1201.3	323.05
851.0337	985.1849	1208.5	316.9
851.1788	987.1884	1200.35	317.35
851.324	989.1911	1198.75	315.55
851.4691	991.1932	1198.95	318.45
851.6142	993.1945	1198.35	317.1
851.7593	995.1951	1198.35	319.6
851.9045	997.1951	1201.4	313.55
852.0496	999.1943	1200.05	317.4
852.1947	1001.1928	1196.05	312.2
852.3398	1003.1906	1195.4	312.85
852.4849	1005.1877	1194.55	310.55
852.63	1007.1841	1194.55	311.95
852.7751	1009.1798	1189.75	308.3
852.9202	1011.1748	1189.45	306.7
853.0653	1013.1691	1189.55	305.3
853.2104	1015.1627	1190.3	308.75
853.3555	1017.1556	1184.65	305
853.5006	1019.1477	1188.95	307.35
853.6457	1021.1392	1182.9	305.65
853.7908	1023.1299	1177.25	297.95
853.9359	1025.12	1173.65	294.5
854.081	1027.1093	1162.45	288.05
854.2261	1029.0979	1163.4	288.9
854.3712	1031.0859	1169.3	293.85
854.5163	1033.0731	1181.4	301.85
854.6613	1035.0596	1188.2	307.6
854.8064	1037.0454	1194.55	311.65
854.9515	1039.0304	1199.9	315.25
855.0965	1041.0148	1198.35	318.45
855.2416	1042.9985	1207.6	323.25
855.3867	1044.9814	1217.2	334.75
855.5317	1046.9636	1222.45	339
855.6768	1048.9452	1225.4	343.85
855.8219	1050.926	1221.65	339.5
855.9669	1052.9061	1226.15	344.05
856.112	1054.8855	1231	346.7
856.257	1056.8642	1224.95	342.45
856.4021	1058.8421	1219.05	332.75
856.5471	1060.8194	1213.45	330.4
856.6921	1062.7959	1201.4	318.4
856.8372	1064.7717	1204	319.15
856.9822	1066.7469	1200.45	316.75
857.1272	1068.7213	1203.15	314.4
857.2723	1070.695	1197.6	313.95
857.4173	1072.6679	1199.4	314.15
857.5623	1074.6402	1200.35	316.25
857.7073	1076.6117	1202.15	313.6
857.8523	1078.5826	1203.65	317.25
857.9973	1080.5527	1204.2	316
858.1423	1082.5221	1207.35	322.9
858.2873	1084.4908	1212.9	328.75
858.4323	1086.4587	1219.65	334.3
858.5773	1088.426	1218.55	331.55
858.7223	1090.3925	1230.4	340.5
858.8673	1092.3584	1234.35	350.25
859.0123	1094.3235	1229.95	346.45
859.1573	1096.2879	1235.25	347.85
859.3022	1098.2515	1232.4	348.2
859.4472	1100.2145	1225.95	342.25
859.5922	1102.1767	1221.6	333.85
859.7371	1104.1382	1212.15	325.3
859.8821	1106.099	1202.95	315.6
860.027	1108.0591	1199.5	314.6
860.172	1110.0185	1198.15	309.8
860.3169	1111.9771	1199.7	312.55
860.4619	1113.9351	1198.75	314.3
860.6068	1115.8923	1190.15	300.65
860.7517	1117.8488	1188.7	303.35
860.8967	1119.8045	1192.35	305.4
861.0416	1121.7596	1184.55	298.75
861.1865	1123.7139	1181.95	296.7
861.3314	1125.6675	1181.55	297.95
861.4763	1127.6204	1184.35	299.25
861.6212	1129.5726	1178	290.65
861.7661	1131.524	1178.5	291.45
861.911	1133.4748	1174.3	287.65
862.0559	1135.4248	1171.9	285.9
862.2008	1137.3741	1174	290.1
862.3457	1139.3226	1173.75	283.95
862.4905	1141.2705	1166.15	278.9
862.6354	1143.2176	1170.25	276.65
862.7803	1145.164	1170.75	281.9
862.9251	1147.1097	1166.05	278.55
863.07	1149.0546	1163.25	275.75
863.2148	1150.9989	1168.75	279.5
863.3597	1152.9424	1163.85	275.8
863.5045	1154.8852	1163.95	275.2
863.6493	1156.8272	1165.4	277.35
863.7942	1158.7686	1173.55	275.05
863.939	1160.7092	1162.6	273.15
864.0838	1162.6491	1163.2	275.6
864.2286	1164.5883	1157.6	269.2
864.3734	1166.5267	1159.05	271.65
864.5182	1168.4644	1153.45	267.05
864.663	1170.4014	1155	267.1
864.8078	1172.3377	1157.35	272.5
864.9526	1174.2732	1150.95	262.6
865.0974	1176.2081	1155.05	268
865.2421	1178.1421	1155.95	264.65
865.3869	1180.0755	1154.1	265.95
865.5317	1182.0082	1152.1	265.9
865.6764	1183.9401	1147	260.9
865.8212	1185.8713	1142.55	258.65
865.9659	1187.8017	1139.35	255.9
866.1106	1189.7315	1132.2	250.65
866.2554	1191.6605	1123.1	239.35
866.4001	1193.5888	1134.65	249.15
866.5448	1195.5163	1143	259.45
866.6895	1197.4432	1143.2	254.45
866.8342	1199.3693	1142.4	255.9
866.9789	1201.2947	1154.1	260.2
867.1236	1203.2193	1141.3	252.95
867.2683	1205.1432	1147.6	260.75
867.413	1207.0664	1145.15	256.1
867.5576	1208.9889	1144.2	252.75
867.7023	1210.9106	1143.65	254.65
867.847	1212.8316	1143.8	258
867.9916	1214.7519	1157.75	259.2
868.1363	1216.6715	1144	254.85
868.2809	1218.5903	1145.4	257.8
868.4255	1220.5084	1141.45	250.75
868.5701	1222.4257	1142.5	252.5
868.7148	1224.3424	1137	250.2
868.8594	1226.2583	1141.35	248.55
869.004	1228.1735	1144.1	256.05
869.1486	1230.0879	1141.85	253.1
869.2932	1232.0016	1142.9	254.55
869.4377	1233.9146	1139.45	248.25
869.5823	1235.8269	1144.1	252.7
869.7269	1237.7384	1146.85	255.25
869.8715	1239.6492	1139.9	251.5
870.016	1241.5592	1139.65	247.15
870.1606	1243.4686	1141.7	251.5
870.3051	1245.3772	1139.8	252.65
870.4496	1247.285	1142.3	252.9
870.5941	1249.1922	1142.3	253.25
870.7387	1251.0986	1140	252.75
870.8832	1253.0042	1142.5	254.85
871.0277	1254.9092	1136.95	248.4
871.1722	1256.8134	1137.8	249.1
871.3167	1258.7169	1144	254.7
871.4611	1260.6196	1140.8	252.25
871.6056	1262.5216	1146.3	255.35
871.7501	1264.4229	1142.95	257.55
871.8945	1266.3234	1148.7	260.3
872.039	1268.2232	1158.95	269.4
872.1834	1270.1223	1158.2	269.4
872.3278	1272.0207	1162.95	272.4
872.4723	1273.9183	1166.25	268.95
872.6167	1275.8151	1156.1	265.4
