Software Version:	3.9.2.0
Unit SN:	10000200
Spectrometer SN:	6960
Date:	3/26/2024 1:40:17 PM
Data Line Index:	25
Spectral Points:	2048
Integration time (ms):	125
Averages:	20
Delay (ms):	30000
Sequence Number:	1
Processing:	dark subtract
Laser Power (mW):	305
Laser Current (mA):	821
Laser Diode Temp (C):	25
Laser Case Temp (C):	27.1
System Temp (C):	27.1
Spectrometer Temp (C):	24.9
CCD Temp (C):	-0.006
Secondary Temp (C):	20.008
Heatsink Temp (C):	22.613
CCDPCB Temp (C):	36.674
SecondaryPCB Temp (C):	34.15

Wavelength	RamanShift	Raw Counts	Dark Subtracted
787.061	30.1047	606.15	195.45
787.2016	32.3739	618.95	210.7
787.3422	34.6426	630.1	221.7
787.4828	36.9109	643.6	232.5
787.6235	39.1787	665	251.65
787.7642	41.4461	684.95	265.55
787.9049	43.7131	703.65	281.65
788.0456	45.9796	724.15	297.45
788.1863	48.2456	747.85	317.8
788.3271	50.5112	770.1	334.1
788.4679	52.7764	787.9	351.4
788.6087	55.0411	815.8	375.55
788.7496	57.3054	846.6	402.35
788.8904	59.5692	871.3	419.7
789.0313	61.8326	902.25	448.75
789.1722	64.0955	932.35	475.3
789.3132	66.3579	979.9	516.45
789.4541	68.6199	1025.75	560.85
789.5951	70.8815	1115.25	647.95
789.7361	73.1426	1302.2	830.85
789.8771	75.4032	1765.35	1285.75
790.0181	77.6634	2924	2437.55
790.1592	79.9231	5790.2	5295.6
790.3003	82.1824	12332.55	11824.75
790.4414	84.4412	26372.55	25836
790.5825	86.6995	48964.65	48385.6
790.7237	88.9574	58876.9	58266.75
790.8648	91.2148	62148.15	61511.75
791.006	93.4717	62735.9	62082.3
791.1472	95.7282	62948.1	62285.45
791.2885	97.9842	63057.55	62392.5
791.4297	100.2398	62979.75	62313.1
791.571	102.4949	62926.55	62255.4
791.7123	104.7495	62877.15	62201.8
791.8536	107.0036	62733.8	62058.05
791.9949	109.2573	62788.25	62116.75
792.1363	111.5105	62635.75	61958.8
792.2777	113.7632	62623.15	61942.4
792.4191	116.0154	62630.25	61936
792.5605	118.2672	62692.9	62006.35
792.7019	120.5185	62692.1	62007.15
792.8434	122.7693	62634.85	61947.6
792.9849	125.0197	62458.85	61767.6
793.1264	127.2696	62761.2	62065.75
793.2679	129.519	62662.05	61964.2
793.4094	131.7679	62765.25	62062.8
793.551	134.0163	62451.3	61747.7
793.6926	136.2642	62526.85	61818.2
793.8342	138.5117	62696.85	61975.8
793.9758	140.7587	62596.4	61885.25
794.1175	143.0052	62543.8	61824.85
794.2591	145.2512	62343	61628.25
794.4008	147.4967	62529.6	61816.55
794.5425	149.7417	62456.4	61737.55
794.6842	151.9863	62440.35	61720.2
794.826	154.2304	62320.15	61598.75
794.9677	156.4739	62383.45	61651.2
795.1095	158.717	62505.15	61772.4
795.2513	160.9596	62382.75	61650.05
795.3931	163.2017	62196.5	61460.1
795.535	165.4433	62344.65	61604.1
795.6768	167.6844	62226.8	61484.5
795.8187	169.925	62275.1	61535.7
795.9606	172.1651	62123.3	61376.95
796.1025	174.4047	62159.85	61412
796.2445	176.6439	62102.95	61354.85
796.3864	178.8825	62013.65	61263
796.5284	181.1206	62189.3	61434.4
796.6704	183.3582	62150.25	61387.6
796.8124	185.5954	62043.85	61280.15
796.9544	187.832	62058.05	61291.7
797.0965	190.0681	61947.7	61177.6
797.2386	192.3037	62132.15	61360.4
797.3806	194.5388	62345.35	61568.85
797.5228	196.7734	61805.7	61029
797.6649	199.0075	62307.85	61523.5
797.807	201.2411	62133.1	61348.85
797.9492	203.4742	62406.1	61621.9
798.0914	205.7068	62328.5	61540.45
798.2336	207.9389	62317.75	61526.7
798.3758	210.1704	62304	61516
798.518	212.4015	62504.25	61713.2
798.6603	214.632	62286.4	61489.05
798.8025	216.862	62535.95	61749.4
798.9448	219.0915	62416.9	61634.55
799.0871	221.3205	62408.55	61629.85
799.2294	223.549	62604.45	61836.75
799.3718	225.777	62579.95	61804.75
799.5141	228.0044	62690.35	61916.2
799.6565	230.2314	62623.6	61855.25
799.7989	232.4578	62631.85	61864.95
799.9413	234.6837	62684.1	61910.3
800.0837	236.909	62963.2	62184.65
800.2262	239.1339	62514.15	61714.5
800.3687	241.3582	62722.1	61928.55
800.5111	243.582	62729.6	61906.45
800.6536	245.8053	62693.8	61884.45
800.7961	248.0281	62703.6	61903.05
800.9387	250.2503	62756.8	61946.15
801.0812	252.472	62614.8	61801.95
801.2238	254.6932	62723.15	61906.55
801.3664	256.9139	62682.1	61866
801.509	259.134	62957.8	62135.75
801.6516	261.3536	62683.55	61861.15
801.7942	263.5727	62862.6	62033
801.9369	265.7912	62766.65	61946.35
802.0795	268.0092	62834.1	62011.9
802.2222	270.2267	62860.2	62039.25
802.3649	272.4436	62725.8	61900.45
802.5076	274.6601	62847.5	62015.1
802.6504	276.8759	62910.35	62087.65
802.7931	279.0913	62830.8	62001.35
802.9359	281.3061	62821.85	61988.7
803.0787	283.5204	62832.2	61999.6
803.2215	285.7341	62822.25	61987.95
803.3643	287.9473	62961.95	62113.4
803.5071	290.16	62863.05	62018.75
803.6499	292.3721	62922.75	62084.15
803.7928	294.5837	62841.25	62000
803.9357	296.7947	62779.5	61937.05
804.0786	299.0052	62998.05	62156.25
804.2215	301.2152	62891.5	62050.4
804.3644	303.4246	62963.2	62128.2
804.5074	305.6334	62911.55	62077.75
804.6503	307.8418	62713.35	61872.55
804.7933	310.0495	62697.9	61857.8
804.9363	312.2568	62658.65	61813.8
805.0793	314.4635	62609.7	61765.8
805.2223	316.6696	62655.3	61808.15
805.3653	318.8752	62731.9	61881.75
805.5084	321.0802	62416.5	61571.8
805.6514	323.2847	62560.95	61709
805.7945	325.4887	62560.55	61712.7
805.9376	327.692	62472.35	61619.65
806.0807	329.8949	62567.55	61716.5
806.2238	332.0972	62473.7	61622.25
806.367	334.2989	62512.3	61658.1
806.5101	336.5001	62582.85	61725.1
806.6533	338.7007	62280.1	61425.95
806.7965	340.9008	62411.7	61554.1
806.9397	343.1003	62445.3	61586.15
807.0829	345.2992	62528.15	61670.25
807.2261	347.4976	62366.9	61509.4
807.3693	349.6955	62404.65	61542.45
807.5126	351.8927	62295.85	61430.5
807.6559	354.0895	62402.35	61523.5
807.7991	356.2856	62402.25	61533.3
807.9424	358.4812	62501.65	61631.5
808.0857	360.6763	62285.45	61416.05
808.2291	362.8707	62471.95	61601.5
808.3724	365.0646	62351.85	61476.2
808.5158	367.258	62363.3	61493.25
808.6591	369.4508	62236.15	61361
808.8025	371.643	62444.35	61567.25
808.9459	373.8346	62355.2	61478.15
809.0893	376.0257	62373.95	61493.5
809.2327	378.2162	62329.9	61452.25
809.3762	380.4062	62156.05	61273.65
809.5196	382.5956	62258.2	61375.55
809.6631	384.7844	62246.75	61363.35
809.8066	386.9726	62294.3	61409.8
809.9501	389.1603	62283.95	61397.95
810.0936	391.3474	62137.05	61208.5
810.2371	393.5339	62276.25	61390.1
810.3806	395.7199	62063.4	61185.95
810.5241	397.9052	62100.5	61227
810.6677	400.09	62151.65	61279.15
810.8113	402.2743	62255.6	61381.05
810.9548	404.4579	62140.05	61266.5
811.0984	406.641	62159.2	61286.9
811.2421	408.8235	62273.25	61400.55
811.3857	411.0054	62293.15	61421.4
811.5293	413.1868	62327.65	61450.4
811.673	415.3675	62282.05	61400.15
811.8166	417.5477	62279.05	61399.3
811.9603	419.7273	62279.65	61397.75
812.104	421.9064	62241.3	61353.55
812.2477	424.0848	62265.1	61377.3
812.3914	426.2627	62344.05	61458.2
812.5351	428.4399	62109.6	61220.5
812.6788	430.6166	61957.9	61062.45
812.8226	432.7928	62090.7	61195.8
812.9663	434.9683	61902.15	61012.25
813.1101	437.1432	61864.85	60977.6
813.2539	439.3176	61971.95	61087.5
813.3977	441.4914	61753.65	60869.8
813.5415	443.6645	61792.55	60905.45
813.6853	445.8371	61790.45	60895
813.8291	448.0091	61659.45	60766.25
813.973	450.1806	61631.75	60743.8
814.1168	452.3514	61661.05	60772.35
814.2607	454.5216	61530.3	60633.2
814.4046	456.6913	61639.85	60749.95
814.5485	458.8603	61668.5	60776.5
814.6924	461.0288	61486.1	60600.2
814.8363	463.1967	61657.3	60772.3
814.9802	465.3639	61649.4	60760.25
815.1241	467.5306	61339	60449.2
815.2681	469.6967	61523.65	60633.8
815.412	471.8622	61612.4	60723.05
815.556	474.0271	61530.85	60639.3
815.7	476.1914	61550.7	60652.9
815.844	478.3551	61556.15	60659.4
815.988	480.5182	61726.75	60836.35
816.132	482.6807	61488.1	60600.6
816.276	484.8426	61543.05	60663.7
816.4201	487.0039	61799.05	60909.7
816.5641	489.1647	61818.75	60924.05
816.7082	491.3248	61623.75	60728.05
816.8522	493.4843	61861.85	60971.95
816.9963	495.6432	61877.6	60986.35
817.1404	497.8015	61608.75	60704.65
817.2845	499.9592	61743.55	60837.2
817.4286	502.1163	61711.8	60809.15
817.5727	504.2728	61630.2	60731.5
817.7168	506.4287	61598.9	60713
817.861	508.5839	61404.5	60515.45
818.0051	510.7386	61474.2	60580.25
818.1493	512.8927	61502.6	60601.45
818.2935	515.0461	61426.15	60525.75
818.4377	517.199	61575.2	60673.05
818.5818	519.3512	61450.1	60548.35
818.726	521.5029	61485.95	60582
818.8703	523.6539	61543.75	60642.45
819.0145	525.8043	61325.55	60423.65
819.1587	527.9541	61519.9	60608.65
819.303	530.1033	61474.65	60571.05
819.4472	532.2519	61341.4	60439.8
819.5915	534.3999	61487.55	60580.1
819.7357	536.5472	61580.5	60675
819.88	538.694	61321.7	60424
820.0243	540.8401	61568.2	60661.8
820.1686	542.9856	61600.3	60685.35
820.3129	545.1305	61659.5	60739.45
820.4572	547.2748	61487.35	60564.95
820.6016	549.4185	61444.5	60519.3
820.7459	551.5615	61556.1	60635.3
820.8902	553.704	61508.75	60586.55
821.0346	555.8458	61406.2	60491.4
821.1789	557.987	61494	60579.2
821.3233	560.1276	61552.2	60635.05
821.4677	562.2675	61535.45	60617.3
821.6121	564.4069	61612.15	60695.6
821.7565	566.5456	61704.15	60786.9
821.9009	568.6837	61516.55	60607.15
822.0453	570.8212	61542.9	60629.8
822.1897	572.958	61198.2	60285.05
822.3342	575.0942	61363.25	60457
822.4786	577.2299	61127.55	60223.7
822.6231	579.3648	61051.05	60155.45
822.7675	581.4992	61010.7	60122.3
822.912	583.6329	61016.85	60128.65
823.0565	585.766	61014.5	60122.55
823.201	587.8985	61111.15	60214.65
823.3454	590.0304	60819.3	59886.75
823.4899	592.1616	60999.55	60084.4
823.6345	594.2922	60865.6	59946.7
823.779	596.4222	60703.15	59786.1
823.9235	598.5515	60725.95	59803.9
824.068	600.6802	60808.2	59888.7
824.2126	602.8083	60500.55	59586.85
824.3571	604.9358	60487	59567.65
824.5017	607.0626	60692.9	59768.8
824.6462	609.1888	60341.1	59412.3
824.7908	611.3144	60583.35	59653
824.9354	613.4393	60507.25	59580.9
825.08	615.5636	60312	59385.3
825.2246	617.6873	60489.55	59565.1
825.3692	619.8103	60244.95	59322.05
825.5138	621.9327	60461.65	59540.65
825.6584	624.0544	60429.45	59512.1
825.803	626.1756	60270.2	59351.7
825.9477	628.2961	60243.9	59323.45
826.0923	630.4159	60105.25	59184.3
826.237	632.5351	60014.45	59090.95
826.3816	634.6537	60441.1	59516.7
826.5263	636.7716	59973.95	59042.65
826.6709	638.8889	60111.15	59178.15
826.8156	641.0056	60072.05	59141.05
826.9603	643.1216	60095.45	59164.35
827.105	645.237	60198.1	59268.55
827.2497	647.3518	59917.75	58994.95
827.3944	649.4659	60011.55	59096.75
827.5391	651.5793	59980.35	59063.95
827.6838	653.6922	60048.35	59128.55
827.8285	655.8043	59703.3	58784.9
827.9733	657.9159	60149.25	59229.35
828.118	660.0268	59415.05	58491.35
828.2627	662.137	59812.25	58887.25
828.4075	664.2466	59865.15	58932.15
828.5522	666.3556	59739.35	58807.25
828.697	668.4639	59802.25	58876.6
828.8418	670.5716	59614.15	58690.8
828.9865	672.6786	59748.35	58821.2
829.1313	674.785	59495.95	58562.45
829.2761	676.8907	59545.65	58615.8
829.4209	678.9958	59616.5	58695.75
829.5657	681.1002	59647.8	58719.5
829.7105	683.204	59393.2	58458.45
829.8553	685.3072	59310.55	58371.7
830.0001	687.4097	59388.9	58457.3
830.1449	689.5115	59299.55	58367.25
830.2898	691.6127	59514.05	58585.55
830.4346	693.7132	59292.6	58365.3
830.5794	695.8131	59329.45	58393.7
830.7243	697.9123	59349.4	58412.1
830.8691	700.0109	59405.7	58468.75
831.014	702.1089	59066.65	58133.45
831.1588	704.2061	59182.2	58251.1
831.3037	706.3028	59208.95	58276.45
831.4486	708.3987	59242.1	58308.75
831.5935	710.4941	59136.3	58203.05
831.7383	712.5887	59294.05	58363.95
831.8832	714.6827	59199.45	58264.35
832.0281	716.7761	59389.15	58460.85
832.173	718.8688	59458.1	58523.85
832.3179	720.9608	59303.05	58362.1
832.4628	723.0522	59347.2	58404.25
832.6077	725.1429	59181.05	58244.55
832.7527	727.233	59612.95	58678.2
832.8976	729.3224	58918.45	57982.95
833.0425	731.4112	59107	58172.05
833.1874	733.4993	59076.85	58140.3
833.3324	735.5867	59030.45	58096.55
833.4773	737.6735	58806.85	57869.2
833.6222	739.7596	58630.1	57689.6
833.7672	741.845	58560.75	57625.4
833.9122	743.9298	58689.3	57751.5
834.0571	746.014	58460.35	57524.2
834.2021	748.0974	58319.9	57379
834.347	750.1802	58621.6	57681.05
834.492	752.2624	58184.05	57238.9
834.637	754.3439	58243	57300.65
834.782	756.4247	58339.85	57391.95
834.9269	758.5048	58155.9	57215.35
835.0719	760.5843	58334.5	57390.85
835.2169	762.6631	58458.6	57515.6
835.3619	764.7413	58522.55	57584.25
835.5069	766.8188	58731.65	57786.95
835.6519	768.8956	58925.2	57982.5
835.7969	770.9718	59015.95	58072.75
835.9419	773.0473	58891.65	57951.1
836.0869	775.1221	58597.85	57658.55
836.232	777.1962	58523.05	57580.65
836.377	779.2697	58307.5	57364
836.522	781.3426	58420.45	57469.8
836.667	783.4147	58467.75	57524.15
836.8121	785.4862	58396.05	57451.05
836.9571	787.557	58179.35	57233.15
837.1021	789.6271	58230.65	57283.3
837.2472	791.6966	57897.6	56954.4
837.3922	793.7654	57532.15	56590.85
837.5373	795.8335	57422.8	56478.9
837.6823	797.901	57357.9	56419.15
837.8274	799.9678	57195.5	56248.3
837.9724	802.0339	57148.55	56201.1
838.1175	804.0993	57121.75	56163.65
838.2626	806.1641	56977.2	56030.05
838.4076	808.2282	56912.55	55969.35
838.5527	810.2916	56825.85	55882.1
838.6978	812.3544	56892.85	55953.05
838.8428	814.4164	56615.75	55673.15
838.9879	816.4778	56675.05	55726.9
839.133	818.5385	56654.65	55707.55
839.2781	820.5986	56677.1	55730.35
839.4232	822.658	56781	55833.6
839.5682	824.7166	56831.8	55889.55
839.7133	826.7747	56813	55865.95
839.8584	828.832	57020.55	56073.75
840.0035	830.8886	57256.25	56306.25
840.1486	832.9446	57280.6	56332.4
840.2937	834.9999	56798.35	55854.3
840.4388	837.0545	56918.8	55967.55
840.5839	839.1085	56845.4	55899.25
840.729	841.1618	56661.4	55712.5
840.8741	843.2143	56292.95	55346.95
841.0192	845.2662	56164.5	55222.6
841.1643	847.3175	56230.7	55282.75
841.3095	849.368	55734.5	54787.7
841.4546	851.4179	56068.5	55120.5
841.5997	853.467	55678.25	54728.75
841.7448	855.5155	55850.05	54902.25
841.8899	857.5633	55543.8	54599.05
842.0351	859.6105	55362.15	54415.6
842.1802	861.6569	55488.15	54536.2
842.3253	863.7027	55052.8	54100.45
842.4704	865.7478	55148.15	54197.75
842.6156	867.7922	55052.45	54102.35
842.7607	869.8359	55204.55	54252.55
842.9058	871.8789	54792.85	53842.1
843.0509	873.9212	55004.85	54023.5
843.1961	875.9629	55041.6	54091.55
843.3412	878.0039	54997.65	54045.35
843.4863	880.0441	54875.6	53930.6
843.6315	882.0837	54886.55	53937.8
843.7766	884.1226	54905.2	53956.4
843.9218	886.1609	54846.1	53897
844.0669	888.1984	54737	53788.9
844.212	890.2352	55044.75	54096.55
844.3572	892.2714	54600.3	53644.9
844.5023	894.3069	54807	53855.65
844.6475	896.3416	54509.45	53560.65
844.7926	898.3757	54385.5	53431.3
844.9377	900.4091	53862.4	52912.05
845.0829	902.4418	54414.35	53455.55
845.228	904.4739	54016.55	53061.7
845.3732	906.5052	54107.6	53157.15
845.5183	908.5358	53880.65	52929.05
845.6635	910.5658	53681.95	52728.8
845.8086	912.595	53581.3	52631.1
845.9538	914.6236	53018.4	52067.6
846.0989	916.6515	53577.8	52624.45
846.2441	918.6786	52749.8	51795.85
846.3892	920.7051	52971.85	52018.4
846.5344	922.7309	52902.85	51949.9
846.6795	924.756	52918.65	51964.75
846.8246	926.7804	52717.7	51766.35
846.9698	928.8041	52173.55	51222
847.1149	930.8272	52551.35	51600.9
847.2601	932.8495	52478.85	51523.2
847.4052	934.8711	52152.3	51195.7
847.5504	936.892	51842.65	50890.4
847.6955	938.9123	51999.6	51044.95
847.8407	940.9318	51761.7	50810.45
847.9858	942.9506	51671.1	50718.3
848.131	944.9688	51638.75	50688.1
848.2761	946.9862	51018.05	50068.4
848.4213	949.003	51055.85	50100.15
848.5664	951.019	50483.75	49532.25
848.7115	953.0344	50558.35	49606.85
848.8567	955.0491	50450.75	49499.05
849.0018	957.063	50652.65	49701.5
849.147	959.0763	50732.2	49772.35
849.2921	961.0888	50297.25	49346.3
849.4373	963.1007	50536.65	49588.55
849.5824	965.1119	50527.45	49579.65
849.7275	967.1223	50229.95	49293.75
849.8727	969.1321	50483.05	49544.75
850.0178	971.1412	49977.4	49030.2
850.1629	973.1495	49786.75	48838.65
850.3081	975.1572	49958.3	48992.55
850.4532	977.1641	49757.85	48804.75
850.5983	979.1704	49575.55	48625.7
850.7435	981.1759	49571.2	48616.55
850.8886	983.1808	49311.65	48358
851.0337	985.1849	49249.75	48289
851.1788	987.1884	49298.8	48345.3
851.324	989.1911	49488.45	48538.7
851.4691	991.1932	48964.2	48013.65
851.6142	993.1945	49004.3	48057.65
851.7593	995.1951	48990.85	48039
851.9045	997.1951	48695.9	47741.1
852.0496	999.1943	48462.6	47514.5
852.1947	1001.1928	48341.4	47387.45
852.3398	1003.1906	48401.35	47449.35
852.4849	1005.1877	48113.55	47160.55
852.63	1007.1841	47939.9	46988.9
852.7751	1009.1798	47815	46868.65
852.9202	1011.1748	47712.5	46762.5
853.0653	1013.1691	47582.55	46631.15
853.2104	1015.1627	46877.05	45923.85
853.3555	1017.1556	46639.95	45691.8
853.5006	1019.1477	46643	45694.25
853.6457	1021.1392	46174.15	45231.35
853.7908	1023.1299	45746.65	44806.35
853.9359	1025.12	45889.45	44954.9
854.081	1027.1093	45632.85	44705.85
854.2261	1029.0979	45625.65	44701.7
854.3712	1031.0859	45559.7	44630.4
854.5163	1033.0731	45223.7	44284.5
854.6613	1035.0596	45206.95	44263.35
854.8064	1037.0454	44965.6	44019.45
854.9515	1039.0304	44692.25	43745.3
855.0965	1041.0148	44373.75	43425.35
855.2416	1042.9985	44212.5	43262.9
855.3867	1044.9814	44268.9	43323
855.5317	1046.9636	43907.5	42960.8
855.6768	1048.9452	43769.4	42821.35
855.8219	1050.926	43772.1	42826.95
855.9669	1052.9061	43685.8	42738.2
856.112	1054.8855	43646	42697.6
856.257	1056.8642	43486.65	42539.05
856.4021	1058.8421	43430.8	42476.1
856.5471	1060.8194	43318.55	42369.9
856.6921	1062.7959	43277.15	42331.3
856.8372	1064.7717	43290.25	42340.95
856.9822	1066.7469	43158.7	42208.4
857.1272	1068.7213	43195.4	42243.5
857.2723	1070.695	43112.15	42164.8
857.4173	1072.6679	42906.9	41956.6
857.5623	1074.6402	42947.3	42002.3
857.7073	1076.6117	42799.05	41843.75
857.8523	1078.5826	42662.8	41714.85
857.9973	1080.5527	42442.75	41492.7
858.1423	1082.5221	42274.25	41327.65
858.2873	1084.4908	42227.85	41281.55
858.4323	1086.4587	42166.4	41214.8
858.5773	1088.426	42121.9	41172.75
858.7223	1090.3925	42011.7	41057.85
858.8673	1092.3584	41959.65	41013.85
859.0123	1094.3235	41722.8	40778
859.1573	1096.2879	41653.6	40706.45
859.3022	1098.2515	41699.6	40751.75
859.4472	1100.2145	41745.75	40802.05
859.5922	1102.1767	41716.75	40766.6
859.7371	1104.1382	41820.8	40873.2
859.8821	1106.099	41935.5	40987.35
860.027	1108.0591	41973.05	41025.7
860.172	1110.0185	41943.15	40997.8
860.3169	1111.9771	42026.3	41079.85
860.4619	1113.9351	41738.55	40789.65
860.6068	1115.8923	41475.55	40530
860.7517	1117.8488	41220.9	40273.5
860.8967	1119.8045	40862.7	39920.35
861.0416	1121.7596	40725.05	39778.65
861.1865	1123.7139	40448.8	39504.25
861.3314	1125.6675	40391.4	39450.7
861.4763	1127.6204	40469.75	39525.8
861.6212	1129.5726	40254.7	39309.15
861.7661	1131.524	40150.2	39205.9
861.911	1133.4748	39984.15	39038
862.0559	1135.4248	39704.4	38759.3
862.2008	1137.3741	39603.05	38656.4
862.3457	1139.3226	39393.95	38452.3
862.4905	1141.2705	39318	38374.05
862.6354	1143.2176	39039.9	38088.1
862.7803	1145.164	38944.1	37995.75
862.9251	1147.1097	38857.15	37911
863.07	1149.0546	38713.05	37767.85
863.2148	1150.9989	38579.3	37632.75
863.3597	1152.9424	38467.95	37523.6
863.5045	1154.8852	38299.55	37354.35
863.6493	1156.8272	38203.6	37257.7
863.7942	1158.7686	38198.5	37243.65
863.939	1160.7092	38000.25	37051.3
864.0838	1162.6491	37850	36899
864.2286	1164.5883	37969.3	37026.55
864.3734	1166.5267	37913.55	36967.5
864.5182	1168.4644	38056.7	37112.4
864.663	1170.4014	38111.7	37165.25
864.8078	1172.3377	38318.5	37374.4
864.9526	1174.2732	38458.6	37517.45
865.0974	1176.2081	38707.95	37763.75
865.2421	1178.1421	39029.75	38086
865.3869	1180.0755	39338.8	38396.05
