Software Version:	3.9.2.0
Unit SN:	10000200
Spectrometer SN:	6960
Date:	3/26/2024 1:37:07 PM
Data Line Index:	25
Spectral Points:	2048
Integration time (ms):	125
Averages:	20
Delay (ms):	30000
Sequence Number:	1
Processing:	dark subtract
Laser Power (mW):	300
Laser Current (mA):	819
Laser Diode Temp (C):	25
Laser Case Temp (C):	27
System Temp (C):	27
Spectrometer Temp (C):	24.9
CCD Temp (C):	0.008
Secondary Temp (C):	20.013
Heatsink Temp (C):	22.69
CCDPCB Temp (C):	36.64
SecondaryPCB Temp (C):	34.039

Wavelength	RamanShift	Raw Counts	Dark Subtracted
787.061	30.1047	599	189.65
787.2016	32.3739	608.55	201.35
787.3422	34.6426	623.6	213.8
787.4828	36.9109	640.4	228.7
787.6235	39.1787	657.5	241.15
787.7642	41.4461	680.25	258.9
787.9049	43.7131	700.25	276.95
788.0456	45.9796	722.25	294.7
788.1863	48.2456	739.85	309.7
788.3271	50.5112	764.1	329
788.4679	52.7764	786.1	348.7
788.6087	55.0411	812.3	370.7
788.7496	57.3054	844.25	400.7
788.8904	59.5692	865.05	416.5
789.0313	61.8326	901.15	449.4
789.1722	64.0955	929.75	474.15
789.3132	66.3579	963.3	501.15
789.4541	68.6199	1021.25	556.05
789.5951	70.8815	1105.4	638.1
789.7361	73.1426	1278.65	807.35
789.8771	75.4032	1750.6	1273
790.0181	77.6634	2918	2432.4
790.1592	79.9231	5762.7	5269
790.3003	82.1824	12240.95	11732.25
790.4414	84.4412	26069.4	25534.9
790.5825	86.6995	47894.8	47318.55
790.7237	88.9574	57929.25	57315.45
790.8648	91.2148	61486.75	60850.7
791.006	93.4717	62402.55	61755.95
791.1472	95.7282	62800.8	62140.9
791.2885	97.9842	62934.95	62269.55
791.4297	100.2398	62851.6	62188.5
791.571	102.4949	62757.85	62087.85
791.7123	104.7495	62710.3	62036.05
791.8536	107.0036	62503.55	61832.25
791.9949	109.2573	62664.75	61990.15
792.1363	111.5105	62403.85	61731.15
792.2777	113.7632	62405.1	61728.95
792.4191	116.0154	62435.7	61750.15
792.5605	118.2672	62567.75	61882.3
792.7019	120.5185	62502.8	61819.55
792.8434	122.7693	62470.9	61786
792.9849	125.0197	62196.2	61515.35
793.1264	127.2696	62664.9	61977.45
793.2679	129.519	62535.9	61840.5
793.4094	131.7679	62702.45	62005.6
793.551	134.0163	62168.2	61461.05
793.6926	136.2642	62335.05	61629.35
793.8342	138.5117	62610.1	61893.3
793.9758	140.7587	62455.05	61747.35
794.1175	143.0052	62398.15	61688.35
794.2591	145.2512	62124.6	61412.75
794.4008	147.4967	62424.25	61713.2
794.5425	149.7417	62270.3	61555.05
794.6842	151.9863	62295.35	61580.5
794.826	154.2304	62086.65	61365.95
794.9677	156.4739	62175.4	61450.75
795.1095	158.717	62397.15	61671.05
795.2513	160.9596	62196.4	61466.1
795.3931	163.2017	61916.1	61182.3
795.535	165.4433	62164.1	61428.3
795.6768	167.6844	61961.3	61226.25
795.8187	169.925	62070.65	61330.5
795.9606	172.1651	61856.9	61120.6
796.1025	174.4047	61899.7	61156.9
796.2445	176.6439	61835.75	61093.2
796.3864	178.8825	61728.7	60977.45
796.5284	181.1206	61983.15	61231.9
796.6704	183.3582	61923.05	61165.3
796.8124	185.5954	61760.75	61000.9
796.9544	187.832	61796.75	61031.95
797.0965	190.0681	61608.25	60842.35
797.2386	192.3037	61920.15	61150.6
797.3806	194.5388	62229.8	61456.4
797.5228	196.7734	61419.05	60645.6
797.6649	199.0075	62155.7	61377.85
797.807	201.2411	61894.35	61113.25
797.9492	203.4742	62278.6	61494.45
798.0914	205.7068	62174.5	61394.75
798.2336	207.9389	62164.85	61380.55
798.3758	210.1704	62130.65	61342.2
798.518	212.4015	62411.75	61621.35
798.6603	214.632	62084.75	61290.15
798.8025	216.862	62472.6	61690.5
798.9448	219.0915	62286.7	61512.3
799.0871	221.3205	62246.45	61474.2
799.2294	223.549	62522.3	61751.55
799.3718	225.777	62473.2	61706.25
799.5141	228.0044	62624.9	61855.05
799.6565	230.2314	62548.25	61780.65
799.7989	232.4578	62543.8	61778.9
799.9413	234.6837	62597.1	61825
800.0837	236.909	63064.25	62289.5
800.2262	239.1339	62327.1	61526.8
800.3687	241.3582	62634.3	61843.85
800.5111	243.582	62644.1	61824.4
800.6536	245.8053	62635.55	61834.75
800.7961	248.0281	62668.05	61868.85
800.9387	250.2503	62775.4	61970.8
801.0812	252.472	62518.65	61706.05
801.2238	254.6932	62682.55	61865.6
801.3664	256.9139	62627.7	61811.25
801.509	259.134	63064.2	62244.55
801.6516	261.3536	62582.05	61766.55
801.7942	263.5727	62854.45	62036.15
801.9369	265.7912	62747.65	61927.3
802.0795	268.0092	62811.9	61996.55
802.2222	270.2267	62877.5	62059.4
802.3649	272.4436	62687.3	61865.4
802.5076	274.6601	62877.45	62053
802.6504	276.8759	62936.45	62116.05
802.7931	279.0913	62800.75	61977.75
802.9359	281.3061	62868.55	62041.75
803.0787	283.5204	62856.8	62027.8
803.2215	285.7341	62830.2	61998.05
803.3643	287.9473	63021.3	62177.15
803.5071	290.16	62885.2	62047.3
803.6499	292.3721	63019.45	62187.4
803.7928	294.5837	62850.55	62015.45
803.9357	296.7947	62731.35	61892.35
804.0786	299.0052	63062.55	62226.9
804.2215	301.2152	62914.65	62074.25
804.3644	303.4246	63011.4	62181.35
804.5074	305.6334	62973.15	62141.25
804.6503	307.8418	62685.15	61846.85
804.7933	310.0495	62624	61785.6
804.9363	312.2568	62564.8	61727.7
805.0793	314.4635	62516.5	61673.7
805.2223	316.6696	62618.1	61773.35
805.3653	318.8752	62699.95	61850.2
805.5084	321.0802	62229.45	61387.7
805.6514	323.2847	62441.6	61597.75
805.7945	325.4887	62434.05	61589.2
805.9376	327.692	62321.45	61469.25
806.0807	329.8949	62426.85	61579.55
806.2238	332.0972	62307.1	61457.05
806.367	334.2989	62373.05	61520.35
806.5101	336.5001	62470.45	61615.05
806.6533	338.7007	62092	61238
806.7965	340.9008	62261	61404.55
806.9397	343.1003	62266.6	61407.75
807.0829	345.2992	62397.35	61537.25
807.2261	347.4976	62153.15	61292.5
807.3693	349.6955	62227.5	61364.6
807.5126	351.8927	62076.4	61214.4
807.6559	354.0895	62214.85	61339.85
807.7991	356.2856	62194.7	61327.35
807.9424	358.4812	62346	61481.25
808.0857	360.6763	62053.15	61191.35
808.2291	362.8707	62293.85	61424.35
808.3724	365.0646	62135.05	61265.9
808.5158	367.258	62133.65	61262.9
808.6591	369.4508	61938.8	61065.45
808.8025	371.643	62251.55	61376.5
808.9459	373.8346	62109.25	61232.35
809.0893	376.0257	62115.8	61234.75
809.2327	378.2162	62033.35	61159.25
809.3762	380.4062	61815.35	60937.1
809.5196	382.5956	61989.55	61109.15
809.6631	384.7844	61960.2	61081.9
809.8066	386.9726	62058.65	61178.5
809.9501	389.1603	62018.9	61137.75
810.0936	391.3474	61771.05	60848.9
810.2371	393.5339	61966.6	61083.25
810.3806	395.7199	61638.75	60765.15
810.5241	397.9052	61696.75	60826.95
810.6677	400.09	61778.15	60908.35
810.8113	402.2743	61974.95	61106.9
810.9548	404.4579	61750.5	60881.25
811.0984	406.641	61788.2	60913
811.2421	408.8235	61901.55	61032.85
811.3857	411.0054	61930.1	61057.15
811.5293	413.1868	61993.05	61114.25
811.673	415.3675	61904.15	61023.6
811.8166	417.5477	61925	61048.8
811.9603	419.7273	61927.4	61049.95
812.104	421.9064	61843.7	60958.75
812.2477	424.0848	61854.35	60971.3
812.3914	426.2627	61995.75	61110.95
812.5351	428.4399	61692.85	60802.75
812.6788	430.6166	61424.1	60532.85
812.8226	432.7928	61647.3	60754.85
812.9663	434.9683	61390.3	60503.95
813.1101	437.1432	61321.65	60435.75
813.2539	439.3176	61494.7	60612.55
813.3977	441.4914	61178.3	60298.7
813.5415	443.6645	61244.45	60358.35
813.6853	445.8371	61240.55	60348.5
813.8291	448.0091	61047.7	60159.4
813.973	450.1806	60953.4	60063.9
814.1168	452.3514	60997.65	60112.75
814.2607	454.5216	60862	59971.65
814.4046	456.6913	60983.6	60095.9
814.5485	458.8603	61038.3	60153.45
814.6924	461.0288	60787.6	59905.8
814.8363	463.1967	61023.55	60140.95
814.9802	465.3639	60992.35	60104.3
815.1241	467.5306	60618.15	59728.4
815.2681	469.6967	60808	59923.45
815.412	471.8622	60947.5	60062.65
815.556	474.0271	60800.8	59914.1
815.7	476.1914	60857.15	59963.5
815.844	478.3551	60853.1	59960.7
815.988	480.5182	61062.15	60171.2
816.132	482.6807	60754.9	59871.75
816.276	484.8426	60838.6	59961.95
816.4201	487.0039	61168.45	60290.1
816.5641	489.1647	61187.55	60295.65
816.7082	491.3248	60924.15	60030.1
816.8522	493.4843	61259.25	60369.3
816.9963	495.6432	61240.1	60352.9
817.1404	497.8015	60884.5	59987.8
817.2845	499.9592	61071.55	60169.85
817.4286	502.1163	61003.25	60102.85
817.5727	504.2728	60926	60031.65
817.7168	506.4287	60875.25	59990.2
817.861	508.5839	60633.25	59741.25
818.0051	510.7386	60720	59828.85
818.1493	512.8927	60744.25	59839.65
818.2935	515.0461	60658.15	59757
818.4377	517.199	60814.7	59914.35
818.5818	519.3512	60697.75	59793.8
818.726	521.5029	60715.45	59809.55
818.8703	523.6539	60770.35	59872.05
819.0145	525.8043	60545.7	59643.1
819.1587	527.9541	60735.35	59828.9
819.303	530.1033	60697.8	59791.1
819.4472	532.2519	60560.95	59664.65
819.5915	534.3999	60680.8	59778.85
819.7357	536.5472	60811.15	59914.5
819.88	538.694	60524.6	59628.1
820.0243	540.8401	60771.15	59866.65
820.1686	542.9856	60762.6	59848.85
820.3129	545.1305	60859.3	59942.6
820.4572	547.2748	60708.15	59786.2
820.6016	549.4185	60622.2	59698.05
820.7459	551.5615	60734.25	59812.95
820.8902	553.704	60668.7	59751.4
821.0346	555.8458	60531.2	59617.8
821.1789	557.987	60596.3	59682.15
821.3233	560.1276	60707.3	59789.9
821.4677	562.2675	60684.9	59767.4
821.6121	564.4069	60777.4	59861.1
821.7565	566.5456	60983.25	60069.6
821.9009	568.6837	60752.6	59837.95
822.0453	570.8212	60747.9	59836.8
822.1897	572.958	60371.05	59458.45
822.3342	575.0942	60507.7	59600.9
822.4786	577.2299	60251.05	59345.6
822.6231	579.3648	60198.15	59306
822.7675	581.4992	60108.1	59220.05
822.912	583.6329	60096.3	59210.15
823.0565	585.766	60097.1	59207.2
823.201	587.8985	60157.7	59262.5
823.3454	590.0304	59925.05	58995.55
823.4899	592.1616	60146.95	59234.35
823.6345	594.2922	60000.9	59082.95
823.779	596.4222	59832.85	58914.55
823.9235	598.5515	59784.2	58863.4
824.068	600.6802	59827.05	58911.05
824.2126	602.8083	59612.65	58698.7
824.3571	604.9358	59601.4	58684.15
824.5017	607.0626	59729.9	58809.7
824.6462	609.1888	59545.95	58620.35
824.7908	611.3144	59676.25	58751.9
824.9354	613.4393	59581.2	58658.1
825.08	615.5636	59507.85	58583.45
825.2246	617.6873	59583.85	58660.25
825.3692	619.8103	59443.35	58520.1
825.5138	621.9327	59504.8	58580.25
825.6584	624.0544	59551.55	58634.7
825.803	626.1756	59428.65	58514.6
825.9477	628.2961	59372.6	58450.8
826.0923	630.4159	59253	58326.85
826.237	632.5351	59230.85	58308.5
826.3816	634.6537	59409.15	58486.45
826.5263	636.7716	59160.95	58234.95
826.6709	638.8889	59240.7	58312.55
826.8156	641.0056	59229.1	58298.8
826.9603	643.1216	59292.1	58361.7
827.105	645.237	59307.35	58380.5
827.2497	647.3518	59120.6	58198.45
827.3944	649.4659	59169.8	58253.85
827.5391	651.5793	59164.3	58247.7
827.6838	653.6922	59137.65	58218.1
827.8285	655.8043	58955.1	58035.2
827.9733	657.9159	59202.8	58282.8
828.118	660.0268	58729.5	57810.35
828.2627	662.137	58984.55	58059.1
828.4075	664.2466	58975.9	58044.3
828.5522	666.3556	58888.7	57961.15
828.697	668.4639	58911.1	57984.2
828.8418	670.5716	58823.15	57904.25
828.9865	672.6786	58898.4	57973.4
829.1313	674.785	58685.85	57753.55
829.2761	676.8907	58695.05	57771.6
829.4209	678.9958	58731.15	57808.05
829.5657	681.1002	58772.95	57848.85
829.7105	683.204	58581.3	57643.35
829.8553	685.3072	58512.2	57580.2
830.0001	687.4097	58524.9	57595.95
830.1449	689.5115	58489.45	57562.25
830.2898	691.6127	58583.75	57658.5
830.4346	693.7132	58427.15	57500.65
830.5794	695.8131	58480	57535.75
830.7243	697.9123	58530.15	57595.25
830.8691	700.0109	58567.4	57633.5
831.014	702.1089	58383.05	57451.7
831.1588	704.2061	58398.05	57467.15
831.3037	706.3028	58439.6	57503.9
831.4486	708.3987	58416.6	57480.4
831.5935	710.4941	58302.75	57373.9
831.7383	712.5887	58414	57482.65
831.8832	714.6827	58349.9	57415.8
832.0281	716.7761	58481.8	57553.55
832.173	718.8688	58529	57600.35
832.3179	720.9608	58412.1	57470.35
832.4628	723.0522	58463.7	57521.8
832.6077	725.1429	58341.35	57403.95
832.7527	727.233	58592.6	57654.75
832.8976	729.3224	58224.95	57288.2
833.0425	731.4112	58288.75	57354.8
833.1874	733.4993	58218.5	57280.65
833.3324	735.5867	58186.55	57249.55
833.4773	737.6735	58045.4	57110.6
833.6222	739.7596	57902.7	56966.3
833.7672	741.845	57840.9	56906.8
833.9122	743.9298	57850.7	56913.6
834.0571	746.014	57767.15	56835.1
834.2021	748.0974	57687.9	56745.55
834.347	750.1802	57776.3	56837.5
834.492	752.2624	57586.3	56650.1
834.637	754.3439	57560.3	56618.2
834.782	756.4247	57589.2	56639.9
834.9269	758.5048	57476.3	56533.9
835.0719	760.5843	57555.95	56615.5
835.2169	762.6631	57666.45	56721.4
835.3619	764.7413	57732.85	56791.05
835.5069	766.8188	57871.9	56930
835.6519	768.8956	57946.1	57006.4
835.7969	770.9718	58009.4	57072.85
835.9419	773.0473	57912.45	56972.55
836.0869	775.1221	57794.95	56856.8
836.232	777.1962	57676	56733.85
836.377	779.2697	57554.4	56612.2
836.522	781.3426	57610.35	56656.15
836.667	783.4147	57597.65	56657.35
836.8121	785.4862	57554.5	56611.05
836.9571	787.557	57430.85	56487.15
837.1021	789.6271	57399.45	56455.7
837.2472	791.6966	57140.7	56195.55
837.3922	793.7654	56751.4	55807.3
837.5373	795.8335	56693.9	55752.15
837.6823	797.901	56631.4	55686.5
837.8274	799.9678	56497.35	55551.45
837.9724	802.0339	56388.25	55442.65
838.1175	804.0993	56400.95	55442.2
838.2626	806.1641	56236.95	55292.65
838.4076	808.2282	56094.05	55151.5
838.5527	810.2916	55992.7	55047.2
838.6978	812.3544	56184.75	55243.05
838.8428	814.4164	55795.8	54852.05
838.9879	816.4778	55834.85	54887.55
839.133	818.5385	55901.5	54952.95
839.2781	820.5986	55862.2	54916.15
839.4232	822.658	56022.85	55073.15
839.5682	824.7166	56134.7	55185.75
839.7133	826.7747	56054.65	55110
839.8584	828.832	56298.3	55348.05
840.0035	830.8886	56446.6	55499.85
840.1486	832.9446	56470.3	55524.05
840.2937	834.9999	55885.2	54941.8
840.4388	837.0545	56044.8	55096.05
840.5839	839.1085	56094.5	55147.5
840.729	841.1618	55777.5	54828.05
840.8741	843.2143	55285	54340.65
841.0192	845.2662	55137	54190.3
841.1643	847.3175	55302.75	54354.6
841.3095	849.368	54709.3	53761.9
841.4546	851.4179	55104.65	54157
841.5997	853.467	54760.1	53814.65
841.7448	855.5155	54903.1	53954.2
841.8899	857.5633	54514.15	53566.65
842.0351	859.6105	54282.15	53335.35
842.1802	861.6569	54424	53477.6
842.3253	863.7027	54035.7	53085.35
842.4704	865.7478	54158.75	53209.95
842.6156	867.7922	54043.2	53091.7
842.7607	869.8359	54216.4	53270.15
842.9058	871.8789	53714.5	52766.7
843.0509	873.9212	53997.5	53015.75
843.1961	875.9629	53977.1	53028.3
843.3412	878.0039	53959.95	53011.25
843.4863	880.0441	53841.5	52893.2
843.6315	882.0837	53846.65	52900.35
843.7766	884.1226	53877.25	52929.8
843.9218	886.1609	53871.95	52922.55
844.0669	888.1984	53725.55	52773.75
844.212	890.2352	54075.25	53129.65
844.3572	892.2714	53618.35	52667.7
844.5023	894.3069	53766.15	52819.1
844.6475	896.3416	53411.2	52463.25
844.7926	898.3757	53304.35	52354.75
844.9377	900.4091	52742.3	51790.3
845.0829	902.4418	53381.25	52425.35
845.228	904.4739	52957.15	52002.05
845.3732	906.5052	53025.8	52076.05
845.5183	908.5358	52795.25	51841.55
845.6635	910.5658	52637.2	51683.95
845.8086	912.595	52509.35	51559.8
845.9538	914.6236	51938.65	50986.3
846.0989	916.6515	52523	51571.45
846.2441	918.6786	51773.45	50822.1
846.3892	920.7051	51850.05	50897.85
846.5344	922.7309	51778.25	50825.7
846.6795	924.756	51853.75	50904.65
846.8246	926.7804	51615.65	50664.1
846.9698	928.8041	51099.7	50148.7
847.1149	930.8272	51470.3	50522.2
847.2601	932.8495	51354.25	50403.95
847.4052	934.8711	51040.7	50083.2
847.5504	936.892	50803.75	49852.45
847.6955	938.9123	50901	49947.35
847.8407	940.9318	50729.9	49777.25
847.9858	942.9506	50585.8	49634.05
848.131	944.9688	50593.65	49642.5
848.2761	946.9862	50069.5	49119.55
848.4213	949.003	50061.65	49107.55
848.5664	951.019	49539.3	48586.55
848.7115	953.0344	49607.15	48653.65
848.8567	955.0491	49467.1	48513.55
849.0018	957.063	49630.55	48680.35
849.147	959.0763	49677.2	48722.15
849.2921	961.0888	49346.75	48397.35
849.4373	963.1007	49542.45	48594.6
849.5824	965.1119	49517.2	48573.4
849.7275	967.1223	49222.1	48280.75
849.8727	969.1321	49451.5	48512.25
850.0178	971.1412	49074.85	48132.85
850.1629	973.1495	48833.8	47884.25
850.3081	975.1572	48980.05	48015.8
850.4532	977.1641	48878.05	47924.5
850.5983	979.1704	48657.5	47706.05
850.7435	981.1759	48659.75	47706.95
850.8886	983.1808	48486.95	47535.5
851.0337	985.1849	48370.25	47408
851.1788	987.1884	48414.95	47464.05
851.324	989.1911	48587.6	47638.35
851.4691	991.1932	48105.15	47153.2
851.6142	993.1945	48108.75	47157.4
851.7593	995.1951	48038.3	47085
851.9045	997.1951	47821.35	46863.7
852.0496	999.1943	47636.45	46690.7
852.1947	1001.1928	47552.6	46598
852.3398	1003.1906	47505.45	46557.85
852.4849	1005.1877	47271.6	46319
852.63	1007.1841	47090	46143.4
852.7751	1009.1798	47053	46107.85
852.9202	1011.1748	46937.7	45988
853.0653	1013.1691	46734.8	45782.15
853.2104	1015.1627	46074.35	45122.55
853.3555	1017.1556	45841.95	44895.1
853.5006	1019.1477	45875.7	44929.1
853.6457	1021.1392	45421.15	44476
853.7908	1023.1299	45049.55	44110.45
853.9359	1025.12	45071.2	44138.8
854.081	1027.1093	44876.85	43952.85
854.2261	1029.0979	44901.05	43977.45
854.3712	1031.0859	44862.45	43933.6
854.5163	1033.0731	44515.2	43579.5
854.6613	1035.0596	44478.7	43537.9
854.8064	1037.0454	44183.05	43237.3
854.9515	1039.0304	44001.8	43054.55
855.0965	1041.0148	43608.45	42664.1
855.2416	1042.9985	43534.6	42584.95
855.3867	1044.9814	43572.8	42627
855.5317	1046.9636	43205.4	42256.85
855.6768	1048.9452	43043.7	42098.55
855.8219	1050.926	43052.25	42109.4
855.9669	1052.9061	42958.05	42009.1
856.112	1054.8855	42934.9	41986.25
856.257	1056.8642	42803.65	41855.25
856.4021	1058.8421	42761.2	41807.45
856.5471	1060.8194	42629.8	41682.15
856.6921	1062.7959	42559.9	41610.6
856.8372	1064.7717	42617.1	41667.5
856.9822	1066.7469	42570.9	41619.1
857.1272	1068.7213	42515.65	41568.15
857.2723	1070.695	42460.7	41511.65
857.4173	1072.6679	42217.55	41269.05
857.5623	1074.6402	42248.6	41302.3
857.7073	1076.6117	42115.95	41163.8
857.8523	1078.5826	42016.4	41068
857.9973	1080.5527	41820.95	40871.15
858.1423	1082.5221	41561.55	40614.15
858.2873	1084.4908	41565.5	40618.8
858.4323	1086.4587	41466.7	40517.3
858.5773	1088.426	41480.7	40530.35
858.7223	1090.3925	41298.7	40347.15
858.8673	1092.3584	41250.65	40300.9
859.0123	1094.3235	41002.45	40058.25
859.1573	1096.2879	40949.75	40002.2
859.3022	1098.2515	41057.55	40111.2
859.4472	1100.2145	41065.75	40119.8
859.5922	1102.1767	41031.85	40084.4
859.7371	1104.1382	41184.65	40237.45
859.8821	1106.099	41229.45	40279.3
860.027	1108.0591	41298.3	40352.9
860.172	1110.0185	41228.65	40279.85
860.3169	1111.9771	41382.15	40438.05
860.4619	1113.9351	41069.8	40121.1
860.6068	1115.8923	40791	39843.7
860.7517	1117.8488	40522.2	39575.1
860.8967	1119.8045	40161.8	39219.7
861.0416	1121.7596	40104.4	39158.05
861.1865	1123.7139	39808.5	38865.3
861.3314	1125.6675	39731.15	38785.45
861.4763	1127.6204	39793.6	38848.35
861.6212	1129.5726	39597.45	38652.15
861.7661	1131.524	39530.4	38583.25
861.911	1133.4748	39377.25	38432.8
862.0559	1135.4248	39083.05	38138.95
862.2008	1137.3741	38898.6	37952.4
862.3457	1139.3226	38787.2	37840.4
862.4905	1141.2705	38715.6	37769.55
862.6354	1143.2176	38397.4	37445.1
862.7803	1145.164	38332.45	37387.2
862.9251	1147.1097	38225.35	37278.55
863.07	1149.0546	38114.3	37169.7
863.2148	1150.9989	38017.7	37069.35
863.3597	1152.9424	37828.75	36883.3
863.5045	1154.8852	37689.3	36745.35
863.6493	1156.8272	37603.9	36658.45
863.7942	1158.7686	37612.7	36660.55
863.939	1160.7092	37464.4	36517.2
864.0838	1162.6491	37303.7	36353.1
864.2286	1164.5883	37424	36480.7
864.3734	1166.5267	37304.8	36358.95
864.5182	1168.4644	37398.5	36452.95
864.663	1170.4014	37568.5	36622.75
864.8078	1172.3377	37751.4	36810.55
864.9526	1174.2732	37856.35	36914.15
865.0974	1176.2081	38164.65	37220.65
865.2421	1178.1421	38401.6	37453.25
865.3869	1180.0755	38796.3	37852.25
