Software Version:	3.9.2.0
Unit SN:	10000200
Spectrometer SN:	6960
Date:	3/26/2024 2:19:08 PM
Data Line Index:	25
Spectral Points:	2048
Integration time (ms):	125
Averages:	20
Delay (ms):	30000
Sequence Number:	1
Processing:	dark subtract
Laser Power (mW):	300
Laser Current (mA):	819
Laser Diode Temp (C):	25.1
Laser Case Temp (C):	27.6
System Temp (C):	27.6
Spectrometer Temp (C):	25.5
CCD Temp (C):	0.007
Secondary Temp (C):	20.007
Heatsink Temp (C):	23.035
CCDPCB Temp (C):	37.041
SecondaryPCB Temp (C):	34.651

Wavelength	RamanShift	Raw Counts	Dark Subtracted
787.061	30.1047	660.15	251.7
787.2016	32.3739	675.7	269.3
787.3422	34.6426	690.55	281
787.4828	36.9109	709.5	299.05
787.6235	39.1787	729.6	313.05
787.7642	41.4461	761.25	341.2
787.9049	43.7131	789.75	367.3
788.0456	45.9796	807.85	380.6
788.1863	48.2456	835.05	402.95
788.3271	50.5112	867.05	431.25
788.4679	52.7764	900.6	463.95
788.6087	55.0411	932.9	492.35
788.7496	57.3054	964.3	518.35
788.8904	59.5692	999.1	550.95
789.0313	61.8326	1042.2	588.6
789.1722	64.0955	1088.8	632.1
789.3132	66.3579	1134.5	675.15
789.4541	68.6199	1195.45	730.4
789.5951	70.8815	1294.35	826
789.7361	73.1426	1513.6	1041.2
789.8771	75.4032	2057.5	1580.15
790.0181	77.6634	3424.6	2940.9
790.1592	79.9231	6828.2	6335.5
790.3003	82.1824	14694.65	14184.85
790.4414	84.4412	34385.6	33847.8
790.5825	86.6995	62287.45	61698.95
790.7237	88.9574	65535	64901.9
790.8648	91.2148	65535	64873.85
791.006	93.4717	65535	64859.25
791.1472	95.7282	65535	64849.75
791.2885	97.9842	65535	64842
791.4297	100.2398	65535	64840.05
791.571	102.4949	65535	64839.4
791.7123	104.7495	65535	64838.1
791.8536	107.0036	65535	64835.2
791.9949	109.2573	65535	64832.9
792.1363	111.5105	65535	64831.8
792.2777	113.7632	65535	64827.65
792.4191	116.0154	65535	64815.7
792.5605	118.2672	65535	64822.35
792.7019	120.5185	65535	64822.1
792.8434	122.7693	65535	64822.35
792.9849	125.0197	65535	64820.65
793.1264	127.2696	65535	64818.6
793.2679	129.519	65535	64811.25
793.4094	131.7679	65535	64807.6
793.551	134.0163	65535	64807
793.6926	136.2642	65535	64799.9
793.8342	138.5117	65535	64794.7
793.9758	140.7587	65535	64795.15
794.1175	143.0052	65535	64788.25
794.2591	145.2512	65535	64790.6
794.4008	147.4967	65535	64797.35
794.5425	149.7417	65535	64790.95
794.6842	151.9863	65535	64790.15
794.826	154.2304	65535	64786.85
794.9677	156.4739	65535	64776.5
795.1095	158.717	65535	64782
795.2513	160.9596	65535	64771.1
795.3931	163.2017	65535	64775.1
795.535	165.4433	65535	64770.85
795.6768	167.6844	65535	64774.35
795.8187	169.925	65535	64772.25
795.9606	172.1651	65535	64768.95
796.1025	174.4047	65535	64762.95
796.2445	176.6439	65535	64759.25
796.3864	178.8825	65535	64756.65
796.5284	181.1206	65535	64753.4
796.6704	183.3582	65535	64751.4
796.8124	185.5954	65535	64746.85
796.9544	187.832	65535	64748.75
797.0965	190.0681	65535	64749.05
797.2386	192.3037	65535	64743.6
797.3806	194.5388	65535	64732.95
797.5228	196.7734	65535	64736.9
797.6649	199.0075	65535	64729.45
797.807	201.2411	65535	64726.8
797.9492	203.4742	65535	64727.05
798.0914	205.7068	65535	64724.3
798.2336	207.9389	65535	64727.75
798.3758	210.1704	65535	64715.4
798.518	212.4015	65535	64722.9
798.6603	214.632	65535	64719.35
798.8025	216.862	65535	64733.65
798.9448	219.0915	65535	64739.55
799.0871	221.3205	65535	64739.65
799.2294	223.549	65535	64743.55
799.3718	225.777	65535	64744.65
799.5141	228.0044	65535	64740.75
799.6565	230.2314	65535	64744.2
799.7989	232.4578	65535	64740.1
799.9413	234.6837	65535	64739.2
800.0837	236.909	65535	64734.4
800.2262	239.1339	65535	64703.35
800.3687	241.3582	65535	64715.9
800.5111	243.582	65535	64690.2
800.6536	245.8053	65535	64704.7
800.7961	248.0281	65535	64710.35
800.9387	250.2503	65535	64700.3
801.0812	252.472	65535	64698.55
801.2238	254.6932	65535	64698
801.3664	256.9139	65535	64691.85
801.509	259.134	65535	64694.5
801.6516	261.3536	65535	64691.35
801.7942	263.5727	65535	64687.2
801.9369	265.7912	65535	64696.85
802.0795	268.0092	65535	64691.7
802.2222	270.2267	65535	64692.6
802.3649	272.4436	65535	64690.95
802.5076	274.6601	65535	64687.6
802.6504	276.8759	65535	64689.75
802.7931	279.0913	65535	64689.4
802.9359	281.3061	65535	64687.9
803.0787	283.5204	65535	64687.6
803.2215	285.7341	65535	64678.7
803.3643	287.9473	65535	64663.9
803.5071	290.16	65535	64667.4
803.6499	292.3721	65535	64681.4
803.7928	294.5837	65535	64681.05
803.9357	296.7947	65535	64676.85
804.0786	299.0052	65535	64680.75
804.2215	301.2152	65535	64676.9
804.3644	303.4246	65535	64679.95
804.5074	305.6334	65535	64677.9
804.6503	307.8418	65535	64677.05
804.7933	310.0495	65535	64676.95
804.9363	312.2568	65535	64678.1
805.0793	314.4635	65535	64675
805.2223	316.6696	65535	64673.85
805.3653	318.8752	65535	64667.3
805.5084	321.0802	65535	64674.35
805.6514	323.2847	65535	64670.35
805.7945	325.4887	65535	64670.4
805.9376	327.692	65535	64663.35
806.0807	329.8949	65535	64670.9
806.2238	332.0972	65535	64665.5
806.367	334.2989	65535	64663.1
806.5101	336.5001	65535	64657.75
806.6533	338.7007	65535	64665.6
806.7965	340.9008	65535	64658.05
806.9397	343.1003	65535	64656.75
807.0829	345.2992	65535	64656.25
807.2261	347.4976	65535	64655.8
807.3693	349.6955	65535	64650.6
807.5126	351.8927	65535	64653.75
807.6559	354.0895	65535	64639
807.7991	356.2856	65535	64650.1
807.9424	358.4812	65535	64650.55
808.0857	360.6763	65535	64651.8
808.2291	362.8707	65535	64647.45
808.3724	365.0646	65535	64645.1
808.5158	367.258	65535	64646.55
808.6591	369.4508	65535	64640.1
808.8025	371.643	65535	64641.4
808.9459	373.8346	65535	64638
809.0893	376.0257	65535	64634.95
809.2327	378.2162	65535	64641.8
809.3762	380.4062	65535	64636.95
809.5196	382.5956	65535	64634.6
809.6631	384.7844	65535	64639.45
809.8066	386.9726	65535	64635.35
809.9501	389.1603	65535	64641.6
810.0936	391.3474	65535	64605.45
810.2371	393.5339	65535	64638.25
810.3806	395.7199	65535	64642.8
810.5241	397.9052	65535	64644.55
810.6677	400.09	65535	64650.9
810.8113	402.2743	65535	64646.05
810.9548	404.4579	65535	64648.15
811.0984	406.641	65535	64648.8
811.2421	408.8235	65535	64648.55
811.3857	411.0054	65535	64643.5
811.5293	413.1868	65535	64636.1
811.673	415.3675	65535	64635.9
811.8166	417.5477	65535	64639.35
811.9603	419.7273	65535	64637
812.104	421.9064	65535	64633.8
812.2477	424.0848	65535	64634.65
812.3914	426.2627	65535	64632.4
812.5351	428.4399	65535	64630.4
812.6788	430.6166	65535	64630.7
812.8226	432.7928	65535	64625.75
812.9663	434.9683	65535	64633.5
813.1101	437.1432	65535	64633.05
813.2539	439.3176	65535	64635.95
813.3977	441.4914	65535	64635.75
813.5415	443.6645	65535	64634.6
813.6853	445.8371	65535	64629.25
813.8291	448.0091	65535	64630.6
813.973	450.1806	65535	64633.75
814.1168	452.3514	65535	64637
814.2607	454.5216	65535	64629.1
814.4046	456.6913	65535	64633.65
814.5485	458.8603	65535	64633.5
814.6924	461.0288	65535	64636.15
814.8363	463.1967	65535	64637.7
814.9802	465.3639	65535	64635.15
815.1241	467.5306	65535	64630.1
815.2681	469.6967	65535	64634
815.412	471.8622	65535	64633.95
815.556	474.0271	65535	64634.75
815.7	476.1914	65535	64625.8
815.844	478.3551	65535	64624.9
815.988	480.5182	65535	64632.45
816.132	482.6807	65535	64637.15
816.276	484.8426	65535	64640.3
816.4201	487.0039	65535	64637.65
816.5641	489.1647	65535	64630.8
816.7082	491.3248	65535	64626.45
816.8522	493.4843	65535	64635.3
816.9963	495.6432	65535	64630.3
817.1404	497.8015	65535	64623
817.2845	499.9592	65535	64616.2
817.4286	502.1163	65535	64615.55
817.5727	504.2728	65535	64626.3
817.7168	506.4287	65535	64635.45
817.861	508.5839	65535	64637.9
818.0051	510.7386	65535	64629.85
818.1493	512.8927	65535	64614.9
818.2935	515.0461	65535	64621.9
818.4377	517.199	65535	64621.3
818.5818	519.3512	65535	64618
818.726	521.5029	65535	64619.15
818.8703	523.6539	65535	64623.35
819.0145	525.8043	65535	64619.4
819.1587	527.9541	65535	64618.95
819.303	530.1033	65535	64619.4
819.4472	532.2519	65535	64619.65
819.5915	534.3999	65535	64617.1
819.7357	536.5472	65535	64623.35
819.88	538.694	65535	64624.15
820.0243	540.8401	65535	64621.95
820.1686	542.9856	65535	64609.95
820.3129	545.1305	65535	64606.85
820.4572	547.2748	65535	64604.45
820.6016	549.4185	65535	64603.8
820.7459	551.5615	65535	64605.8
820.8902	553.704	65535	64607.25
821.0346	555.8458	65535	64612.45
821.1789	557.987	65535	64613.05
821.3233	560.1276	65535	64608.95
821.4677	562.2675	65535	64609.5
821.6121	564.4069	65535	64606
821.7565	566.5456	65535	64614.45
821.9009	568.6837	65535	64612.85
822.0453	570.8212	65535	64610.55
822.1897	572.958	65535	64609.85
822.3342	575.0942	65535	64617.85
822.4786	577.2299	65535	64619.05
822.6231	579.3648	65535	64629.25
822.7675	581.4992	65535	64636.9
822.912	583.6329	65535	64631.7
823.0565	585.766	65535	64628.3
823.201	587.8985	65535	64628.8
823.3454	590.0304	65535	64612.05
823.4899	592.1616	65535	64612.05
823.6345	594.2922	65535	64609.2
823.779	596.4222	65535	64605.2
823.9235	598.5515	65535	64602.9
824.068	600.6802	65535	64609.75
824.2126	602.8083	65535	64613.05
824.3571	604.9358	65535	64607.3
824.5017	607.0626	65535	64605
824.6462	609.1888	65535	64597.25
824.7908	611.3144	65535	64603.5
824.9354	613.4393	65535	64599.85
825.08	615.5636	65535	64598.85
825.2246	617.6873	65535	64604.2
825.3692	619.8103	65535	64600.05
825.5138	621.9327	65535	64606.95
825.6584	624.0544	65535	64611.6
825.803	626.1756	65535	64610.35
825.9477	628.2961	65535	64603
826.0923	630.4159	65535	64606.4
826.237	632.5351	65535	64603.2
826.3816	634.6537	65535	64603.75
826.5263	636.7716	65535	64599.25
826.6709	638.8889	65535	64597.6
826.8156	641.0056	65535	64599.9
826.9603	643.1216	65535	64595.25
827.105	645.237	65535	64598.5
827.2497	647.3518	65535	64607.3
827.3944	649.4659	65535	64603.65
827.5391	651.5793	65535	64606.4
827.6838	653.6922	65535	64606.15
827.8285	655.8043	65535	64603.9
827.9733	657.9159	65535	64599.55
828.118	660.0268	65535	64605.2
828.2627	662.137	65535	64604.25
828.4075	664.2466	65535	64595.9
828.5522	666.3556	65535	64599.3
828.697	668.4639	65535	64600.25
828.8418	670.5716	65535	64608.35
828.9865	672.6786	65535	64602
829.1313	674.785	65535	64595.9
829.2761	676.8907	65535	64600.85
829.4209	678.9958	65535	64606.55
829.5657	681.1002	65535	64601.6
829.7105	683.204	65535	64591.4
829.8553	685.3072	65535	64593.75
830.0001	687.4097	65535	64598.75
830.1449	689.5115	65535	64597.9
830.2898	691.6127	65535	64599.75
830.4346	693.7132	65535	64599.8
830.5794	695.8131	65535	64582.1
830.7243	697.9123	65535	64595.25
830.8691	700.0109	65535	64589.9
831.014	702.1089	65535	64592.45
831.1588	704.2061	65535	64598.45
831.3037	706.3028	65535	64592.95
831.4486	708.3987	65535	64595.3
831.5935	710.4941	65535	64593
831.7383	712.5887	65535	64596.3
831.8832	714.6827	65535	64596.4
832.0281	716.7761	65535	64598.25
832.173	718.8688	65535	64599.25
832.3179	720.9608	65535	64587.15
832.4628	723.0522	65535	64585.45
832.6077	725.1429	65535	64596.65
832.7527	727.233	65535	64592.95
832.8976	729.3224	65535	64597.45
833.0425	731.4112	65535	64593.7
833.1874	733.4993	65535	64595.35
833.3324	735.5867	65535	64596.15
833.4773	737.6735	65535	64595.55
833.6222	739.7596	65535	64592.55
833.7672	741.845	65535	64591.3
833.9122	743.9298	65535	64592.5
834.0571	746.014	65535	64593.35
834.2021	748.0974	65535	64586.35
834.347	750.1802	65535	64583.75
834.492	752.2624	65535	64587.8
834.637	754.3439	65535	64589.45
834.782	756.4247	65535	64581.8
834.9269	758.5048	65535	64590.35
835.0719	760.5843	65535	64585
835.2169	762.6631	65535	64588.1
835.3619	764.7413	65535	64590.35
835.5069	766.8188	65535	64591.25
835.6519	768.8956	65535	64590.5
835.7969	770.9718	65535	64586.6
835.9419	773.0473	65535	64590.7
836.0869	775.1221	65535	64591.55
836.232	777.1962	65535	64593.3
836.377	779.2697	65535	64585.55
836.522	781.3426	65535	64572.2
836.667	783.4147	65535	64589.3
836.8121	785.4862	65535	64586.2
836.9571	787.557	65535	64588.25
837.1021	789.6271	65535	64588.3
837.2472	791.6966	65535	64584.75
837.3922	793.7654	65535	64589.2
837.5373	795.8335	65535	64587.1
837.6823	797.901	65535	64592.95
837.8274	799.9678	65535	64586.15
837.9724	802.0339	65535	64587.75
838.1175	804.0993	65535	64572.15
838.2626	806.1641	65535	64583.8
838.4076	808.2282	65535	64587.85
838.5527	810.2916	65533.55	64583.15
838.6978	812.3544	65535	64589.85
838.8428	814.4164	65532.8	64585.55
838.9879	816.4778	65530.55	64581.75
839.133	818.5385	65533.55	64582.6
839.2781	820.5986	65532	64582.75
839.4232	822.658	65532.5	64581.6
839.5682	824.7166	65535	64586.65
839.7133	826.7747	65521.45	64570.4
839.8584	828.832	65524.95	64573.15
840.0035	830.8886	65533.5	64583.05
840.1486	832.9446	65535	64581.55
840.2937	834.9999	65497.15	64548.75
840.4388	837.0545	65521.7	64568.8
840.5839	839.1085	65534.6	64585.45
840.729	841.1618	65527.45	64574.2
840.8741	843.2143	65495.2	64545.5
841.0192	845.2662	65494.15	64547.2
841.1643	847.3175	65518.85	64570.45
841.3095	849.368	65453.9	64500.2
841.4546	851.4179	65515.75	64569.05
841.5997	853.467	65467.15	64519.2
841.7448	855.5155	65492.9	64543.2
841.8899	857.5633	65443.5	64492.35
842.0351	859.6105	65420.45	64470.25
842.1802	861.6569	65462.2	64512
842.3253	863.7027	65390.8	64439.1
842.4704	865.7478	65407.9	64458.75
842.6156	867.7922	65403.4	64454.95
842.7607	869.8359	65425.8	64474.45
842.9058	871.8789	65350.75	64401.65
843.0509	873.9212	65398.05	64414.8
843.1961	875.9629	65423.4	64470.1
843.3412	878.0039	65406.45	64458.45
843.4863	880.0441	65384.1	64437.2
843.6315	882.0837	65384.05	64433.75
843.7766	884.1226	65378.6	64419.05
843.9218	886.1609	65360.95	64412.55
844.0669	888.1984	65300.95	64348.15
844.212	890.2352	65363.4	64412.4
844.3572	892.2714	65257.4	64299.15
844.5023	894.3069	65329	64375.35
844.6475	896.3416	65253.15	64299.4
844.7926	898.3757	65234.6	64286.2
844.9377	900.4091	65049.5	64092.2
845.0829	902.4418	65299.1	64341.25
845.228	904.4739	65170.8	64213.55
845.3732	906.5052	65182.05	64229.75
845.5183	908.5358	65079.05	64127.2
845.6635	910.5658	65005.6	64049.85
845.8086	912.595	65013.35	64059.05
845.9538	914.6236	64590.15	63639.05
846.0989	916.6515	65125.95	64172.25
846.2441	918.6786	64562.1	63607.45
846.3892	920.7051	64765.65	63805.45
846.5344	922.7309	64641.75	63690.05
846.6795	924.756	64755.3	63801.05
846.8246	926.7804	64570.25	63616.25
846.9698	928.8041	64007.3	63052.9
847.1149	930.8272	64463.05	63509.6
847.2601	932.8495	64502.6	63550.7
847.4052	934.8711	64085.6	63130.45
847.5504	936.892	63686.35	62732.1
847.6955	938.9123	63873.6	62920.7
847.8407	940.9318	63539.85	62585.7
847.9858	942.9506	63439.9	62487.1
848.131	944.9688	63464.45	62511.4
848.2761	946.9862	62671.6	61719.35
848.4213	949.003	63063.5	62109.9
848.5664	951.019	62252.1	61298.1
848.7115	953.0344	62423.35	61470.15
848.8567	955.0491	62301.25	61347.6
849.0018	957.063	62652.65	61697.4
849.147	959.0763	62725.05	61767.15
849.2921	961.0888	62055.4	61102.55
849.4373	963.1007	62554.15	61608.2
849.5824	965.1119	62520.7	61574.9
849.7275	967.1223	62023.85	61078.75
849.8727	969.1321	62600.45	61658.2
850.0178	971.1412	61834.05	60887.7
850.1629	973.1495	61546.8	60598.55
850.3081	975.1572	61908.65	60902.7
850.4532	977.1641	61575.3	60626.35
850.5983	979.1704	61425.2	60472.2
850.7435	981.1759	61495.7	60540.5
850.8886	983.1808	61064.95	60109.9
851.0337	985.1849	61166.25	60203.25
851.1788	987.1884	61365.45	60414.2
851.324	989.1911	61764.9	60813
851.4691	991.1932	60584.55	59630.55
851.6142	993.1945	60907.6	59958.55
851.7593	995.1951	61185.75	60231.9
851.9045	997.1951	60511.05	59552.45
852.0496	999.1943	60309.3	59358.55
852.1947	1001.1928	60062.1	59110.85
852.3398	1003.1906	60168.45	59218.05
852.4849	1005.1877	59372.35	58420.5
852.63	1007.1841	59114.3	58163.3
852.7751	1009.1798	59089.9	58137.55
852.9202	1011.1748	58919.35	57970.75
853.0653	1013.1691	58632	57678.3
853.2104	1015.1627	57196.3	56248.4
853.3555	1017.1556	57461.55	56516.7
853.5006	1019.1477	57679.6	56728.6
853.6457	1021.1392	56936.8	55992.75
853.7908	1023.1299	56124.8	55186.55
853.9359	1025.12	56568.35	55630.45
854.081	1027.1093	56095.9	55166.55
854.2261	1029.0979	56092.65	55166.45
854.3712	1031.0859	55958.3	55028.15
854.5163	1033.0731	55342.05	54403.65
854.6613	1035.0596	55424.15	54480.95
854.8064	1037.0454	55158.2	54216.95
854.9515	1039.0304	54652.8	53707.4
855.0965	1041.0148	54031.7	53083.2
855.2416	1042.9985	54035.6	53087.75
855.3867	1044.9814	54174.25	53226.3
855.5317	1046.9636	53558.1	52609.9
855.6768	1048.9452	53449.2	52504.55
855.8219	1050.926	53303.2	52357.6
855.9669	1052.9061	53179.3	52234.4
856.112	1054.8855	53141.05	52191.95
856.257	1056.8642	52733.9	51784.05
856.4021	1058.8421	52598.65	51645.25
856.5471	1060.8194	52588.9	51643.9
856.6921	1062.7959	52397.05	51448.85
856.8372	1064.7717	52397.9	51450.8
856.9822	1066.7469	52214.85	51263.05
857.1272	1068.7213	52084	51132.4
857.2723	1070.695	51800.35	50852.65
857.4173	1072.6679	51332.5	50382.8
857.5623	1074.6402	51340.95	50390.7
857.7073	1076.6117	51171.8	50217
857.8523	1078.5826	51116.75	50166.1
857.9973	1080.5527	51097.3	50145.7
858.1423	1082.5221	50942.25	49994.7
858.2873	1084.4908	51088.25	50139.4
858.4323	1086.4587	51232.25	50284.35
858.5773	1088.426	51240.85	50290.8
858.7223	1090.3925	51041.25	50086.85
858.8673	1092.3584	50809.7	49863.05
859.0123	1094.3235	50299.2	49353.85
859.1573	1096.2879	50123.1	49175.6
859.3022	1098.2515	50012.7	49064.35
859.4472	1100.2145	49890.7	48944.15
859.5922	1102.1767	49733.85	48783.2
859.7371	1104.1382	49728.65	48783.15
859.8821	1106.099	49791.7	48843.2
860.027	1108.0591	49806.45	48859
860.172	1110.0185	49667.1	48715.05
860.3169	1111.9771	49715.4	48766.7
860.4619	1113.9351	49210.55	48263.6
860.6068	1115.8923	48725.35	47780.45
860.7517	1117.8488	48233.35	47285.7
860.8967	1119.8045	47691.6	46746.8
861.0416	1121.7596	47490.8	46542.65
861.1865	1123.7139	47262.8	46318.4
861.3314	1125.6675	47114.2	46169.3
861.4763	1127.6204	47196.85	46251.95
861.6212	1129.5726	46974.85	46027.75
861.7661	1131.524	46967.05	46023.45
861.911	1133.4748	46913.5	45969.35
862.0559	1135.4248	46812.95	45865.25
862.2008	1137.3741	46778.15	45832.45
862.3457	1139.3226	46516.85	45571.2
862.4905	1141.2705	46451.25	45505.6
862.6354	1143.2176	46140.65	45187.2
862.7803	1145.164	46065.15	45118
862.9251	1147.1097	45957.7	45013.3
863.07	1149.0546	45907.7	44958.7
863.2148	1150.9989	45741.35	44796
863.3597	1152.9424	45513.2	44564.3
863.5045	1154.8852	45186.9	44237.8
863.6493	1156.8272	44934.75	43985.3
863.7942	1158.7686	44878.7	43922.4
863.939	1160.7092	44530.6	43582.7
864.0838	1162.6491	44329.3	43384.05
864.2286	1164.5883	44372.9	43427.85
864.3734	1166.5267	44242.85	43298.45
864.5182	1168.4644	44307.6	43358.35
864.663	1170.4014	44389.25	43441.15
864.8078	1172.3377	44545.5	43602.25
864.9526	1174.2732	44668.15	43724.05
865.0974	1176.2081	44787.9	43846.25
865.2421	1178.1421	44815.7	43869.15
865.3869	1180.0755	44820.8	43879.3
865.5317	1182.0082	44594.35	43654.95
865.6764	1183.9401	44506.4	43562.7
865.8212	1185.8713	44149.7	43211.85
865.9659	1187.8017	43773.1	42842.1
866.1106	1189.7315	43502.3	42577.05
866.2554	1191.6605	43068.4	42142.6
866.4001	1193.5888	42703.35	41774.1
866.5448	1195.5163	42452.4	41516.3
866.6895	1197.4432	42217.05	41276.5
866.8342	1199.3693	42045.65	41103.05
866.9789	1201.2947	41783.25	40837
867.1236	1203.2193	41550.5	40607.9
867.2683	1205.1432	41506.3	40567.3
867.413	1207.0664	41442.05	40500
867.5576	1208.9889	41389.4	40441.8
867.7023	1210.9106	41271.9	40332
867.847	1212.8316	41154	40212
867.9916	1214.7519	41144.1	40192.9
868.1363	1216.6715	41052.1	40110.8
868.2809	1218.5903	40901.35	39959.85
868.4255	1220.5084	40734.55	39794.3
868.5701	1222.4257	40616.85	39675.85
