Software Version:	3.9.2.0
Unit SN:	10000200
Spectrometer SN:	6960
Date:	3/26/2024 2:10:28 PM
Data Line Index:	25
Spectral Points:	2048
Integration time (ms):	125
Averages:	20
Delay (ms):	30000
Sequence Number:	1
Processing:	dark subtract
Laser Power (mW):	300
Laser Current (mA):	819
Laser Diode Temp (C):	25.1
Laser Case Temp (C):	27.5
System Temp (C):	27.5
Spectrometer Temp (C):	25.5
CCD Temp (C):	0.005
Secondary Temp (C):	20.006
Heatsink Temp (C):	22.923
CCDPCB Temp (C):	36.952
SecondaryPCB Temp (C):	34.584

Wavelength	RamanShift	Raw Counts	Dark Subtracted
787.061	30.1047	678.25	267.2
787.2016	32.3739	690.35	281.05
787.3422	34.6426	707.5	295.7
787.4828	36.9109	730.1	316.6
787.6235	39.1787	749	332.65
787.7642	41.4461	782.05	360.3
787.9049	43.7131	808.05	383.5
788.0456	45.9796	834.65	407.5
788.1863	48.2456	862.85	431.3
788.3271	50.5112	897.4	462.55
788.4679	52.7764	921.45	482.7
788.6087	55.0411	957.6	516.8
788.7496	57.3054	991.9	546.35
788.8904	59.5692	1029.55	580.6
789.0313	61.8326	1067.8	617.35
789.1722	64.0955	1118.35	660.15
789.3132	66.3579	1173.75	711.75
789.4541	68.6199	1236.35	771.3
789.5951	70.8815	1346.85	879.8
789.7361	73.1426	1569.65	1098.5
789.8771	75.4032	2136.3	1659.45
790.0181	77.6634	3570.7	3085.3
790.1592	79.9231	7137.9	6642.25
790.3003	82.1824	15410.25	14895.85
790.4414	84.4412	37238.45	36688.65
790.5825	86.6995	63689.3	63087.1
790.7237	88.9574	65535	64884.15
790.8648	91.2148	65535	64852.9
791.006	93.4717	65535	64833.2
791.1472	95.7282	65535	64821.2
791.2885	97.9842	65535	64813
791.4297	100.2398	65535	64810.65
791.571	102.4949	65535	64808.65
791.7123	104.7495	65535	64804.95
791.8536	107.0036	65535	64804.45
791.9949	109.2573	65535	64803.25
792.1363	111.5105	65535	64804.9
792.2777	113.7632	65535	64800.95
792.4191	116.0154	65535	64788.05
792.5605	118.2672	65535	64796.4
792.7019	120.5185	65535	64793.65
792.8434	122.7693	65535	64793.55
792.9849	125.0197	65535	64791.75
793.1264	127.2696	65535	64786
793.2679	129.519	65535	64782.25
793.4094	131.7679	65535	64774.1
793.551	134.0163	65535	64775.15
793.6926	136.2642	65535	64773.35
793.8342	138.5117	65535	64770.7
793.9758	140.7587	65535	64764.3
794.1175	143.0052	65535	64764.85
794.2591	145.2512	65535	64767.55
794.4008	147.4967	65535	64769.45
794.5425	149.7417	65535	64761.95
794.6842	151.9863	65535	64758.1
794.826	154.2304	65535	64753.7
794.9677	156.4739	65535	64751.55
795.1095	158.717	65535	64748.4
795.2513	160.9596	65535	64741.85
795.3931	163.2017	65535	64745.4
795.535	165.4433	65535	64741.3
795.6768	167.6844	65535	64742.05
795.8187	169.925	65535	64739
795.9606	172.1651	65535	64740.05
796.1025	174.4047	65535	64738.6
796.2445	176.6439	65535	64734.5
796.3864	178.8825	65535	64733.55
796.5284	181.1206	65535	64728.35
796.6704	183.3582	65535	64723.3
796.8124	185.5954	65535	64721.85
796.9544	187.832	65535	64716.7
797.0965	190.0681	65535	64711.55
797.2386	192.3037	65535	64712.4
797.3806	194.5388	65535	64708.8
797.5228	196.7734	65535	64700.45
797.6649	199.0075	65535	64699.9
797.807	201.2411	65535	64699.75
797.9492	203.4742	65535	64695.7
798.0914	205.7068	65535	64696.8
798.2336	207.9389	65535	64698.15
798.3758	210.1704	65535	64695.25
798.518	212.4015	65535	64691
798.6603	214.632	65535	64695.75
798.8025	216.862	65535	64705.4
798.9448	219.0915	65535	64708.4
799.0871	221.3205	65535	64704.3
799.2294	223.549	65535	64709.05
799.3718	225.777	65535	64706.9
799.5141	228.0044	65535	64709
799.6565	230.2314	65535	64709.95
799.7989	232.4578	65535	64716.35
799.9413	234.6837	65535	64709.4
800.0837	236.909	65535	64703.95
800.2262	239.1339	65535	64675.15
800.3687	241.3582	65535	64688.9
800.5111	243.582	65535	64659.45
800.6536	245.8053	65535	64668.5
800.7961	248.0281	65535	64680.9
800.9387	250.2503	65535	64672.3
801.0812	252.472	65535	64666.25
801.2238	254.6932	65535	64667.45
801.3664	256.9139	65535	64668.95
801.509	259.134	65535	64663.5
801.6516	261.3536	65535	64664.2
801.7942	263.5727	65535	64654.9
801.9369	265.7912	65535	64661.55
802.0795	268.0092	65535	64666.55
802.2222	270.2267	65535	64661.7
802.3649	272.4436	65535	64664.8
802.5076	274.6601	65535	64656.05
802.6504	276.8759	65535	64660.2
802.7931	279.0913	65535	64658.8
802.9359	281.3061	65535	64654.75
803.0787	283.5204	65535	64654.25
803.2215	285.7341	65535	64651.55
803.3643	287.9473	65535	64639.3
803.5071	290.16	65535	64644.25
803.6499	292.3721	65535	64651.75
803.7928	294.5837	65535	64646.1
803.9357	296.7947	65535	64651.75
804.0786	299.0052	65535	64644.7
804.2215	301.2152	65535	64649.55
804.3644	303.4246	65535	64652.5
804.5074	305.6334	65535	64650.45
804.6503	307.8418	65535	64652.55
804.7933	310.0495	65535	64645.9
804.9363	312.2568	65535	64645.7
805.0793	314.4635	65535	64644
805.2223	316.6696	65535	64641.9
805.3653	318.8752	65535	64630.05
805.5084	321.0802	65535	64640.9
805.6514	323.2847	65535	64633.75
805.7945	325.4887	65535	64637.7
805.9376	327.692	65535	64637.05
806.0807	329.8949	65535	64638.6
806.2238	332.0972	65535	64641.9
806.367	334.2989	65535	64630.8
806.5101	336.5001	65535	64629.75
806.6533	338.7007	65535	64629.8
806.7965	340.9008	65535	64627.5
806.9397	343.1003	65535	64629.05
807.0829	345.2992	65535	64630.05
807.2261	347.4976	65535	64626.5
807.3693	349.6955	65535	64622.2
807.5126	351.8927	65535	64616.05
807.6559	354.0895	65535	64610.05
807.7991	356.2856	65535	64613.55
807.9424	358.4812	65535	64620
808.0857	360.6763	65535	64621
808.2291	362.8707	65535	64621.15
808.3724	365.0646	65535	64614.15
808.5158	367.258	65535	64620.3
808.6591	369.4508	65535	64612.85
808.8025	371.643	65535	64614.05
808.9459	373.8346	65535	64609.85
809.0893	376.0257	65535	64606.35
809.2327	378.2162	65535	64612.8
809.3762	380.4062	65535	64607.75
809.5196	382.5956	65535	64606.2
809.6631	384.7844	65535	64611.7
809.8066	386.9726	65535	64610.4
809.9501	389.1603	65535	64603.95
810.0936	391.3474	65535	64585.1
810.2371	393.5339	65535	64605.2
810.3806	395.7199	65535	64612.25
810.5241	397.9052	65535	64617.3
810.6677	400.09	65535	64620.85
810.8113	402.2743	65535	64623.25
810.9548	404.4579	65535	64620.7
811.0984	406.641	65535	64622.65
811.2421	408.8235	65535	64620.4
811.3857	411.0054	65535	64619.8
811.5293	413.1868	65535	64607.25
811.673	415.3675	65535	64610.5
811.8166	417.5477	65535	64609.4
811.9603	419.7273	65535	64609.05
812.104	421.9064	65535	64606.6
812.2477	424.0848	65535	64611.15
812.3914	426.2627	65535	64605.25
812.5351	428.4399	65535	64605.75
812.6788	430.6166	65535	64602.6
812.8226	432.7928	65535	64602
812.9663	434.9683	65535	64606.15
813.1101	437.1432	65535	64611.95
813.2539	439.3176	65535	64606.95
813.3977	441.4914	65535	64613.1
813.5415	443.6645	65535	64607.2
813.6853	445.8371	65535	64600.45
813.8291	448.0091	65535	64603.6
813.973	450.1806	65535	64606.6
814.1168	452.3514	65535	64612.3
814.2607	454.5216	65535	64597.15
814.4046	456.6913	65535	64609.6
814.5485	458.8603	65535	64609.05
814.6924	461.0288	65535	64611.65
814.8363	463.1967	65535	64616.3
814.9802	465.3639	65535	64607.6
815.1241	467.5306	65535	64605.5
815.2681	469.6967	65535	64611.7
815.412	471.8622	65535	64617.55
815.556	474.0271	65535	64605.55
815.7	476.1914	65535	64599.5
815.844	478.3551	65535	64604.45
815.988	480.5182	65535	64609.8
816.132	482.6807	65535	64620.2
816.276	484.8426	65535	64626.1
816.4201	487.0039	65535	64616.25
816.5641	489.1647	65535	64609.55
816.7082	491.3248	65535	64603.2
816.8522	493.4843	65535	64610.25
816.9963	495.6432	65535	64608.35
817.1404	497.8015	65535	64598.7
817.2845	499.9592	65535	64592.85
817.4286	502.1163	65535	64590.1
817.5727	504.2728	65535	64605.65
817.7168	506.4287	65535	64616.6
817.861	508.5839	65535	64612.1
818.0051	510.7386	65535	64609.1
818.1493	512.8927	65535	64592.9
818.2935	515.0461	65535	64602.4
818.4377	517.199	65535	64595
818.5818	519.3512	65535	64595.35
818.726	521.5029	65535	64594.25
818.8703	523.6539	65535	64597
819.0145	525.8043	65535	64596.9
819.1587	527.9541	65535	64590.45
819.303	530.1033	65535	64596.8
819.4472	532.2519	65535	64596.65
819.5915	534.3999	65535	64595.05
819.7357	536.5472	65535	64597.15
819.88	538.694	65535	64603.75
820.0243	540.8401	65535	64598.2
820.1686	542.9856	65535	64583.95
820.3129	545.1305	65535	64578.15
820.4572	547.2748	65535	64574.45
820.6016	549.4185	65535	64573.1
820.7459	551.5615	65535	64577.85
820.8902	553.704	65535	64577.35
821.0346	555.8458	65535	64586.1
821.1789	557.987	65535	64583.8
821.3233	560.1276	65535	64580.9
821.4677	562.2675	65535	64579.9
821.6121	564.4069	65535	64583.5
821.7565	566.5456	65535	64586.5
821.9009	568.6837	65535	64586.15
822.0453	570.8212	65535	64592.05
822.1897	572.958	65535	64585
822.3342	575.0942	65535	64594.2
822.4786	577.2299	65535	64598.8
822.6231	579.3648	65535	64613.7
822.7675	581.4992	65535	64618.15
822.912	583.6329	65535	64620.6
823.0565	585.766	65535	64613.2
823.201	587.8985	65535	64607.3
823.3454	590.0304	65535	64586.4
823.4899	592.1616	65535	64585.95
823.6345	594.2922	65535	64585.1
823.779	596.4222	65535	64579.55
823.9235	598.5515	65535	64579.2
824.068	600.6802	65535	64582.3
824.2126	602.8083	65535	64583.15
824.3571	604.9358	65535	64585
824.5017	607.0626	65535	64582.55
824.6462	609.1888	65535	64575.6
824.7908	611.3144	65535	64578.9
824.9354	613.4393	65535	64573.25
825.08	615.5636	65535	64575.05
825.2246	617.6873	65535	64578.55
825.3692	619.8103	65535	64571.15
825.5138	621.9327	65535	64578.25
825.6584	624.0544	65535	64586.85
825.803	626.1756	65535	64586.8
825.9477	628.2961	65535	64576.2
826.0923	630.4159	65535	64580
826.237	632.5351	65535	64578.5
826.3816	634.6537	65535	64573.45
826.5263	636.7716	65535	64570.1
826.6709	638.8889	65535	64568.3
826.8156	641.0056	65535	64572.1
826.9603	643.1216	65535	64571.8
827.105	645.237	65535	64576.35
827.2497	647.3518	65535	64583.4
827.3944	649.4659	65535	64589
827.5391	651.5793	65535	64586.5
827.6838	653.6922	65535	64584.05
827.8285	655.8043	65535	64578.45
827.9733	657.9159	65535	64579.5
828.118	660.0268	65535	64580.4
828.2627	662.137	65535	64576.55
828.4075	664.2466	65535	64572.25
828.5522	666.3556	65535	64573.45
828.697	668.4639	65535	64579.25
828.8418	670.5716	65535	64585.3
828.9865	672.6786	65535	64579.05
829.1313	674.785	65535	64573.55
829.2761	676.8907	65535	64577.55
829.4209	678.9958	65535	64586.05
829.5657	681.1002	65535	64579.3
829.7105	683.204	65535	64567.85
829.8553	685.3072	65535	64573.05
830.0001	687.4097	65535	64576.25
830.1449	689.5115	65535	64571
830.2898	691.6127	65535	64574
830.4346	693.7132	65535	64578.75
830.5794	695.8131	65535	64556.3
830.7243	697.9123	65535	64564.2
830.8691	700.0109	65535	64563.4
831.014	702.1089	65535	64567.25
831.1588	704.2061	65535	64573.1
831.3037	706.3028	65535	64566.55
831.4486	708.3987	65535	64567.35
831.5935	710.4941	65535	64576.45
831.7383	712.5887	65535	64573.85
831.8832	714.6827	65535	64572.7
832.0281	716.7761	65535	64578.95
832.173	718.8688	65535	64574.2
832.3179	720.9608	65535	64561.7
832.4628	723.0522	65535	64555.25
832.6077	725.1429	65535	64565.4
832.7527	727.233	65535	64574.15
832.8976	729.3224	65535	64566.9
833.0425	731.4112	65535	64569.5
833.1874	733.4993	65535	64566.1
833.3324	735.5867	65535	64568.8
833.4773	737.6735	65535	64566.4
833.6222	739.7596	65535	64567.8
833.7672	741.845	65535	64571.55
833.9122	743.9298	65535	64564.7
834.0571	746.014	65535	64567.3
834.2021	748.0974	65535	64566.75
834.347	750.1802	65535	64558.4
834.492	752.2624	65535	64567.2
834.637	754.3439	65535	64558.75
834.782	756.4247	65535	64555.6
834.9269	758.5048	65535	64568.35
835.0719	760.5843	65535	64564.3
835.2169	762.6631	65535	64562.45
835.3619	764.7413	65535	64564.25
835.5069	766.8188	65535	64564.9
835.6519	768.8956	65535	64561.9
835.7969	770.9718	65535	64561.15
835.9419	773.0473	65535	64567.2
836.0869	775.1221	65535	64564.7
836.232	777.1962	65535	64565.1
836.377	779.2697	65535	64559.85
836.522	781.3426	65535	64544.9
836.667	783.4147	65535	64562.45
836.8121	785.4862	65535	64565.7
836.9571	787.557	65535	64562.05
837.1021	789.6271	65535	64558.75
837.2472	791.6966	65535	64562.15
837.3922	793.7654	65535	64564.2
837.5373	795.8335	65535	64567.65
837.6823	797.901	65535	64562.65
837.8274	799.9678	65535	64560.4
837.9724	802.0339	65535	64561.5
838.1175	804.0993	65535	64547.95
838.2626	806.1641	65535	64560.9
838.4076	808.2282	65535	64562.8
838.5527	810.2916	65535	64563.65
838.6978	812.3544	65535	64567
838.8428	814.4164	65535	64568.2
838.9879	816.4778	65535	64559.75
839.133	818.5385	65535	64554.7
839.2781	820.5986	65535	64562.6
839.4232	822.658	65535	64553.35
839.5682	824.7166	65535	64563.9
839.7133	826.7747	65535	64561.85
839.8584	828.832	65535	64561.2
840.0035	830.8886	65535	64556.4
840.1486	832.9446	65535	64557.15
840.2937	834.9999	65535	64562.95
840.4388	837.0545	65535	64559.15
840.5839	839.1085	65535	64560
840.729	841.1618	65535	64558.1
840.8741	843.2143	65535	64560.25
841.0192	845.2662	65535	64557.5
841.1643	847.3175	65535	64562.8
841.3095	849.368	65526.7	64552.1
841.4546	851.4179	65535	64559.25
841.5997	853.467	65534.2	64558.55
841.7448	855.5155	65535	64558.35
841.8899	857.5633	65525.25	64547.45
842.0351	859.6105	65518.15	64538.35
842.1802	861.6569	65531.5	64552.55
842.3253	863.7027	65501.05	64522.9
842.4704	865.7478	65513.75	64535.6
842.6156	867.7922	65506.15	64525.45
842.7607	869.8359	65526.6	64551.15
842.9058	871.8789	65498.35	64522.05
843.0509	873.9212	65508.65	64503.85
843.1961	875.9629	65517.95	64535.9
843.3412	878.0039	65511.45	64533.75
843.4863	880.0441	65502.35	64527.95
843.6315	882.0837	65503.75	64527.8
843.7766	884.1226	65495.7	64520.6
843.9218	886.1609	65479.6	64503.4
844.0669	888.1984	65426.7	64451.65
844.212	890.2352	65500.65	64524.6
844.3572	892.2714	65425.35	64446.45
844.5023	894.3069	65480.75	64500.2
844.6475	896.3416	65424.55	64443.85
844.7926	898.3757	65408	64427
844.9377	900.4091	65276.8	64297.45
845.0829	902.4418	65445.6	64459.3
845.228	904.4739	65341.1	64359.7
845.3732	906.5052	65356.9	64373.7
845.5183	908.5358	65300.75	64316.3
845.6635	910.5658	65271.95	64293
845.8086	912.595	65279.15	64301.45
845.9538	914.6236	65153.35	64175.35
846.0989	916.6515	65332.25	64353.2
846.2441	918.6786	65159	64182.7
846.3892	920.7051	65200.1	64222.05
846.5344	922.7309	65168.75	64188.8
846.6795	924.756	65183.45	64205.8
846.8246	926.7804	65154.5	64175.4
846.9698	928.8041	65007.05	64028.75
847.1149	930.8272	65112.65	64130
847.2601	932.8495	65119.25	64140.15
847.4052	934.8711	65020.6	64039.2
847.5504	936.892	64937	63957.85
847.6955	938.9123	64988.2	64008.05
847.8407	940.9318	64897	63915.35
847.9858	942.9506	64865.4	63883.4
848.131	944.9688	64897.4	63920.2
848.2761	946.9862	64674.7	63697
848.4213	949.003	64791.05	63814.75
848.5664	951.019	64567.9	63588.7
848.7115	953.0344	64628.5	63651.05
848.8567	955.0491	64592.95	63612.95
849.0018	957.063	64650.3	63673.8
849.147	959.0763	64665.9	63679.8
849.2921	961.0888	64516.55	63540.8
849.4373	963.1007	64628.2	63654
849.5824	965.1119	64618.4	63650.4
849.7275	967.1223	64511	63551.55
849.8727	969.1321	64639.3	63680.95
850.0178	971.1412	64459.2	63491.75
850.1629	973.1495	64388.9	63417.45
850.3081	975.1572	64489.4	63461.9
850.4532	977.1641	64397.5	63422.45
850.5983	979.1704	64366.25	63389.35
850.7435	981.1759	64395.5	63413.6
850.8886	983.1808	64282.8	63305.45
851.0337	985.1849	64280.55	63292.75
851.1788	987.1884	64319.1	63341.45
851.324	989.1911	64420.65	63442.45
851.4691	991.1932	64105.6	63131.7
851.6142	993.1945	64194.6	63220.45
851.7593	995.1951	64271	63293.05
851.9045	997.1951	64103.35	63117.35
852.0496	999.1943	64044	63069.55
852.1947	1001.1928	63963.5	62987.05
852.3398	1003.1906	63994.9	63017.55
852.4849	1005.1877	63681.7	62705.55
852.63	1007.1841	63641.75	62665.1
852.7751	1009.1798	63644.75	62672.65
852.9202	1011.1748	63605.8	62632.55
853.0653	1013.1691	63483.25	62506.4
853.2104	1015.1627	62249.15	61272.4
853.3555	1017.1556	62937.15	61966.2
853.5006	1019.1477	63050.1	62081.35
853.6457	1021.1392	62531	61566.75
853.7908	1023.1299	61599.65	60637.2
853.9359	1025.12	62287.9	61334.85
854.081	1027.1093	61809.95	60867.8
854.2261	1029.0979	61824.35	60884.25
854.3712	1031.0859	61723.45	60773.9
854.5163	1033.0731	60954.85	59998.05
854.6613	1035.0596	61368.75	60407.05
854.8064	1037.0454	61094.4	60126.8
854.9515	1039.0304	60680.5	59708.85
855.0965	1041.0148	59672.2	58702.7
855.2416	1042.9985	59885.8	58916.1
855.3867	1044.9814	60540.65	59572.7
855.5317	1046.9636	59428.6	58458.7
855.6768	1048.9452	59597.5	58630.4
855.8219	1050.926	59372.1	58402.7
855.9669	1052.9061	59283.9	58311.35
856.112	1054.8855	59364.65	58391.6
856.257	1056.8642	58957.2	57983.35
856.4021	1058.8421	58560.9	57582.35
856.5471	1060.8194	58636.75	57663.2
856.6921	1062.7959	58156.6	57183.65
856.8372	1064.7717	58704.1	57732
856.9822	1066.7469	58371.6	57399.45
857.1272	1068.7213	58336.2	57364.1
857.2723	1070.695	57884.25	56913.9
857.4173	1072.6679	57314.85	56345.9
857.5623	1074.6402	57678.45	56705.3
857.7073	1076.6117	57189.4	56210.3
857.8523	1078.5826	57128.1	56156.3
857.9973	1080.5527	57281.6	56309.15
858.1423	1082.5221	56971.2	55999.2
858.2873	1084.4908	57216.05	56246.6
858.4323	1086.4587	57071.45	56100.5
858.5773	1088.426	57130.7	56157.7
858.7223	1090.3925	57027.25	56050.85
858.8673	1092.3584	56841.85	55875.4
859.0123	1094.3235	56179.2	55208.4
859.1573	1096.2879	56056.85	55088.55
859.3022	1098.2515	56123.7	55155.25
859.4472	1100.2145	55805.5	54837.15
859.5922	1102.1767	55684.2	54710.4
859.7371	1104.1382	55898.05	54930.65
859.8821	1106.099	55755.2	54784.4
860.027	1108.0591	55770.35	54799.35
860.172	1110.0185	55161	54189.6
860.3169	1111.9771	55740.4	54772.55
860.4619	1113.9351	55153.6	54185.6
860.6068	1115.8923	54598.5	53628.35
860.7517	1117.8488	54064.25	53096.6
860.8967	1119.8045	53433.15	52465.9
861.0416	1121.7596	53455.85	52489.85
861.1865	1123.7139	53185.5	52218
861.3314	1125.6675	53061.65	52093.55
861.4763	1127.6204	52979.15	52011.05
861.6212	1129.5726	52674.25	51702.8
861.7661	1131.524	52849.5	51878.2
861.911	1133.4748	52858.9	51890
862.0559	1135.4248	52546.1	51579.75
862.2008	1137.3741	52452.85	51483.95
862.3457	1139.3226	52291.1	51321.85
862.4905	1141.2705	52158.3	51193.05
862.6354	1143.2176	51915.5	50944.2
862.7803	1145.164	51663.6	50691
862.9251	1147.1097	51692.85	50724.25
863.07	1149.0546	51501.55	50531.3
863.2148	1150.9989	51465.75	50498.55
863.3597	1152.9424	51086.55	50119.3
863.5045	1154.8852	50952.1	49984.3
863.6493	1156.8272	50599.25	49632.05
863.7942	1158.7686	50724.3	49748.6
863.939	1160.7092	50189.5	49218.8
864.0838	1162.6491	50033.4	49062.75
864.2286	1164.5883	50136.35	49167.7
864.3734	1166.5267	49894.85	48926.45
864.5182	1168.4644	50044	49077.95
864.663	1170.4014	50006.45	49038.45
864.8078	1172.3377	50274.25	49309.5
864.9526	1174.2732	50483.25	49517.6
865.0974	1176.2081	50314.15	49347.2
865.2421	1178.1421	50325.8	49354.5
865.3869	1180.0755	50573.45	49606.85
865.5317	1182.0082	50273.9	49310.45
865.6764	1183.9401	50195.1	49231.4
865.8212	1185.8713	49723.35	48767.8
865.9659	1187.8017	49453.95	48504.15
866.1106	1189.7315	49185.5	48243.4
866.2554	1191.6605	48728.95	47787.05
866.4001	1193.5888	48320.45	47373.75
866.5448	1195.5163	48076.1	47123.05
866.6895	1197.4432	47873.4	46910.9
866.8342	1199.3693	47683.4	46724.9
866.9789	1201.2947	47452.75	46484.1
867.1236	1203.2193	47311.4	46347.95
867.2683	1205.1432	47193.4	46230.3
867.413	1207.0664	47053.85	46093.65
867.5576	1208.9889	46927.75	45963.05
867.7023	1210.9106	46841.7	45880.2
867.847	1212.8316	46676.55	45712.5
867.9916	1214.7519	46684.45	45710.7
868.1363	1216.6715	46489.3	45524.75
868.2809	1218.5903	46357.8	45396.2
868.4255	1220.5084	46209.55	45244.95
868.5701	1222.4257	46119.7	45159.7
868.7148	1224.3424	45729.75	44771.8
868.8594	1226.2583	45714.95	44750.65
